Time	Fz	Fpz	C3	C4	T5	T4	O1	O2	F7	F8	F3	F4	T3	T6	P3	P4
0.0000	-0.1340	-12.7162	8.7972	34.3223	-35.1666	-24.5167	10.4519	59.4797	-8.8693	-7.3958	-9.1441	10.6595	9.7773	-7.1925	-9.0061	42.1237
8.0001	17.0286	19.2895	-1.7448	12.1740	-4.5483	1.2351	14.6553	42.1996	20.2758	11.5126	17.7470	25.2459	19.4186	0.8917	9.1701	22.7102
16.0002	17.8020	25.6001	-5.2215	12.9848	2.5368	7.9645	21.4021	52.6303	29.8732	19.1760	17.5725	29.2840	22.9718	1.7184	3.4243	24.1385
24.0003	16.1704	21.4216	-7.0992	2.5645	-6.1355	-5.7652	16.2385	51.1721	26.2258	14.9070	15.3824	29.5902	21.0399	-4.9771	-3.8804	22.0112
32.0004	13.4284	13.6425	-3.1707	4.4597	-3.3792	-9.2080	17.2740	63.8893	16.9057	8.8612	9.6749	27.6513	22.8368	-5.7258	0.9853	24.6686
40.0005	23.7897	27.9189	10.1490	24.0245	11.6894	12.8169	27.6437	78.1128	30.4357	22.4262	20.4478	32.6114	23.8807	8.8825	-0.9846	26.3019
48.0005	30.6907	35.3131	17.4036	25.3314	16.9400	19.6924	30.6352	81.3616	35.5418	27.5221	27.7046	35.9820	24.6418	14.9243	-0.5962	26.5869
56.0006	21.8975	22.2258	2.5826	7.6375	5.2575	1.0826	26.9277	80.1830	23.7144	15.4502	16.7282	35.7454	30.3461	0.8666	12.4092	30.1746
64.0007	10.5224	6.5333	-11.8465	-8.9463	-18.7492	-17.4786	17.8996	72.4609	10.9828	2.8746	4.3395	32.2758	29.2877	-13.2458	12.2417	29.1215
72.0008	-0.6062	-7.6874	-16.1884	-20.0358	-26.0969	-26.7841	9.9562	64.5059	-5.6091	-10.5536	-6.2176	22.0413	22.6144	-19.7175	2.9361	23.1248
80.0009	-8.5683	-11.6899	-20.3877	-15.3111	-12.0487	-17.4559	11.8292	61.5734	-12.5981	-16.2788	-10.5421	13.1515	18.7262	-17.8985	-0.2658	16.2603
88.0010	-3.2427	-1.8905	-6.4285	4.7629	7.9311	8.4010	19.6253	62.4472	-4.1050	-5.3835	-3.7778	9.9171	13.0210	-1.6231	-3.8191	8.9542
96.0011	-1.1087	-3.3612	4.0267	7.3077	12.0060	10.8700	21.9656	61.8462	-5.6668	-2.6000	-6.3269	7.8896	11.9557	3.2929	1.9281	11.0560
104.0012	4.0370	2.4261	6.1024	11.0478	12.3284	18.3588	26.8311	63.8529	-1.4940	1.3561	-1.3373	11.8245	16.6451	7.9622	11.4306	19.1087
112.0013	12.5893	12.7827	12.5261	14.9303	9.9012	25.3137	24.2440	58.1788	8.1882	8.8434	10.3553	15.7193	13.6541	14.2245	5.0769	14.9242
120.0014	-10.7167	-20.8391	-13.1305	-20.2708	-26.5238	-22.9815	-0.8063	36.4246	-17.7268	-16.3818	-17.0638	5.9178	9.8186	-17.5908	3.1582	7.2543
128.0014	-23.0433	-34.2902	-23.6009	-25.7573	-30.6400	-30.9765	-3.9294	32.0782	-27.9346	-24.7279	-31.4529	-1.1426	8.6962	-26.0679	4.8309	5.1107
136.0015	-4.4796	-7.7044	-0.1760	-1.2797	-7.1420	0.0372	8.6005	33.2530	-6.0516	-3.9019	-8.2094	3.2772	2.4460	-2.3323	-6.9397	1.2370
144.0016	-5.1023	-11.4666	-6.2449	-10.6639	-24.8626	-18.3948	-0.7036	22.2133	-9.6142	-10.0984	-7.3486	4.8299	1.8885	-11.4872	-8.2387	3.6254
152.0017	-2.7431	-7.7296	-5.5277	-4.1993	-20.3125	-18.2267	-2.1311	23.8124	-5.6148	-7.8128	-3.8576	6.3547	3.3335	-10.7381	-9.6965	5.5018
160.0018	-1.1168	-3.8691	-2.9232	-3.4679	-15.5441	-19.0881	-2.3130	21.8844	-2.7324	-6.0934	-0.3931	5.7948	-0.2326	-9.8199	-20.3253	2.1353
168.0019	-14.4491	-19.4022	-20.3420	-17.5963	-27.3628	-30.7726	-2.1722	25.1044	-19.2055	-21.5024	-14.8884	1.9214	5.3965	-22.2528	-11.3901	10.6368
176.0020	-1.3153	0.7856	-3.6137	8.2863	-0.6212	3.7134	12.5319	38.7281	-1.7614	-3.3991	-0.6151	6.2329	7.8958	-0.7674	-9.6828	14.3470
184.0021	0.7504	-0.8865	1.9600	4.4180	-14.5325	-6.0719	3.0087	30.3336	-0.7546	-2.4995	1.1611	6.2065	0.1441	-2.7567	-21.9602	5.4022
192.0022	-13.2133	-20.0085	-9.5260	-9.8108	-23.8223	-21.8832	0.3984	33.2926	-20.3927	-19.4997	-14.6027	-0.3482	0.0122	-15.1557	-18.0131	3.9877
200.0023	4.7058	6.8552	14.0928	16.8519	21.3219	13.3568	20.6198	44.3844	-1.2395	-0.1195	6.5827	3.4607	0.2546	10.2096	-16.7824	4.4050
208.0023	3.3252	-0.6928	7.5801	-5.4429	-5.5620	-10.1908	8.7378	29.1809	-8.1195	-8.2706	4.7188	5.2378	-1.3251	-1.6904	-16.6934	3.7712
216.0024	-16.1644	-24.4573	-18.0331	-31.8686	-30.2263	-30.1709	1.6516	25.0202	-28.0778	-26.7498	-18.1891	-0.2011	3.6289	-21.6980	-7.0072	7.2874
224.0025	4.1755	8.2751	3.9395	4.4118	18.7589	9.9103	22.1312	34.5511	2.4331	2.2972	3.4510	6.6027	8.1986	5.3170	-1.9396	13.2024
232.0026	21.2945	24.1259	18.5932	13.8391	24.0683	8.1087	22.8124	32.1013	18.0693	15.2612	19.7943	16.5580	10.8399	12.2391	4.0213	19.0277
240.0027	3.4055	-1.8762	-2.2734	-13.4084	-7.3901	-21.5769	9.4772	24.2432	-5.9241	-7.5536	0.2591	10.3717	10.4923	-9.5771	7.0381	17.5901
248.0028	-7.0218	-10.9658	-13.3704	-16.2243	-11.9475	-19.2978	7.2738	22.2261	-15.6525	-16.4502	-8.1677	4.0311	10.0701	-13.6534	6.4578	16.6607
256.0029	11.8457	14.3113	5.3982	10.0905	14.2805	10.7446	21.8206	34.8016	8.7500	6.7445	10.7507	13.6984	15.1570	7.4014	12.9750	22.5561
264.0030	30.9271	34.7724	27.0308	28.3998	31.7134	26.6599	32.0411	44.6709	30.8267	28.9053	25.6838	24.1690	19.2381	23.4466	19.2635	28.9883
272.0031	16.5117	9.1260	11.5419	1.9268	-6.2470	-7.5634	12.2609	36.0000	10.1105	9.9904	6.5396	20.0585	19.3574	1.7290	20.5310	29.6746
280.0032	-7.8191	-23.4037	-10.8728	-25.4608	-34.5862	-37.1461	-5.2399	29.3005	-18.6192	-16.0666	-19.6521	8.4090	14.9977	-21.8716	15.7600	19.4745
288.0032	-3.0330	-15.1875	6.2884	-7.0039	-4.2491	-14.8094	8.5841	39.7275	-15.5559	-9.1514	-14.4901	4.2633	10.6884	-5.9578	12.7439	15.7491
296.0033	14.2999	7.4799	27.4758	11.6900	21.8946	12.6283	23.6394	46.6680	0.8468	7.9677	4.0557	9.6494	12.1347	15.2572	15.2193	21.7964
304.0034	12.9679	6.7092	18.2930	-1.7262	10.3506	2.7430	17.1144	35.7799	4.2768	8.8047	2.1862	12.2204	13.4032	7.5879	15.0873	19.9153
312.0035	-0.4132	-9.4753	1.7801	-16.4566	-2.8785	-12.5992	8.8433	32.2072	-6.2445	-1.1286	-14.3724	8.1953	15.7530	-6.7200	19.2672	18.0823
320.0036	3.1434	-2.2185	2.6576	-7.1934	8.9976	0.0240	12.1863	38.3283	0.1600	3.6650	-8.2859	10.5206	18.4873	-0.9726	22.2211	16.6593
328.0037	12.2903	7.8932	6.1634	-4.0551	5.6983	-1.1714	6.5610	31.4689	8.0681	6.9453	6.7100	15.8200	15.9809	1.3602	17.0920	11.5746
336.0038	-3.0022	-14.9416	-11.0349	-30.3777	-25.1146	-27.2777	-10.0175	20.8711	-14.2461	-13.9860	-9.4573	9.2023	14.9637	-17.2991	15.6405	11.1051
344.0039	-7.8127	-15.3652	-17.0424	-31.9353	-18.7145	-17.9372	-7.3158	20.0595	-13.5239	-12.6525	-14.3827	6.1684	16.2574	-16.4197	15.3088	10.2801
352.0040	8.7993	9.4589	-1.5463	-11.2981	5.5833	8.1301	5.1457	20.2562	7.9235	6.0665	6.8221	12.3796	14.6983	2.2782	13.8878	7.9842
360.0041	-0.7045	-5.9165	-10.3879	-34.3798	-14.4707	-9.3697	-4.6444	9.2247	-10.1328	-10.1478	-2.2309	6.5891	10.9561	-8.9998	12.2644	3.8499
368.0042	-13.5127	-21.7172	-18.8942	-51.0057	-23.3488	-22.4515	-10.5079	0.2809	-23.5082	-20.4000	-17.9964	-1.8249	6.3954	-19.1637	8.2848	-2.6655
376.0042	-2.4538	-3.8448	-2.3532	-24.0653	4.0386	-0.8516	4.3808	2.9410	-3.6863	-0.6876	-7.3845	0.5402	2.9753	-2.7868	6.8508	-4.9406
384.0043	-3.8089	-5.6446	-8.4785	-24.8723	-5.0096	-11.6991	1.1084	-3.2236	-1.7528	-1.4995	-8.1134	2.3751	2.1060	-9.2796	7.3371	-6.6339
392.0044	-17.2969	-25.6111	-24.6450	-43.3250	-29.3160	-36.2969	-12.7243	-10.8656	-18.0062	-17.5182	-23.1084	-2.0683	1.6494	-26.9021	9.1762	-9.7285
400.0045	-20.9015	-29.1326	-19.0913	-33.1054	-18.9714	-25.5853	-9.0067	-8.8670	-22.7428	-18.6066	-26.9284	-8.7960	-2.8762	-20.8766	8.7954	-14.7108
408.0046	-14.2511	-18.0437	-10.4497	-17.4359	-5.4726	-13.3554	-3.0747	-9.2839	-13.4789	-11.0034	-16.1411	-8.0590	-7.9170	-11.4918	2.3570	-20.6007
416.0047	5.2241	7.8542	7.3424	0.5005	15.3771	6.8771	5.5735	-6.2818	9.1135	8.2353	7.0520	0.8427	-8.0025	5.7123	-2.1151	-20.4188
424.0048	29.4937	37.9097	32.6039	23.4367	41.9274	33.9717	18.1398	-0.6260	36.3037	33.9620	31.8315	11.6075	-5.5193	28.7964	0.1946	-15.4573
432.0049	36.7173	43.6189	34.5438	26.5593	35.1958	30.8994	16.6082	-1.2306	42.9215	38.5121	38.4202	18.3335	-0.6463	29.3223	8.0362	-7.2624
440.0050	21.5561	24.2664	13.9440	7.0011	8.9155	12.8488	2.5252	-8.8369	25.9239	22.0223	22.0463	13.1370	3.1220	12.7374	11.0539	-1.9957
448.0051	8.0917	8.8562	-2.3703	-6.9468	-7.7186	-2.1109	-7.9940	-12.7896	13.5112	9.5945	7.9960	7.9300	3.6761	-1.0376	6.7390	-2.2509
456.0051	11.6219	14.2823	3.9056	11.3491	5.2073	9.3218	-0.1646	1.1780	15.7119	11.6298	13.7343	8.9341	5.1251	6.5570	7.5275	1.7949
464.0052	16.0816	21.2648	12.2731	27.5603	19.4707	27.3250	6.8836	10.3462	18.5355	15.5229	20.3576	8.5580	5.8135	17.6621	9.0481	4.3812
472.0053	8.3148	8.5220	-2.2951	7.8651	-3.9815	3.9894	-6.7835	6.2420	10.9691	5.9841	11.0560	9.8298	7.6294	1.3080	8.6220	1.0075
480.0054	-4.4403	-7.3595	-14.6015	-2.2570	-14.9283	-7.6104	-12.8858	9.7687	-2.2523	-5.9547	-3.2716	4.8896	7.9930	-9.8927	7.5777	-1.5834
488.0055	-11.8543	-11.9993	-13.3716	3.2654	-7.4078	3.2989	-7.5876	9.8578	-8.2936	-8.2998	-10.5450	-4.0999	2.1687	-5.6669	-0.9229	-4.6088
496.0056	-18.8758	-21.1877	-21.1327	-12.4318	-19.6152	-12.2089	-11.4734	2.9448	-16.3445	-16.1886	-18.4435	-6.8781	-0.8280	-15.6063	-5.8888	-7.6046
504.0057	-21.6513	-24.5589	-23.8717	-18.1481	-18.6630	-17.9731	-11.6569	2.4920	-21.2630	-21.3018	-20.1810	-8.4578	-2.1814	-19.2038	-7.1953	-10.8419
512.0058	-7.1655	-3.9212	-7.7059	3.4502	-0.8790	2.5617	-0.6214	7.9060	-2.1529	-4.4308	-2.3073	-2.6023	-5.8186	-3.0937	-14.9829	-14.1077
520.0059	-0.1812	5.5147	-1.7899	11.7658	3.4509	11.7435	4.7880	14.1239	7.2224	3.4724	5.8958	2.1502	-5.7917	3.4376	-17.7014	-14.3989
528.0060	-12.5121	-8.9034	-12.0033	3.5762	-1.9980	4.7377	-1.8192	13.7047	-8.1630	-9.8938	-6.2796	-5.5992	-6.0140	-4.5855	-19.0632	-15.2682
536.0060	-11.1011	-6.0036	-7.9141	10.7745	3.5123	6.6098	-1.7919	14.5570	-4.6195	-6.5937	-4.5629	-6.3914	-8.3038	-2.1264	-26.1369	-16.3488
544.0061	-6.0389	-1.3118	-2.7927	13.8604	6.4358	4.5733	1.4461	17.6985	1.2907	-1.4344	-0.8803	-2.4956	-7.9227	-0.6433	-25.6111	-15.5262
552.0062	-28.5514	-31.6684	-28.5438	-17.5625	-25.7886	-24.3090	-14.2016	9.0736	-27.2701	-27.8481	-25.4165	-11.5217	-6.6345	-24.5300	-21.4871	-15.5871
560.0063	-44.8629	-47.8608	-43.5012	-27.9568	-35.1991	-24.5803	-19.0456	4.3668	-42.8630	-40.5047	-41.8685	-21.6309	-7.6024	-31.9932	-22.7080	-17.1182
568.0064	-26.3406	-20.8231	-17.7877	6.4235	2.8155	8.4473	-0.3056	9.4552	-18.8274	-16.6887	-20.9868	-17.7354	-11.6649	-6.5002	-24.8004	-19.4462
576.0065	-2.5238	3.7543	9.5371	28.2730	18.4740	19.4615	8.1288	8.0366	2.5640	2.7895	4.3315	-7.9640	-15.3029	11.3357	-24.5637	-18.9462
584.0066	10.3911	13.6038	21.6672	32.0349	16.2263	17.8423	8.2281	5.8911	12.5846	12.3275	14.6292	-0.1995	-12.4700	16.6839	-16.9878	-11.8932
592.0067	4.1151	3.9366	4.4170	13.4562	-4.5251	-8.6508	-3.8015	-3.3899	8.3767	4.9018	6.0028	2.6339	-6.3269	-1.0946	-10.5896	-6.0860
600.0068	-17.8722	-19.0800	-25.6736	-13.0526	-32.1707	-30.5039	-20.4625	-18.2289	-12.7238	-17.6308	-12.9704	-6.7617	-7.3773	-23.1852	-17.1630	-9.8770
608.0069	-11.4360	-4.1694	-9.6532	12.5376	0.4690	9.6999	-3.7243	-7.4639	-4.6965	-6.7173	-2.3256	-10.7210	-11.4080	-0.0315	-22.2518	-13.7088
616.0070	6.8146	17.7573	9.4661	31.7375	22.4325	31.2082	8.7326	6.2303	14.8029	11.8999	15.6463	-1.0420	-7.0237	17.5056	-17.8718	-8.0797
624.0070	-3.9969	-1.6980	-9.6763	1.5798	-14.2103	-2.4650	-10.9220	-3.9383	-0.9675	-4.3673	0.8317	-1.0865	-0.7180	-4.6437	-12.5922	1.0928
632.0071	-17.0142	-22.0241	-22.5711	-16.7105	-32.6960	-32.6329	-21.5476	-9.0674	-18.8481	-20.7033	-16.5196	-6.0946	1.0435	-23.0353	-9.6913	6.6763
640.0072	-22.7607	-29.0054	-29.8034	-25.8494	-34.0577	-45.4768	-24.3020	-8.5195	-23.6481	-25.9184	-23.9805	-7.2539	2.2711	-31.8450	-9.9595	5.5135
648.0073	-16.6072	-18.1145	-23.8374	-17.0981	-19.5841	-23.8734	-20.2947	-6.1686	-14.6162	-16.9179	-15.7129	-5.8859	3.4812	-20.3957	-8.5720	2.7936
656.0074	6.2191	11.8343	0.8145	12.2568	10.1093	8.0469	-3.1356	3.5816	10.9843	6.5994	10.8043	3.7449	2.8771	4.4672	-7.9328	2.3531
664.0075	8.6955	12.8695	1.5716	5.5613	2.0243	-1.1425	-1.9642	-0.8894	12.8327	7.0288	13.5054	6.7382	-0.6101	1.3730	-10.5646	-1.7819
672.0076	2.5957	1.6120	0.6769	-2.5174	-4.1752	-10.1593	-3.4806	-3.2922	2.4801	0.2018	3.6340	2.5020	-2.2754	-3.5024	-5.2190	-3.2279
680.0077	11.0683	11.2742	16.5581	14.2352	15.3293	12.2116	5.9477	7.1221	8.9519	10.0663	10.3327	3.3852	-0.0378	12.1586	1.5564	1.3099
688.0078	8.1406	6.7381	12.9222	8.8450	3.3097	17.2218	0.5573	5.2346	3.7994	6.3597	7.7548	1.8015	0.9219	12.2936	3.5126	1.7423
696.0079	0.8251	-4.7730	2.3786	1.5776	-11.1832	3.0714	-4.8013	5.7427	-5.5255	-3.6140	0.1177	1.2251	2.2766	1.7797	9.1162	0.8654
704.0079	12.4072	11.0721	13.6923	20.7831	11.3453	17.7458	7.8092	16.0265	9.4735	9.7765	12.1289	7.6291	5.5313	13.3247	15.2396	4.2017
712.0080	22.2896	22.2064	22.1345	27.8245	18.7782	24.8859	12.8187	17.8244	20.8973	20.5760	20.3398	13.5727	9.2659	20.4545	21.4298	10.2427
720.0081	-0.1208	-8.7971	-5.6291	-8.8784	-16.8956	-20.5273	-5.4890	6.2044	-5.5628	-6.0646	-4.9767	6.5983	9.0621	-10.8444	19.1114	9.1050
728.0082	-29.5863	-41.7172	-34.4662	-44.6133	-43.7067	-49.5709	-23.0172	-8.2769	-37.0385	-35.6035	-33.2003	-9.7693	1.0670	-36.7353	1.9714	-3.5977
736.0083	-29.9854	-38.1476	-29.9695	-36.2877	-34.5212	-34.4330	-19.3338	-6.8051	-34.8112	-32.0799	-31.6450	-13.6127	-3.4502	-29.0245	-7.2220	-8.6681
744.0084	-30.7633	-36.9258	-31.1988	-31.8578	-31.8721	-33.0312	-15.9957	-7.2039	-34.0277	-31.8021	-31.6066	-14.3956	-3.5284	-28.5424	-8.0399	-5.6249
752.0085	-33.4946	-36.7044	-31.9391	-32.2197	-26.3734	-26.8202	-13.9596	-13.3839	-37.3403	-34.1239	-32.0508	-19.4446	-6.3324	-25.9970	-12.1282	-5.9788
760.0086	-6.5785	-2.2956	-1.3534	6.5865	10.8571	10.9826	3.7245	0.3611	-7.2251	-5.5707	-2.6518	-8.5921	-4.3030	3.8535	-9.0914	-1.5639
768.0087	13.1245	18.3831	15.5328	26.1887	21.0117	22.7827	9.0872	8.4093	13.4897	11.8863	17.9242	3.8113	-0.8383	16.9896	-3.0459	1.5788
776.0088	7.9041	7.2896	5.5698	5.6525	1.3121	2.2289	-0.0218	3.9540	3.6114	1.4331	11.3109	4.8548	0.9758	4.0846	1.3116	0.6915
784.0088	5.7875	3.2496	-1.6477	-3.8466	-3.8783	-7.0719	-1.8307	9.0119	1.4347	-1.8242	7.3562	8.1195	6.3951	-3.0869	7.5947	3.1995
792.0089	0.2109	-3.4571	-10.6721	-9.0452	-14.9889	-11.2626	-5.5539	12.0108	-1.7533	-5.3983	0.6235	8.4780	8.9953	-9.2111	9.3748	3.5292
800.0090	1.9621	0.6645	-4.3238	3.9799	-2.2683	4.1060	3.8825	22.4686	0.8931	-0.4108	0.9123	7.7035	11.4295	-0.4656	12.3191	10.2329
808.0091	18.1936	20.1380	20.6798	29.0558	27.9644	31.3590	20.2846	36.8017	15.4380	17.0545	15.0120	11.9426	14.4580	21.6561	17.6115	20.1067
816.0092	12.1922	6.9053	16.4238	10.3626	4.9443	10.8644	10.5077	28.0912	3.2678	6.7173	6.3338	9.3394	11.2440	10.9366	15.3776	18.6416
824.0093	1.0888	-3.6492	-0.7234	-1.2307	-6.1954	-5.7771	6.6297	20.6597	-6.3226	-5.0291	-2.9391	5.6861	11.2394	-2.7242	13.4307	19.7956
832.0094	11.8364	16.7785	8.6086	22.6033	22.9431	21.0673	19.4510	27.2961	9.7250	8.3869	13.1790	8.8465	12.6856	13.4803	12.0791	21.8177
840.0095	17.7907	21.2424	18.4494	24.1285	24.6265	22.9590	19.0061	26.1331	12.5217	11.7939	19.5219	10.0196	8.7913	18.4068	7.8381	17.2437
848.0096	17.6620	18.6808	18.2842	19.6914	23.8617	13.0168	18.5605	22.4290	11.2780	10.7649	17.0788	10.5846	9.3742	14.3852	13.2926	18.0710
856.0097	17.2583	17.7063	17.2643	19.7341	23.0381	15.7776	19.4861	22.5589	12.1809	12.5021	14.7726	11.2159	11.6049	14.8830	20.4736	19.1459
864.0097	15.5128	13.5870	15.3945	13.6006	12.7294	9.4005	16.4374	21.5636	9.2325	10.1766	11.2840	11.4024	11.9233	11.2411	19.6532	21.4695
872.0098	18.5462	18.5336	15.2865	14.2184	20.2868	7.6500	19.1928	21.9510	12.6651	12.2682	14.2053	13.6716	16.1747	11.2302	22.7668	29.1821
880.0099	14.5485	13.5175	10.5127	5.5389	15.2861	5.7527	16.9712	21.7144	8.1794	8.7502	9.0726	12.3889	17.4101	7.8999	24.2451	28.6071
888.0100	17.1551	15.8009	13.9459	5.0497	11.3959	6.3366	16.0759	19.8123	11.2251	11.5325	11.9926	13.6270	14.3088	9.5133	19.3962	24.4265
896.0101	27.6025	28.7240	24.2500	14.6563	24.0321	13.1972	20.5378	19.3445	23.3074	22.0313	23.2760	18.2024	14.0747	17.4702	19.4331	24.3309
904.0102	30.7214	33.7812	32.6054	21.6478	36.8028	27.3797	26.8467	24.7080	28.7978	30.1418	23.7109	17.7277	14.4744	26.1668	20.1661	24.6864
912.0103	45.9119	56.5561	51.7171	47.5190	65.4193	57.4636	40.8772	30.5762	49.6212	51.0363	39.6608	21.9613	14.8511	47.3345	19.7052	27.9591
920.0104	45.9821	54.1361	46.2666	38.1104	51.8881	40.7900	34.1692	19.9095	48.1358	47.1147	40.2903	24.1036	14.9390	39.0839	21.1248	29.6543
928.0105	22.1935	20.0022	21.1557	-0.0701	8.2543	1.1170	16.2534	8.6051	17.2857	18.4392	13.7305	14.9361	11.1434	10.7479	16.3301	25.3976
936.0106	16.4726	17.0704	19.9508	1.8042	15.2883	11.3860	20.8254	12.7218	11.2515	14.1980	10.5267	8.9749	7.1310	13.8187	9.1426	19.9808
944.0107	12.4294	15.0682	14.6688	1.0705	19.0840	9.7935	20.7748	10.9209	8.8163	10.8004	8.4536	6.4174	6.0871	11.0291	6.6095	17.2717
952.0107	8.9006	10.0652	8.7623	-5.8597	8.7485	-1.0635	14.3268	7.3593	6.3135	7.2732	4.4005	6.2322	5.8439	3.9375	2.9863	16.7190
960.0108	7.0439	8.7325	3.3545	-11.8030	3.0668	-1.5259	10.0522	7.8372	6.0317	5.7955	3.6573	7.0653	6.6386	1.1423	0.1275	13.5098
968.0109	-8.5997	-10.9588	-15.9047	-32.5121	-14.6861	-23.5281	0.4277	2.4276	-9.5134	-9.4449	-14.0701	2.0085	7.5363	-16.9601	2.5356	10.2927
976.0110	-0.0044	0.1697	-3.0805	-13.9945	1.8942	-10.0230	7.5745	4.7854	0.4786	0.7999	-4.9391	3.5614	6.1725	-5.4504	3.9690	10.8407
984.0111	10.8279	14.5039	9.6332	0.2610	11.1950	7.5846	12.6600	4.9576	12.0801	11.5560	9.2010	6.6369	2.8334	7.8585	-0.7003	8.0732
992.0112	-8.5254	-11.5341	-8.2057	-28.0715	-17.7936	-17.0145	0.8094	-2.8856	-10.3366	-7.9556	-13.2272	-2.0637	-1.4993	-11.4390	-6.3492	1.4300
1000.0113	-8.0650	-12.2909	1.8555	-20.7597	-4.6340	-3.6449	6.9161	6.7547	-13.5885	-6.4292	-15.3848	-5.5126	-1.7563	-2.7420	-2.6551	1.4010
1008.0114	12.2221	13.7014	25.7681	8.1164	31.0604	28.6614	21.2040	18.1686	6.4032	13.6040	6.5648	1.2803	2.6250	21.7288	5.4306	7.9987
1016.0115	16.8715	16.6346	26.5391	4.3895	24.1102	14.9170	15.8988	10.7311	11.3417	15.9079	10.7189	5.5612	2.7074	17.2093	4.3017	9.5980
1024.0116	5.1474	-3.1165	11.5635	-18.1260	-10.7887	-15.6803	3.5030	4.9917	-4.5706	-0.2811	-3.0113	3.9514	0.8816	-2.2637	1.3667	8.4846
1032.0116	-3.3373	-10.4769	1.3713	-23.2586	-12.5677	-19.3081	5.7535	9.5752	-13.7258	-9.7425	-9.5137	0.5735	1.2967	-8.2699	-0.7032	8.8067
1040.0117	-0.6939	-1.5475	2.3169	-18.2025	4.8558	-14.2459	5.2814	3.5251	-6.3011	-5.2959	-2.3207	-0.6811	-1.7625	-5.1616	-10.4709	1.8621
1048.0118	-16.3705	-22.5132	-18.9181	-46.3860	-26.2810	-40.7764	-15.2366	-13.6661	-22.4700	-21.8352	-18.9662	-6.4899	-3.0912	-25.7472	-13.7749	-3.4683
1056.0119	-34.5725	-45.5834	-39.2187	-67.6104	-52.1090	-58.6990	-23.9617	-19.6953	-41.8681	-38.8434	-40.4524	-13.4853	-1.5971	-42.7219	-9.4664	-1.1835
1064.0120	-26.8034	-34.2533	-30.6688	-52.7935	-42.7357	-46.6998	-21.3296	-22.1522	-30.2509	-28.7592	-30.2332	-11.3751	-4.6351	-33.5379	-13.0407	-4.9538
1072.0121	-22.4416	-25.2772	-27.6329	-39.6372	-32.5997	-32.2054	-21.5916	-25.2592	-22.6305	-23.1308	-21.0709	-11.3822	-6.4468	-25.6403	-15.5828	-9.7911
1080.0122	-14.5649	-10.4682	-14.5829	-12.8140	-1.7162	-2.1173	-10.0635	-17.6950	-11.7597	-11.5280	-9.9966	-12.3497	-6.7211	-7.3579	-13.7861	-10.4409
1088.0123	4.5001	10.2637	8.8584	17.6669	11.6681	22.6311	-4.1036	-12.9697	10.2096	10.1615	9.1375	-4.5812	-7.7972	13.3837	-9.9812	-10.8500
1096.0124	2.0998	3.1179	3.0039	14.8284	-7.1955	14.4229	-9.4273	-15.2068	6.5456	6.6085	4.4182	-2.5574	-4.3223	7.6291	0.7957	-5.7262
1104.0125	-6.6414	-8.6651	-8.1976	2.7571	-16.1916	-3.8061	-13.8400	-18.8885	-4.4732	-4.3496	-5.9293	-5.3965	-1.9863	-4.5978	5.0172	-1.3880
1112.0125	-0.9521	-3.5922	1.4177	9.0402	-14.2082	-1.4180	-14.0288	-16.7936	1.9222	2.3916	-1.4063	-3.3972	-4.7699	0.2019	-1.1806	-3.7271
1120.0126	0.7345	0.0243	9.7215	20.0358	-2.1746	12.8506	-6.4048	-7.5152	3.5797	6.0172	0.8979	-5.1885	-7.8099	8.9829	-5.7154	-7.2552
1128.0127	-2.3745	-1.2896	3.4171	17.7315	-1.5258	10.8635	-8.1082	-9.6874	2.6305	3.5818	-0.4903	-6.1657	-7.4536	5.6413	-6.9437	-9.1187
1136.0128	0.9642	5.0004	0.7188	20.7261	0.1585	16.6118	-9.9375	-12.2588	11.4088	10.1459	3.2562	-2.5725	-3.2655	7.3155	-2.8510	-6.9325
1144.0129	-5.5152	-4.8405	-5.8444	11.2273	-3.9038	2.0164	-12.4357	-15.1482	0.5087	-0.4421	-3.2461	-5.6192	-3.9307	-1.4997	1.0079	-8.7559
1152.0130	-21.4359	-28.5093	-20.8175	-12.4942	-30.5147	-28.1972	-24.6833	-24.5855	-21.4310	-21.1460	-20.1017	-12.8490	-9.4065	-21.0871	-3.3693	-15.8553
1160.0131	-8.2432	-5.7776	2.0031	19.8500	4.9096	19.5242	-6.1380	-10.0895	-2.9172	0.2259	-5.1911	-12.3471	-10.9731	7.9424	-7.9964	-15.9829
1168.0132	21.2505	31.9675	33.9036	56.2450	46.2514	56.5115	12.8594	1.0640	27.5478	28.2867	28.5091	-0.7784	-9.0958	38.5859	-4.7425	-11.4006
1176.0133	24.5560	29.5892	22.1799	37.3389	18.2390	25.5802	0.2901	-10.1987	28.0738	22.8341	32.1941	9.0073	-3.4884	22.4665	4.1554	-6.0344
1184.0134	10.9034	14.8396	4.1197	21.4798	4.8988	12.8066	-3.8726	-11.4638	17.1724	12.0182	16.8442	5.3534	-1.3204	8.7606	6.0324	-6.7589
1192.0134	-7.6901	-8.3402	-9.3269	5.8521	-9.5023	-6.6667	-12.3166	-15.9562	-1.2801	-3.5290	-4.5897	-4.8672	-7.4308	-6.7140	-1.0100	-16.9495
1200.0135	-20.6522	-23.7917	-21.4280	-4.5516	-23.7118	-17.7567	-21.3329	-22.5271	-12.8630	-13.4428	-19.4969	-11.6706	-9.0212	-17.3167	-3.4269	-19.3402
1208.0136	-19.6897	-20.2195	-23.2770	-1.8958	-17.3522	-13.9505	-19.8589	-23.8141	-10.5457	-12.4779	-16.5486	-11.2981	-7.4961	-16.0053	-1.3408	-18.5008
1216.0137	-23.6148	-30.3870	-31.1827	-17.8040	-37.6840	-33.6883	-26.8096	-27.8258	-20.3041	-23.3050	-20.1870	-9.8443	-8.2189	-27.4292	2.9047	-22.2533
1224.0138	-17.8766	-21.8467	-22.0064	-5.6103	-25.0398	-15.9971	-16.1908	-19.6801	-15.3693	-16.7118	-14.3578	-8.8056	-6.4919	-16.0386	5.7992	-15.9570
1232.0139	3.2379	7.3570	3.2441	26.2513	8.4256	7.9840	-1.0846	-15.7023	10.7639	7.6259	8.3388	-2.1176	-7.3868	6.1523	0.8129	-9.3507
1240.0140	2.8544	4.8474	2.5746	22.4160	0.0252	2.9323	-4.5092	-18.5317	10.4575	7.1710	7.2550	-1.3317	-9.2208	3.5649	0.1328	-13.3042
1248.0141	-8.5779	-8.3567	-9.3736	10.9414	-10.3336	3.9028	-8.5771	-15.3563	-2.2753	-3.3356	-4.5579	-6.2128	-7.6763	-2.3471	3.3797	-16.5410
1256.0142	-9.0464	-12.4508	-13.2038	2.4842	-22.5967	-14.0322	-16.5866	-17.8104	-2.9706	-5.8158	-6.8173	-3.2609	-6.5999	-11.3471	1.7869	-15.8620
1264.0143	-17.7039	-24.5921	-24.1700	-15.7826	-32.8651	-34.0876	-22.5443	-17.4854	-13.8109	-16.8676	-17.1498	-4.9525	-5.4987	-24.9059	0.0189	-17.1106
1272.0144	-31.4910	-36.2156	-36.5927	-27.5124	-28.4290	-39.9090	-23.3023	-18.8947	-27.9815	-30.1512	-28.6274	-14.1401	-8.5147	-33.2594	-8.1171	-22.9376
1280.0144	-27.0206	-27.5940	-26.9582	-14.2889	-16.3107	-23.6453	-14.4842	-15.8776	-21.2116	-22.1026	-23.4657	-15.1675	-11.4795	-22.3666	-14.1071	-21.7702
1288.0145	-17.4195	-14.7405	-16.6973	-4.9782	-7.3380	2.5744	-3.4506	-4.1448	-12.6014	-11.7529	-14.0603	-10.4619	-6.1722	-7.1239	-8.4611	-12.6187
1296.0146	-10.0178	-7.2393	-14.2738	-6.7560	-6.5586	1.2218	-4.8147	-4.0092	-6.8709	-7.9959	-6.3661	-4.7916	-1.0616	-5.8231	-4.5234	-5.5331
1304.0147	18.9764	28.9932	18.8360	31.8289	35.6971	35.8302	16.4480	10.2165	24.2054	21.9822	23.1179	7.1052	3.4051	24.1354	2.4356	5.4031
1312.0148	38.6810	51.7635	37.9850	51.2238	53.3468	59.6974	28.2881	19.6156	43.8951	40.6563	43.5101	17.4537	7.6679	43.0680	11.3910	10.8455
1320.0149	16.6175	17.8511	12.1920	17.7764	7.6920	16.0019	5.7034	3.5435	19.1795	17.1994	15.9106	10.8773	6.4083	12.8977	15.4609	6.6481
1328.0150	4.0629	5.4870	8.3193	24.5928	18.0567	20.4360	12.0511	9.4590	8.3870	11.0588	0.2007	1.1860	5.0358	11.8018	19.2529	6.0331
1336.0151	17.2561	23.6767	20.1446	40.9653	34.5787	37.3061	19.7659	13.7917	23.9776	23.8788	17.3475	7.3169	4.4224	24.7200	17.3544	3.8039
1344.0152	12.9159	11.8237	8.8837	13.8517	5.8711	9.3916	7.8142	5.8156	13.5667	12.4022	10.7381	10.1171	7.2142	8.5409	21.5103	6.7037
1352.0153	-7.8105	-11.3103	-10.5376	-12.1851	-0.8637	-3.2101	6.7585	9.0463	-12.5693	-9.4308	-12.5076	-0.5436	10.6173	-6.3018	24.2141	11.0346
1360.0153	-14.3250	-14.4365	-15.0903	-13.4869	-3.2479	-3.9633	0.3308	2.7844	-13.8284	-11.4007	-16.4681	-6.4022	3.5600	-9.0773	4.6865	2.2992
1368.0154	-9.2785	-8.0193	-2.0023	2.1977	6.1511	6.1311	2.0354	5.6370	-7.9912	-4.1805	-11.2599	-7.9791	-1.3119	0.4214	-5.8321	0.9246
1376.0155	-7.1407	-6.2969	2.5876	4.6639	17.3037	10.8892	5.8875	13.2260	-13.8010	-8.7274	-7.3601	-9.0054	1.7439	4.6555	-1.9106	7.4307
1384.0156	0.7968	-0.9585	5.0955	1.1332	4.4359	1.5950	-1.7219	5.8351	-8.2670	-5.9127	1.1166	-2.7259	3.5064	2.9923	-0.9566	12.0793
1392.0157	-0.2777	-5.0199	1.0131	-6.9519	-7.7014	-10.1817	-4.7955	2.3752	-8.6850	-6.5963	-3.2987	-0.2738	5.8932	-3.5595	3.8080	15.9805
1400.0158	-9.9806	-13.8216	-14.0413	-21.6066	-16.7861	-18.4333	-10.0784	-1.3558	-15.8415	-15.6036	-10.4222	-2.9754	4.1127	-13.8313	-0.9673	6.4296
1408.0159	10.6197	14.9546	8.2915	8.5430	10.6178	17.1333	2.3628	7.3395	10.6366	8.5955	14.5669	5.1787	2.2298	11.0599	-5.2746	1.4747
1416.0160	25.7241	29.8486	24.6386	22.3565	28.0325	25.6963	11.9799	15.9527	22.6967	20.5877	27.7305	13.1032	7.6701	22.4008	6.4480	10.7978
1424.0161	10.9403	8.1661	6.0545	-6.7117	-0.2697	-2.7387	-0.1367	5.6583	2.3222	1.0696	11.0779	8.2405	7.8413	2.3548	8.7476	10.9022
1432.0162	4.5931	5.9462	5.6005	-0.2183	2.7712	12.2002	5.8200	5.9878	0.0962	1.4488	5.7071	1.3222	2.1016	7.6075	-0.6342	6.8294
1440.0162	-3.3361	-2.5517	-1.6186	-4.9675	-1.1155	-4.2728	2.6808	1.4062	-5.5173	-4.7349	-3.2074	-2.6788	-0.8708	-2.3745	-7.6271	5.5184
1448.0163	-4.0857	-5.0956	-5.6538	-14.7501	-7.1927	-18.4671	-1.8876	-2.0065	-7.7519	-8.8049	-3.6089	-1.1840	-1.0136	-9.6883	-9.8151	4.0774
1456.0164	7.6828	12.9291	6.9210	2.3897	12.4128	8.0215	10.4327	5.8282	6.1084	4.1747	11.8672	3.1042	-1.3565	7.1321	-10.7631	2.8284
1464.0165	-7.9690	-8.4952	-12.9768	-19.7677	-17.4362	-22.2331	-5.6097	-7.3532	-10.4081	-13.1278	-4.6919	-2.1913	-3.8422	-14.1846	-14.1106	-1.2643
1472.0166	-28.5508	-33.5902	-29.6953	-36.0301	-33.4099	-35.9582	-14.0891	-9.4326	-32.4177	-30.5267	-29.6966	-13.3644	-3.3563	-28.6160	-13.2531	0.4058
1480.0167	-28.8322	-27.8732	-23.7119	-22.2943	-12.6736	-11.9843	-4.3692	-1.2882	-28.6901	-23.8209	-30.3646	-17.6917	-2.7893	-16.8149	-16.3629	3.5250
1488.0168	-22.0857	-20.7625	-19.7253	-23.9092	-16.8256	-14.9026	-7.2912	-6.8770	-20.6244	-18.3233	-22.0366	-13.2556	-5.6773	-15.8080	-22.4065	-1.4526
1496.0169	-9.7330	-8.5699	-5.6975	-13.1054	-6.5536	-2.1732	0.5242	2.8265	-9.8228	-7.6014	-9.8848	-6.2547	-4.6400	-4.5203	-16.8520	-2.9630
1504.0170	1.5487	2.5881	6.5224	2.2141	3.1710	7.7883	4.7806	10.8124	0.7889	2.3915	1.1136	-0.0794	-1.9132	5.1769	-10.7112	0.1189
1512.0171	5.9626	5.7369	7.1317	3.1220	0.2923	4.9806	3.1518	11.8668	3.8534	3.4023	6.7647	4.3986	-0.1331	4.7727	-6.4199	-0.1875
1520.0171	0.6196	1.2872	0.3427	0.1275	3.6610	6.6373	6.8681	18.2817	0.5571	0.3827	0.9555	3.4749	1.9677	1.9304	-1.9237	-2.8403
1528.0172	-0.3692	-0.0564	-2.1209	-3.2085	1.2924	3.6395	4.2951	15.4612	1.4495	1.0949	-1.3512	3.8100	2.9960	-0.4778	-0.2175	-3.1650
1536.0173	5.9500	3.9089	-1.3197	-8.9808	-3.2492	-5.7987	1.6961	9.2917	3.8487	1.0964	5.9306	9.1154	5.3257	-2.8846	7.5031	-0.9954
1544.0174	-11.3790	-21.2736	-25.6160	-37.0794	-36.9703	-47.0412	-15.3896	-6.0924	-15.6766	-20.0781	-13.0303	4.8460	4.2887	-30.3164	9.6929	-4.3052
1552.0175	-26.6865	-35.8883	-33.9389	-40.1797	-42.3019	-46.5553	-20.7569	-11.9207	-28.0015	-29.0360	-28.4842	-7.2948	-2.8967	-35.0261	-2.2856	-12.3414
1560.0176	-13.2827	-11.5518	-6.5062	-4.9704	3.9208	1.3052	0.0841	1.2596	-12.0772	-10.1344	-10.4247	-10.3645	-9.6881	-3.7639	-15.0496	-17.3376
1568.0177	-15.2135	-19.2810	-8.3550	-19.3835	-12.5764	-24.4570	-8.3389	-6.4776	-17.6045	-16.1421	-14.9358	-9.8411	-12.5229	-15.1311	-20.3450	-17.7116
1576.0178	-25.8929	-36.6631	-21.2080	-46.7074	-31.5718	-50.1419	-15.9324	-10.0987	-34.1791	-30.8530	-30.3179	-12.3457	-8.7052	-31.7978	-15.0892	-11.9407
1584.0179	-8.8599	-11.1908	-5.3534	-25.0971	0.6178	-19.2264	-0.3025	1.8179	-15.7242	-14.1145	-9.3909	-5.3663	-3.5944	-11.1257	-11.6128	-4.8934
1592.0180	1.8305	1.0562	-1.2390	-16.7484	-8.1587	-14.8160	-4.9439	-1.1071	-1.2558	-3.9948	4.2539	2.8292	-3.3949	-6.5576	-15.6018	-5.2558
1600.0181	-9.1511	-13.1669	-9.5536	-24.9110	-18.2645	-20.7491	-7.8579	4.5832	-13.0810	-13.1773	-9.4466	-1.7469	-3.2091	-13.9398	-15.6468	-6.8227
1608.0181	-12.8616	-17.9136	-7.1474	-20.6427	-8.6799	-21.4760	-4.9866	12.4431	-17.7239	-15.0944	-16.3543	-5.2879	-1.9824	-14.0022	-14.7330	-3.2743
1616.0182	-14.9216	-20.4100	-11.6190	-25.4574	-17.2923	-22.6788	-10.6782	7.2094	-19.2122	-16.6091	-18.6328	-5.9479	-0.5838	-16.3595	-14.1593	-1.1687
1624.0183	-14.9563	-17.0930	-11.2344	-26.0887	-10.4381	-9.8537	-3.9447	8.5858	-17.6780	-13.7441	-18.5417	-7.0143	0.2366	-11.0727	-12.8115	-0.3370
1632.0184	-6.6684	-10.0589	1.3777	-20.5318	-6.6662	-10.8633	-0.2769	6.7665	-8.0090	-3.2139	-14.1464	-3.4841	-2.0098	-6.0554	-13.5918	0.3958
1640.0185	-4.0248	-8.1274	5.7053	-17.5973	-1.5249	-9.6138	-0.0001	6.6122	-5.3556	-0.2567	-12.2218	-2.7412	-2.7194	-3.8267	-11.0376	-2.9173
1648.0186	-1.1782	-1.7265	7.0357	-10.7730	13.4713	-2.7967	3.8782	9.6514	-1.3609	2.0817	-6.4643	-1.9780	-1.6569	-0.0061	-10.2024	-4.5088
1656.0187	-7.5316	-12.7403	-4.8815	-25.6225	-14.9925	-26.5582	-8.1543	-1.0746	-7.2396	-5.5398	-14.4478	-1.3860	-2.1365	-14.6699	-12.4632	-2.9634
1664.0188	-12.8920	-18.0399	-12.7294	-29.0365	-21.3192	-26.9746	-6.7495	0.4651	-12.1544	-10.4540	-19.2884	-2.4890	-0.9102	-18.2833	-8.9509	-2.3410
1672.0189	-1.4513	-0.7628	0.3055	-10.4570	6.0912	-7.5279	3.0898	7.6712	2.0265	2.4577	-5.3982	1.1136	-0.0925	-4.1594	-9.1720	-2.8922
1680.0190	-8.2565	-10.5037	-6.7490	-22.7833	-6.5240	-21.0921	-7.5389	1.0836	-3.6766	-2.6106	-14.9140	-1.6810	-0.6970	-13.4704	-13.2905	-4.7675
1688.0190	10.8478	15.5463	16.5151	7.7928	26.4832	16.9001	11.2649	14.8274	16.5342	18.0490	6.4285	4.7799	1.9435	12.9068	-7.1522	0.4727
1696.0191	56.4374	69.1025	64.1741	57.0869	66.8841	67.4211	34.1714	25.9607	60.4171	58.9066	56.9102	24.3992	4.9979	56.9918	1.0055	11.5432
1704.0192	37.5670	38.5563	37.4114	14.2445	13.6108	20.5425	10.5574	7.0513	34.1212	32.9626	33.9397	20.1658	6.8204	26.0426	2.9835	17.5701
1712.0193	18.6671	18.5008	18.0310	-1.0037	5.4939	7.1356	6.4877	5.0692	16.0668	16.9907	12.9401	11.0133	8.4892	11.3108	4.5771	19.1114
1720.0194	33.4786	42.7360	37.4941	35.1451	41.7920	48.3593	19.2954	15.4137	38.1586	38.4367	31.9972	13.9488	7.2603	36.8584	3.2801	13.7027
1728.0195	18.0159	24.8875	17.7290	22.6369	19.2549	32.9811	7.2285	8.8669	24.0010	23.2152	18.4076	8.1975	5.0326	21.5742	-0.4876	7.2074
1736.0196	6.3055	10.8602	2.1931	15.0384	2.0784	13.7497	0.9861	0.3472	12.7344	10.6184	7.4869	4.0018	3.5695	7.4016	0.2911	7.3517
1744.0197	-1.0311	1.2317	-6.6537	11.5929	-5.0696	0.3745	-5.1407	-5.3464	5.1808	2.2527	0.6585	0.8034	2.4136	-1.7885	2.4808	4.4693
1752.0198	-5.8095	-2.5613	-14.9295	7.5414	-3.6956	-4.0496	-7.2456	-3.1374	-0.4571	-5.1771	-0.8983	-0.6601	3.3061	-7.0483	1.1638	1.8461
1760.0199	17.0861	28.0420	5.7502	33.9960	19.7706	27.9481	6.2596	7.0845	25.3945	17.3584	26.7644	10.5614	5.5457	16.3723	0.5868	5.2623
1768.0199	16.9892	25.0379	3.7271	27.0194	10.2250	22.5153	4.7312	11.2657	26.0010	18.2946	23.1016	14.1365	8.6326	12.6572	4.7961	6.5877
1776.0200	4.2770	6.6598	-8.8955	4.1607	-3.7372	-0.0225	-1.9835	9.4887	11.0082	5.3009	5.7660	10.0437	9.4203	-3.2430	7.1544	4.2748
1784.0201	7.5984	7.6927	-2.2116	2.9554	-4.0140	-2.9130	-3.3971	6.4854	9.7773	4.8833	9.2503	9.8300	6.4643	-1.4525	5.0581	2.4936
1792.0202	1.7161	-2.2435	-5.2551	-2.1751	-11.1389	-9.9564	-4.6169	8.9306	-3.4263	-6.1964	3.2422	6.0447	6.4884	-5.8542	8.0395	5.7588
1800.0203	-2.1423	-3.9929	-8.1885	3.9358	-7.3841	1.4578	1.1162	12.2705	-8.7909	-10.2529	1.6820	2.4013	7.3983	-2.2111	12.2948	9.2825
1808.0204	-6.4605	-7.2056	-9.5703	6.4931	-7.2651	4.3356	-0.2673	8.5103	-9.3962	-9.7546	-3.1648	-1.6474	3.9738	-2.1243	7.9949	4.6914
1816.0205	-17.0748	-22.1123	-15.0095	-5.8189	-14.1084	-11.5898	-7.4526	4.8094	-19.5271	-17.0932	-18.5054	-7.7806	0.6989	-12.4741	4.1327	-1.5757
1824.0206	-18.1539	-26.2826	-16.2885	-8.9615	-21.2284	-19.1796	-8.3679	3.6909	-23.4075	-20.9638	-19.8806	-7.2979	-0.2052	-16.0624	7.8508	-2.9494
1832.0207	-9.0532	-15.1202	-6.7769	4.1875	-7.2824	-9.7474	0.8090	7.8493	-13.8013	-12.5894	-9.2762	-2.9069	-0.5552	-7.4290	12.6767	-4.2996
1840.0208	13.4575	17.6055	20.0385	37.8847	36.3388	35.1718	17.6869	11.7598	14.5431	15.3331	16.7536	2.7730	-1.1907	23.4702	16.4649	-7.8542
1848.0209	29.6371	38.2672	30.1536	55.1399	43.9321	53.1257	19.4694	5.9903	33.6578	30.3953	37.7645	10.9614	0.1201	36.9729	21.2667	-7.2361
1856.0209	19.7722	21.7286	10.8746	31.9080	14.5226	16.2254	6.1540	-2.1074	21.3619	14.8918	26.7563	12.3658	2.5174	13.9100	24.1888	-5.4753
1864.0210	5.8610	2.4037	-1.0992	11.4836	-5.2842	-1.2792	-1.0638	-7.5369	5.4065	2.0128	8.6821	6.1239	0.8230	0.3627	23.9714	-7.6867
1872.0211	4.1185	1.6644	1.8709	14.5292	-5.8848	6.7501	2.3333	-10.9833	4.2981	3.3147	6.4382	2.3185	-2.9957	4.7146	20.8949	-8.3199
1880.0212	1.2187	2.9038	-1.5490	14.2681	2.6086	7.8710	1.5300	-20.8051	2.7484	0.3639	8.1069	-2.5106	-7.5153	4.3480	13.7712	-14.2787
1888.0213	-8.3638	-7.2624	-9.6063	7.4402	-2.0267	5.2742	-5.5010	-29.0347	-7.0811	-8.2574	0.0012	-9.8025	-11.3551	-0.7065	11.1708	-22.3818
1896.0214	-7.7464	-6.3504	-4.0824	13.0045	4.7934	12.7438	0.3505	-23.4633	-4.5019	-2.9572	-3.2512	-10.4513	-10.4170	4.0432	13.4638	-19.3089
1904.0215	-8.2746	-5.1769	-8.3548	2.8780	2.6306	5.8950	-1.3766	-27.6350	-2.7330	-2.5125	-4.4198	-9.4200	-9.0137	-0.3797	8.3078	-16.3651
1912.0216	-15.9081	-16.5227	-20.4588	-14.8850	-18.0284	-14.1318	-9.3719	-28.8084	-12.3273	-12.8993	-13.5163	-9.5172	-6.9772	-14.0424	5.0474	-12.4615
1920.0217	0.5116	5.7256	1.7942	10.0195	17.2767	14.6102	10.7259	-8.9529	6.7884	7.0574	2.0056	-2.7653	-4.3266	7.2423	7.5221	-9.1983
1928.0218	19.8692	32.2226	22.6291	29.7021	45.3031	43.5288	20.1280	-3.7403	31.8861	30.0786	24.4015	4.9875	-6.6968	28.3432	2.4742	-18.6633
1936.0218	17.5236	23.1129	18.1588	17.2497	20.6507	21.0978	6.5487	-9.3719	26.8290	24.3741	19.2334	6.8064	-6.5988	17.0061	-0.1930	-16.8340
1944.0219	24.1364	28.6448	25.7468	23.2161	25.1134	21.1171	9.0284	-5.0332	28.1631	26.0576	25.1123	9.5440	-2.1901	21.0773	3.5285	-3.5108
1952.0220	37.1126	45.3512	36.4363	36.8226	35.4502	37.8124	13.0763	-2.5143	41.1320	36.8330	41.7935	15.4819	-0.5973	33.5895	3.7732	-0.7424
1960.0221	26.2221	29.4027	23.0211	22.3920	14.6404	14.1680	3.3197	-8.5275	30.1943	26.1545	27.2217	12.8320	0.8597	17.7534	5.5367	2.7182
1968.0222	-1.4011	-2.0844	-5.9746	-6.1523	-5.8051	-10.9653	-6.3619	-15.8514	-0.3435	-1.3888	-2.4912	-0.7264	2.2422	-6.0374	7.0380	5.4748
1976.0223	-3.8403	0.4503	-4.4846	2.7649	9.3825	14.5174	2.0443	-7.1264	-2.3153	-0.8308	-2.2130	-5.4279	2.3200	4.4790	6.9803	3.7530
1984.0224	20.7089	29.3479	26.5867	35.3375	42.3726	43.2745	16.6004	1.5687	23.8471	25.2775	22.2394	3.4347	2.3211	30.4540	10.5887	6.1331
1992.0225	14.0022	13.5130	16.2865	13.4198	13.7527	7.1256	1.9772	-10.1442	11.9551	12.3811	12.5875	3.6899	1.3313	11.2548	12.3194	5.5758
2000.0226	-25.1054	-37.4360	-26.2909	-35.2684	-39.6638	-42.6073	-20.8854	-19.5742	-33.1630	-29.7685	-30.0910	-11.3539	-0.3386	-29.5741	10.0611	0.4807
2008.0227	-45.1582	-55.3479	-45.5252	-47.2835	-40.9648	-48.0979	-21.9753	-20.4081	-52.4463	-47.8783	-47.0439	-23.2094	-4.1943	-40.9912	2.7843	-7.6768
2016.0227	-38.5092	-41.0323	-39.6595	-35.3194	-21.8347	-29.6957	-11.9679	-16.0582	-41.4675	-39.1358	-35.4310	-21.3831	-6.5383	-30.3512	-4.7865	-12.2221
2024.0228	-15.2336	-12.5713	-10.9152	-6.6324	4.3240	3.9416	3.5840	-4.6183	-16.4977	-13.4975	-12.4886	-12.3511	-4.9721	-3.5668	-3.6607	-5.4697
2032.0229	8.6941	12.8781	18.1921	20.2436	22.4162	27.4615	12.7962	1.2835	5.2157	8.0107	12.2692	-3.0238	-5.6901	19.5898	-1.6888	-1.7997
2040.0230	5.9290	4.2436	11.2849	10.9888	-0.4300	9.2219	2.8569	-0.2574	0.4031	1.6509	8.4336	-0.0984	-5.0850	9.0058	-0.2392	-2.8498
2048.0231	-6.6648	-10.7213	-5.7898	-2.5288	-14.9926	-8.2947	-7.1320	-0.9667	-11.9618	-11.4506	-4.8236	-3.6442	-1.9915	-5.9781	-1.1791	-0.6640
2056.0232	-1.1539	-0.1223	-0.8073	7.5157	-3.2180	0.0221	-4.3984	1.6635	-4.5596	-6.2185	4.3868	-2.4511	-2.6228	0.2854	-11.3385	1.8037
2064.0233	-3.7657	-6.2487	-5.9015	-2.0716	-22.2763	-15.5162	-10.1071	-0.9854	-7.9000	-10.2304	-0.2458	-0.8340	-2.3813	-8.2792	-14.5895	5.6910
2072.0234	-14.7227	-20.0949	-18.5213	-13.8800	-32.5422	-26.9846	-13.9371	-0.8662	-21.1886	-22.7222	-11.7642	-4.8096	-1.0388	-18.8951	-10.4817	5.2047
2080.0235	2.2014	6.6596	3.7241	18.1633	12.2966	14.2690	7.3173	14.2626	-1.3034	-2.9732	9.7448	-0.9300	-1.2184	8.1326	-9.0941	2.5532
2088.0236	15.6043	20.9506	18.2616	27.2278	24.6847	22.4664	14.2757	16.9438	14.2539	12.3786	20.2432	6.3054	0.6608	18.0388	-3.9921	4.8850
2096.0236	1.6998	-1.0138	-1.7323	-5.3541	-9.1642	-16.5429	-3.0656	4.2738	0.5198	-1.8983	0.7861	4.8368	1.6257	-7.3431	-3.7516	3.3065
2104.0237	-1.2170	-4.1760	-6.0043	-12.7646	-15.0317	-20.5418	-6.5433	1.4442	0.8279	-1.3556	-4.4276	4.6174	2.2872	-11.3104	-5.2646	2.4899
2112.0238	15.4613	16.6933	13.7072	8.2088	9.3015	5.7574	5.6819	9.3962	17.5350	15.7329	12.9988	10.6395	4.8050	8.6206	0.6319	7.0548
2120.0239	32.1028	38.1732	34.4953	31.4665	32.7299	30.9365	18.7231	20.3793	34.3011	31.9042	32.4431	16.5860	3.6218	28.4712	-2.2686	7.3785
2128.0240	23.9885	27.2685	29.5767	21.9174	19.2967	20.9757	13.4830	18.3345	27.6543	27.3673	20.6589	12.7377	0.9027	21.1493	-9.2006	5.5046
2136.0241	3.5716	1.8263	10.7930	-1.3412	1.7779	0.9008	4.9590	13.7989	4.4107	7.8184	-3.6981	2.6112	1.3883	3.5000	-7.7152	6.2438
2144.0242	12.6272	15.0807	20.3968	9.3144	17.9411	18.6940	15.7680	20.3441	12.6567	15.8797	7.5395	5.8400	3.1088	15.5748	-5.6880	10.2394
2152.0243	18.8566	20.1480	26.1919	7.7490	14.8683	16.7445	16.5540	18.5465	18.7145	21.7714	11.6846	10.0367	3.6832	17.5004	-4.7832	13.0103
2160.0244	1.9694	-0.8431	13.5369	-6.7633	6.9755	1.8049	10.3926	16.4445	-0.1197	6.5933	-8.7570	0.3847	2.7862	4.5547	-3.9311	10.8962
2168.0245	-7.1838	-11.0723	3.7437	-11.4452	-1.9719	-2.2718	3.2342	11.1869	-9.1079	-1.6295	-17.4776	-4.8917	2.5689	-1.6187	-3.2730	9.8490
2176.0246	-18.5942	-25.9270	-15.3280	-31.7039	-31.6268	-25.0318	-11.3250	-3.4346	-19.8411	-14.1248	-28.9014	-7.4153	2.5946	-18.9295	-4.7941	10.0584
2184.0246	-19.0692	-18.9262	-16.1239	-25.5884	-13.9102	-13.2147	-0.4387	0.3979	-15.9834	-11.0918	-26.6257	-9.3073	2.3781	-14.0048	-10.9275	12.0159
2192.0247	-5.7710	1.6316	-5.3855	-10.9673	5.1608	3.0911	9.1905	2.7312	0.5121	2.1750	-9.0858	-3.5759	2.7212	-1.3288	-16.0954	15.0665
2200.0248	-17.5622	-17.2207	-21.1005	-35.8533	-25.2433	-27.1061	-6.4022	-9.6140	-15.3153	-14.0534	-22.2231	-6.8365	1.0748	-20.7211	-18.1626	12.9115
2208.0249	-22.2188	-23.9052	-19.6489	-35.9929	-23.6683	-27.6875	-3.8816	-7.2159	-21.2963	-16.9097	-29.5794	-10.9273	-1.0237	-21.1802	-16.9939	11.1838
2216.0250	2.2061	4.0111	11.0537	-3.8076	6.2241	-0.5011	12.4021	3.5070	3.9398	8.1351	-5.1594	-1.1580	-1.4845	3.9864	-12.4599	12.9342
2224.0251	14.0743	15.3530	26.2298	7.3278	17.7455	7.5369	19.5220	8.9223	13.7908	18.5332	5.1785	4.1909	-0.5462	14.1238	-7.3416	15.8402
2232.0252	9.0207	7.8028	17.5070	-3.3596	5.6869	-3.8274	13.3003	4.8483	9.4169	14.0049	-2.2253	4.1322	2.3602	5.5354	-3.2253	18.3638
2240.0253	-0.1460	-4.0760	0.2686	-16.6140	-16.4110	-20.7054	0.0335	-3.4957	1.4224	3.2691	-9.6563	3.2540	2.9321	-8.7166	-2.4394	13.8985
2248.0254	-10.9417	-13.3397	-9.9708	-20.3938	-15.5264	-14.7480	-0.1532	-1.6539	-11.1446	-8.2330	-16.4238	-3.9999	1.0206	-11.1922	-3.5355	7.2575
2256.0255	-9.8800	-10.3846	-7.5275	-20.8138	-4.7025	-10.4254	2.7441	-1.1604	-11.5213	-8.5173	-13.4608	-5.3823	-0.3437	-8.3213	-5.7037	3.8891
2264.0255	1.4104	-1.1121	4.2374	-18.9604	-0.2931	-17.9077	3.7916	-3.5524	-1.0096	0.4179	-3.8669	1.2380	-1.8798	-5.8511	-5.3018	1.6634
2272.0256	5.5409	1.0892	12.8572	-15.4147	3.5687	-9.7500	8.7224	0.6416	2.2925	6.5058	-3.3559	2.8509	-1.3708	0.5554	2.0717	1.1266
2280.0257	-3.1445	-10.7692	6.3353	-23.5234	-4.9222	-12.9386	2.5555	0.2024	-9.1214	-2.4104	-13.2093	-2.2513	-1.4036	-4.4978	4.0434	-1.2118
2288.0258	-18.6970	-31.7639	-7.2434	-37.8889	-25.6453	-32.8051	-9.1811	-5.3928	-31.2233	-22.7430	-28.1614	-11.2398	-4.3527	-18.9852	-1.1479	-1.2760
2296.0259	-24.9079	-41.5136	-9.5082	-40.3104	-37.9364	-37.1118	-11.4479	-6.0595	-42.5166	-31.4181	-35.0579	-15.8681	-6.0500	-21.9738	-1.7230	2.7047
2304.0260	-15.8763	-33.2954	1.1889	-29.7694	-31.7047	-35.3503	-8.8559	-3.4230	-34.6091	-24.4327	-25.9324	-11.4449	-6.8710	-16.2107	-0.3969	2.5153
2312.0261	-15.8918	-34.1000	-4.3134	-33.2907	-37.2561	-48.7428	-14.6347	-7.8119	-33.9390	-27.1541	-24.2688	-9.0304	-6.4500	-23.4130	-1.2432	1.1176
2320.0262	-17.8785	-30.7528	-14.8531	-34.4216	-36.7921	-44.5844	-16.2634	-10.7417	-29.0498	-25.9923	-22.5283	-7.7183	-4.4361	-25.7158	-3.3162	-1.4984
2328.0263	2.6014	2.2405	4.8902	-2.8128	9.1049	-3.0191	3.4669	0.2925	0.2850	0.2443	3.1061	0.3350	-2.9616	0.7967	-1.4018	-6.3481
2336.0264	13.7070	15.0930	17.4916	6.0821	26.3717	8.9509	10.1671	2.1422	11.8792	11.8284	13.7148	4.8214	-1.9638	11.4287	4.6456	-7.7336
2344.0264	10.6229	6.8510	16.0677	-3.4897	10.8525	-0.8186	4.6078	-2.0767	7.9307	10.3039	5.2404	4.4650	-1.2816	6.0950	8.6652	-5.4148
2352.0265	15.1203	13.6165	23.4240	10.6768	18.7098	20.4872	11.7391	4.2490	14.3815	18.9949	8.4039	5.3600	1.6686	17.8584	15.3781	0.3973
2360.0266	-2.1642	-7.3031	-1.4404	-8.8952	-9.4329	2.9228	-5.2443	-6.7757	-4.9032	-1.0326	-6.9103	-1.1452	3.8256	-0.1116	18.3930	0.4094
2368.0267	-17.5183	-23.5475	-24.1794	-21.0266	-24.6953	-19.5226	-18.0885	-14.4250	-19.1114	-18.6717	-18.3429	-6.5870	3.1221	-18.8452	14.0087	-4.1653
2376.0268	7.0015	14.6344	0.1907	25.8722	23.8993	27.3296	5.9064	2.2308	12.2382	8.6765	13.7257	2.8287	5.6919	12.7694	15.5218	-0.1596
2384.0269	8.2338	13.6946	-3.0210	18.8534	7.4647	20.8909	-3.0861	-6.4328	11.9746	6.7442	16.4740	4.8644	5.0410	9.2306	14.4243	-1.2918
2392.0270	-16.0687	-20.3150	-22.8149	-11.6013	-24.5619	-15.9629	-20.9022	-19.2563	-16.7341	-17.9047	-13.0814	-7.7497	-0.3429	-16.1400	8.4923	-6.7475
2400.0271	-7.9020	-4.1271	-7.2958	17.2633	10.4922	14.9615	-4.5219	-8.1413	-3.3229	-2.8258	-4.2267	-8.5914	-0.0883	3.3088	8.0938	-3.3795
2408.0272	-14.0298	-11.2238	-23.6488	2.4946	-10.7726	-3.6590	-18.1021	-18.6510	-5.9972	-9.6974	-8.5548	-7.2653	0.7821	-10.9431	4.2353	-6.2207
2416.0273	-37.3479	-38.7143	-51.5756	-25.0821	-37.3386	-35.4629	-31.9074	-27.3841	-28.8770	-32.7892	-32.9433	-16.0341	-0.3282	-36.8571	-0.5929	-9.8978
2424.0273	-20.0097	-11.8822	-30.9517	6.8007	-2.2529	1.5312	-13.0432	-17.4271	-7.1870	-11.8780	-11.8566	-11.0889	0.0475	-11.7662	-0.1480	-6.8613
2432.0274	-7.7361	-3.3653	-23.2783	4.2404	-15.5377	-4.3292	-18.6966	-24.4472	0.8432	-6.7999	2.2615	-2.4879	-1.2969	-9.8428	2.0229	-9.7615
2440.0275	-5.6069	-4.4670	-15.5046	7.2269	-10.1402	-1.0348	-14.0301	-16.9572	-3.6364	-8.7556	3.6216	-2.8494	-1.9437	-5.5712	7.5200	-10.7312
2448.0276	6.9938	15.4866	3.2578	31.9622	23.6914	31.7920	2.4987	-4.3040	11.4276	7.1529	18.7540	-0.6554	-2.8817	16.0607	5.9584	-12.4821
2456.0277	-19.5553	-18.6881	-29.2225	-13.5469	-22.6094	-10.4984	-20.7264	-21.9929	-16.5393	-20.4456	-10.1196	-10.1217	-6.3462	-16.5696	-4.2557	-19.6342
2464.0278	-27.9271	-27.8069	-30.8143	-17.1521	-19.0584	-13.3041	-17.4363	-18.2464	-26.5830	-26.8602	-21.2390	-16.8581	-7.8012	-19.3186	-7.8522	-17.2628
2472.0279	1.5738	8.8517	6.4665	27.0000	27.1970	21.1889	5.5872	-3.7854	3.3880	1.7237	11.3454	-6.6640	-9.2340	12.4066	-6.6929	-14.0775
2480.0280	-14.9987	-17.1867	-18.1948	-3.2555	-16.0345	-19.7481	-13.7870	-18.3476	-18.6871	-22.2945	-5.1185	-9.8211	-10.8522	-14.9441	-5.4515	-17.7133
2488.0281	-15.6897	-15.3040	-19.5240	4.0552	-10.9388	-8.1726	-9.3846	-14.6090	-16.2781	-19.7815	-4.8680	-10.0876	-9.7704	-10.8564	-1.5811	-18.7540
2496.0282	23.7923	36.7757	23.6976	57.6491	45.4725	49.9472	18.7974	3.2322	29.9896	23.9202	38.3576	6.2235	-6.9203	33.3381	3.9685	-14.6448
2504.0283	24.3496	33.2154	17.7417	43.0914	26.7164	36.9378	13.9152	0.5249	27.0266	20.1886	36.5879	10.8868	-1.1694	25.8868	11.5885	-5.3914
2512.0283	21.2016	29.4284	14.8352	38.3271	26.1068	38.0143	16.1973	3.3651	24.7448	19.9703	29.7060	10.2718	2.8706	24.5417	18.2282	-0.1735
2520.0284	33.8068	44.9192	34.8648	60.7568	50.2505	59.1846	24.7898	7.5537	39.1419	36.0597	41.1689	12.3853	1.8992	41.9299	20.3994	0.3379
2528.0285	22.4160	24.8078	20.2278	35.9502	19.1083	24.9118	6.7643	-5.5235	21.6555	18.7423	27.0770	8.9562	2.2695	21.4743	20.8813	3.4241
2536.0286	4.8770	4.2259	-3.3431	7.4710	0.1253	-1.6792	-3.8737	-13.0957	2.5745	-0.7574	8.7527	3.0024	4.2121	0.0045	19.9782	3.5784
2544.0287	12.5179	20.1227	4.0474	21.2650	22.8089	22.2962	6.1309	-9.5943	14.1361	9.7561	20.2849	4.1429	4.8248	13.6953	16.4738	4.7784
2552.0288	33.3816	45.9190	22.7635	40.7345	34.6066	41.5625	11.5558	-11.6693	37.7284	29.9820	44.6223	13.7689	4.0705	31.2233	13.2742	6.6993
2560.0289	21.9641	28.9421	8.9154	18.8817	11.9077	15.4840	0.5027	-22.6429	23.6656	15.8025	32.0003	9.9315	1.1607	14.2179	11.5050	1.6120
2568.0290	-3.3552	-3.4951	-13.8494	-11.1060	-13.8471	-14.1370	-12.6501	-31.0517	-5.9071	-9.9393	3.0751	-2.9094	-1.7560	-9.3326	8.2876	-2.1192
2576.0291	8.6277	13.7135	4.5738	9.5195	8.8621	11.7483	-4.5301	-26.5815	9.9644	7.1493	15.2622	-1.1622	-3.6930	9.1462	3.4755	-3.0847
2584.0292	31.4337	44.6209	30.0138	38.2185	39.9391	45.9232	8.7458	-21.8218	36.7360	32.3646	41.3942	6.6915	-4.4363	35.2307	1.1133	-2.6848
2592.0292	38.4853	48.6717	31.4094	31.6218	28.0963	33.2257	5.4169	-26.9444	40.2729	33.1473	48.8229	13.4361	-2.9026	31.7147	3.9762	1.3031
2600.0293	28.3317	33.4176	18.3006	13.6518	7.3763	13.0100	-3.5402	-33.0453	26.8841	19.8804	37.6211	10.6777	-3.1040	17.4782	5.7607	-0.1057
2608.0294	7.4912	13.4275	-0.6796	-0.9747	-2.4753	9.4112	-12.3321	-40.9167	8.6403	4.3983	17.3199	-2.5459	-6.6935	6.5102	-1.9279	-7.2372
2616.0295	7.0536	16.0454	1.5472	0.9581	3.4995	12.2929	-14.5364	-48.8368	13.1164	9.0681	16.8013	-5.7660	-10.8871	8.4909	-11.5177	-11.6692
2624.0296	14.0122	24.4548	15.0857	12.4317	19.7885	18.6141	-8.8770	-51.0142	20.4043	17.4558	23.0759	-6.2584	-14.9099	17.1269	-14.1870	-13.5172
2632.0297	2.8493	12.3730	5.4244	4.2884	12.6828	12.8813	-12.4908	-58.2624	9.4102	8.2717	11.5058	-13.4679	-17.4938	10.1646	-14.5679	-16.6636
2640.0298	-12.3131	-4.1244	-13.3561	-13.2500	-3.2027	-2.7124	-21.6300	-70.7230	-4.1307	-5.4317	-3.0838	-20.4835	-19.8765	-4.6222	-15.7050	-22.8591
2648.0299	-11.8267	-0.7590	-7.9865	-5.2685	11.3392	9.6638	-16.7670	-73.1660	-3.1124	-3.1735	-0.2909	-24.5635	-24.7058	2.6906	-17.3377	-30.6740
2656.0300	15.2782	32.8261	26.9157	32.8183	45.9527	50.7753	0.9490	-68.7476	28.8107	29.0153	28.0058	-15.8417	-28.8650	35.3425	-14.2833	-35.8896
2664.0301	29.3837	42.7719	38.1209	38.8387	39.1462	43.4428	-1.8491	-79.8125	40.8196	38.6517	41.2310	-7.1786	-29.3125	38.5971	-3.7419	-35.1321
2672.0301	7.0934	9.6944	6.0348	1.3625	-5.3461	-5.7066	-27.4329	-100.8460	10.3671	6.9257	18.3581	-14.1875	-27.0377	4.9928	3.5686	-32.2612
2680.0302	0.5555	8.0025	-2.6053	2.1642	1.5368	4.4117	-27.5841	-104.5223	7.8520	4.5252	14.1037	-19.3386	-25.5605	5.4891	4.1454	-32.2855
2688.0303	11.8246	26.9971	12.0269	21.3962	29.2139	30.7193	-16.7866	-105.5878	22.8112	19.0860	29.0676	-18.6163	-28.6101	23.3351	1.0144	-35.7379
2696.0304	20.0753	31.7904	22.0231	23.7033	24.0963	24.6973	-20.4762	-110.9166	28.9821	24.7074	36.1941	-14.5857	-31.6592	25.4835	0.0431	-38.1794
2704.0305	11.6199	22.2186	21.6200	41.2994	38.5759	41.2947	15.3417	-7.3280	21.3286	22.2729	16.0859	-3.8174	-9.9096	27.0441	-2.5020	-11.3567
2712.0306	26.3804	39.5351	34.1157	47.3291	51.5151	47.3018	19.6323	-9.4626	36.9986	35.0420	32.7564	3.7801	-10.6838	35.8542	-3.0530	-14.6047
2720.0307	19.0263	26.4693	33.0333	37.8435	43.0849	44.9331	19.4149	-9.0987	22.8795	26.4812	20.8550	-1.6421	-9.9148	33.4001	6.3356	-11.2032
2728.0308	9.7289	15.0128	26.8838	36.3211	36.6646	47.7332	15.5461	-8.8077	9.4865	16.3779	11.3120	-8.6059	-8.6345	31.3872	10.7130	-7.2704
2736.0309	-9.1410	-13.3657	0.1044	4.6001	-12.3576	2.2810	-10.7359	-23.1938	-12.7018	-7.9364	-8.5986	-12.7290	-9.7410	0.8818	3.1827	-7.9930
2744.0310	-29.6522	-39.1238	-16.8856	-14.1152	-30.0973	-17.5715	-17.1704	-24.7835	-32.9599	-24.3154	-34.4954	-22.2054	-11.1909	-16.3557	3.0439	-10.7096
2752.0310	1.3769	4.5990	22.3197	39.2393	31.5731	35.6929	13.3768	-1.9441	6.0954	13.4655	-0.4348	-11.1873	-11.4401	23.2210	3.4804	-11.7148
2760.0311	9.4367	8.6845	21.5891	30.4558	13.7059	10.6703	1.4975	-14.9017	9.4320	10.5544	12.0801	-3.6801	-14.0901	14.4289	-1.0821	-14.8871
2768.0312	-19.6128	-28.2147	-11.1230	-11.8987	-23.2855	-28.8102	-18.8972	-32.1368	-26.7835	-23.7368	-17.6854	-17.3526	-15.8561	-16.6887	-3.7563	-17.3442
2776.0313	3.1201	8.1576	18.8098	26.9525	27.2291	23.3308	7.4971	-15.2410	2.1516	5.5689	8.5898	-11.8713	-15.6605	18.3110	-9.7586	-12.7904
2784.0314	21.1718	27.1127	32.1896	31.8921	24.1958	27.1170	8.3905	-24.9021	17.9355	17.6387	30.1621	-2.3185	-17.4968	27.5545	-11.0519	-11.0552
2792.0315	2.9813	0.1354	10.0365	-2.7447	-11.3379	-7.2941	-12.2658	-45.4736	-5.4237	-4.3222	9.0950	-9.8931	-18.3659	3.4062	-7.6783	-13.3477
2800.0316	-9.4777	-10.5574	5.7072	-3.5402	-5.2791	-2.4451	-17.3068	-56.2526	-12.3547	-6.6885	-6.5172	-22.2728	-22.7924	2.2327	-12.6936	-18.6522
2808.0317	-21.6947	-22.3903	-4.3446	-7.7446	-15.5423	-4.6609	-31.5718	-81.6252	-19.4045	-12.4344	-17.3317	-33.5982	-31.3496	-3.3011	-17.5957	-32.0628
2816.0318	-16.5952	-15.6134	-4.3570	-1.5589	-14.4695	-7.1660	-36.5894	-89.7314	-11.5160	-8.9512	-7.7339	-30.4339	-33.9530	-3.2870	-19.6142	-39.5573
2824.0319	-2.9244	-0.8287	5.7523	8.2235	-3.2391	-9.4994	-24.4040	-71.6922	0.6402	-1.0024	7.4613	-18.7117	-30.7600	0.9856	-20.5180	-34.7990
2832.0320	-4.8910	-6.6338	-3.8611	-6.5583	-18.8932	-21.4957	-20.1107	-47.5338	-3.7068	-6.7932	2.3287	-9.6546	-21.0379	-8.9367	-15.2797	-26.4194
2840.0320	-17.8022	-24.5390	-28.1510	-30.5706	-45.4437	-45.7869	-29.6051	-29.4234	-17.2982	-22.4673	-13.8722	-5.4094	-8.6991	-30.5303	-11.9691	-16.5645
2848.0321	-39.2264	-53.0490	-53.5814	-56.3861	-69.3314	-76.1886	-40.6755	-18.0122	-44.8773	-49.2061	-37.6717	-10.7169	-2.1703	-55.3119	-10.9742	-10.3880
2856.0322	-36.6577	-45.7506	-47.2338	-46.4437	-46.9317	-48.8425	-27.9792	3.9978	-40.2463	-42.0071	-35.8837	-9.8561	2.8322	-42.6327	-8.7711	-8.9830
2864.0323	-12.8640	-10.5009	-25.2224	-15.7929	-10.0203	-11.6124	-9.3065	16.7305	-5.8875	-11.0467	-9.9288	2.1353	6.2612	-16.9270	-9.9189	-6.8303
2872.0324	-7.1911	-5.4389	-29.6081	-20.4124	-23.3290	-28.0724	-11.9141	12.3965	0.8170	-9.7954	-2.5216	10.4957	8.3242	-24.0811	-10.2782	-2.5097
2880.0325	-5.7475	-1.6648	-30.2566	-17.4394	-21.2081	-16.0192	-7.4726	19.0384	3.0566	-7.3986	-0.3911	12.2299	12.1743	-19.3950	-7.0439	2.1174
2888.0326	9.8599	22.6283	-6.6378	18.1812	19.7624	27.7422	11.7885	29.4863	22.2731	13.5758	17.7733	13.8309	11.5836	9.1367	-2.6522	1.9670
2896.0327	20.7380	29.6005	8.4342	22.8837	20.3544	24.6357	9.4523	21.8729	26.9578	18.4761	28.8780	16.7112	7.1802	15.0350	-1.6158	-0.7539
2904.0328	11.2371	10.2332	1.6014	-3.3907	-8.8173	-4.0043	-8.1310	7.4624	8.6005	3.2942	14.8710	11.2189	5.2402	-0.2893	-3.6699	1.7506
2912.0329	1.6021	2.1545	-2.6377	-2.9110	-0.9973	-0.1919	-7.5115	1.1869	-0.5539	-2.5281	4.5678	1.4528	3.2998	-0.9125	-2.9534	2.0296
2920.0329	-0.5146	4.9503	-1.7214	4.2943	9.4023	12.8002	-10.2716	-24.6855	1.1219	-0.2162	7.0819	-7.6672	-5.8231	5.7093	-4.1787	-9.9759
2928.0330	-11.6763	-8.0221	-10.1550	-3.7444	-5.3026	3.9071	-24.4844	-59.3167	-11.0106	-10.9996	-0.6674	-20.2642	-17.6807	-0.9342	-6.5629	-23.5504
2936.0331	-10.3744	-4.5760	-6.9048	6.9454	5.8665	8.2816	-18.2457	-59.6073	-8.1349	-8.6247	2.2912	-21.2842	-20.4459	2.6892	-5.3320	-26.7759
2944.0332	7.9713	16.6633	11.4373	20.3391	24.4624	21.0056	-9.7682	-55.8786	11.8410	9.8606	19.7886	-12.0578	-17.9076	16.6464	-2.3312	-22.5340
2952.0333	12.6186	18.1943	17.7208	16.2598	21.9966	19.9505	-13.5610	-63.5090	10.8057	10.3726	23.3161	-11.6931	-17.3565	19.2958	3.3046	-19.3647
2960.0334	6.5691	13.6466	13.7777	15.5789	23.4324	26.6340	-14.7159	-72.7636	5.3913	6.5553	19.1195	-18.3274	-21.1641	20.2530	4.0643	-25.4892
2968.0335	8.4895	20.0470	21.6753	28.8297	34.6961	43.3287	-13.3306	-91.1611	13.6157	16.5801	21.8469	-24.3345	-29.1790	30.8581	1.7834	-33.6297
2976.0336	21.5274	36.6029	40.9967	50.2708	56.4860	63.1285	-8.2805	-103.1577	27.5332	31.7256	35.8469	-24.8176	-32.8787	48.4606	5.7038	-33.3670
2984.0337	32.8034	48.3956	49.8654	55.6386	58.5569	64.7106	-12.3031	-118.2621	39.3909	41.8959	47.4604	-20.7394	-32.7405	54.3595	10.0494	-30.2366
2992.0338	35.7800	45.7072	50.8147	49.0611	39.9980	46.7285	-20.9394	-131.1166	40.7521	42.7123	46.8996	-17.5042	-32.7601	48.0179	14.8447	-25.9959
3000.0338	27.2434	33.0651	40.2889	35.7729	27.7963	29.4200	-25.2839	-130.0774	28.3452	30.4013	37.4868	-19.4160	-31.4110	36.0876	17.1495	-25.0033
3008.0339	8.8534	12.4462	16.0357	12.7344	5.0128	10.1767	-36.1800	-136.5229	10.2734	11.7123	20.0903	-25.8484	-31.7158	17.1385	14.2954	-29.5666
3016.0340	10.1983	15.6287	16.3986	18.0344	5.1840	18.3481	-31.4618	-129.2489	13.2533	14.5412	21.6896	-23.9049	-29.6169	20.6368	14.1704	-25.4766
3024.0341	17.1982	26.2604	18.4226	22.8030	15.6024	21.8964	-24.0468	-116.4234	20.9147	19.2127	30.3463	-17.2414	-23.7452	23.6460	12.8755	-16.9469
3032.0342	4.8101	8.6114	-0.3341	-0.0130	-6.4106	-13.3365	-32.8559	-115.0412	7.3878	3.3368	15.9406	-17.1773	-21.8277	0.6961	9.4102	-16.2764
3040.0343	5.1776	8.7867	5.4196	0.7773	0.0131	-7.8864	-23.1382	-95.8591	9.9097	8.3482	11.5437	-14.9522	-20.8983	3.7242	5.3855	-16.8728
3048.0344	16.1546	27.2846	21.4020	13.9569	28.1997	26.7276	-6.4565	-73.8249	27.9449	28.8814	19.2092	-9.9027	-16.3962	23.4432	1.1093	-13.8742
3056.0345	23.4378	33.9900	30.3241	19.9365	34.9400	35.3322	-1.8663	-59.5737	32.4428	34.0533	25.3744	-5.0849	-12.3099	30.4626	3.0549	-8.8224
3064.0346	21.4111	23.1827	25.9609	3.3125	11.7022	12.5539	-10.0644	-55.6928	18.2259	19.6088	23.2292	-2.5460	-10.0997	19.3133	5.5215	-3.7775
3072.0347	-6.6039	-13.6594	-7.9839	-38.2561	-29.4852	-32.6218	-27.4707	-61.4912	-13.8370	-11.2836	-9.3527	-10.9737	-6.9196	-15.0657	4.2419	0.8574
3080.0348	-23.0866	-27.3068	-21.7428	-39.3803	-26.2503	-32.7592	-26.7112	-54.3850	-24.3522	-19.7059	-27.5200	-19.9420	-6.2654	-22.4031	-1.9124	1.3326
3088.0348	-18.5220	-15.8164	-17.1163	-24.5339	-16.4149	-9.8894	-24.8385	-54.3277	-14.4158	-11.1808	-17.8024	-20.4266	-9.3481	-10.7410	-11.9414	-3.4278
3096.0349	-6.5418	1.5191	-4.7722	-6.4183	-0.4053	12.7351	-13.4364	-44.5661	1.2009	3.4193	-4.1717	-14.5874	-8.0516	4.2842	-12.6191	-1.1231
3104.0350	25.8522	42.8040	34.6169	36.5901	53.2917	54.1141	15.5260	-20.8057	38.0966	39.6163	27.5910	-0.5516	-4.6196	39.0447	-8.3527	5.2779
3112.0351	22.9693	34.1401	25.2167	16.4978	31.2931	25.8015	3.2250	-32.7559	32.0345	31.2777	23.3759	1.7462	-3.8015	23.8865	-6.5338	5.8546
3120.0352	-5.9341	-2.5349	-6.1356	-16.2832	-2.4699	-7.6781	-9.3255	-38.3724	-4.0515	-2.2316	-6.9319	-10.5036	-3.2101	-4.3281	-3.9350	7.7014
3128.0353	9.3665	19.1023	15.0645	10.2305	27.5042	25.3920	8.9569	-22.7235	14.1207	17.0547	8.8423	-5.4192	-2.2288	18.4457	-2.9431	10.4428
3136.0354	17.0906	22.8092	14.4187	2.8070	9.6680	12.9983	1.0555	-25.1368	24.3680	23.7870	14.0875	5.2334	1.2620	13.2901	2.4460	9.0737
3144.0355	-2.1768	-2.7560	-7.7640	-19.3145	-10.9126	-12.6818	-9.1895	-27.3934	-1.5097	-1.7751	-3.7974	-2.2317	0.5729	-7.4426	5.9325	3.2321
3152.0356	-2.5398	-1.0925	-2.0475	-13.7298	0.7339	-7.1367	-6.8876	-33.1458	-5.1275	-4.6183	0.3275	-8.2479	-7.4211	-2.4017	-2.3921	-4.9988
3160.0357	9.0431	12.2090	14.5122	-4.4113	8.9963	5.7012	-4.5723	-38.1915	9.2995	10.5688	10.8537	-5.4182	-12.2456	9.9711	-8.2249	-10.0268
3168.0357	15.0377	21.5970	25.4939	6.4362	25.5262	26.7778	1.9012	-36.7354	16.4586	19.4413	17.9739	-6.2132	-14.8257	23.1018	-8.3752	-15.4220
3176.0358	1.0691	5.0984	7.4180	-11.3132	10.0862	7.3684	-8.7296	-51.1972	1.6189	3.9366	5.3602	-12.8694	-17.0926	7.4190	-7.0300	-21.4569
3184.0359	-9.5400	-6.4506	-1.8659	-16.4610	8.6099	1.0914	-11.8159	-58.7185	-8.3281	-4.4304	-6.0022	-19.9068	-18.5569	0.5238	-2.7035	-24.8569
3192.0360	-6.6961	-2.1067	5.6515	-3.3112	18.7499	13.1963	-10.0664	-64.1771	-4.8797	0.4095	-2.1735	-22.8281	-21.6022	9.0025	-0.2084	-27.3354
3200.0361	-16.5467	-16.5715	-9.7511	-19.2359	-6.9972	-10.7298	-24.7662	-80.7677	-13.7161	-9.2287	-14.4629	-25.4506	-20.6038	-7.1737	3.2780	-24.5709
3208.0362	-12.3922	-8.3987	-6.3513	-11.3152	3.7698	4.7686	-22.4935	-84.8872	-5.4160	-0.8392	-9.7647	-25.1910	-19.0645	0.9858	7.5723	-24.1049
3216.0363	-7.3344	-2.6634	-4.6576	-10.7425	1.1972	6.9384	-27.2427	-93.0994	0.3817	2.6938	-1.6783	-22.7123	-21.2614	3.2161	6.6667	-30.4601
3224.0364	-8.9729	-6.3432	-8.4574	-18.9212	-5.2651	-7.1811	-29.5521	-95.8329	-2.0257	-0.5924	-4.7828	-21.6571	-20.5286	-4.0200	6.7602	-28.2557
3232.0365	16.9993	30.1881	22.6154	19.6869	41.4316	34.9588	-6.9494	-82.8562	29.3852	30.0933	22.9806	-12.8692	-18.4919	27.8018	7.7518	-21.9495
3240.0366	8.9988	18.3773	8.0005	3.9766	16.3692	10.4907	-22.3546	-93.0266	22.5233	20.5624	14.8792	-13.2529	-18.9222	11.5319	2.9114	-23.9379
3248.0366	-11.0271	-15.9593	-11.7157	-4.5251	-24.0219	-17.5792	-0.7403	20.7114	-19.8265	-19.8584	-9.8610	-1.1869	3.4487	-12.5197	-8.1527	14.8239
3256.0367	-4.0889	-7.1425	-5.1824	5.9302	-18.5845	-8.8376	-0.3312	24.0459	-12.5926	-14.0658	-0.5509	1.8303	3.7148	-5.6860	-11.1401	15.6601
3264.0368	-0.4382	-3.9599	-0.8684	8.1161	-24.6697	-5.3899	-3.1707	25.5550	-10.5933	-12.0809	3.8029	3.3963	3.3493	-2.3612	-16.8893	18.4969
3272.0369	-7.3661	-12.2071	-7.4211	0.5171	-27.0431	-15.0132	-3.6751	30.1897	-17.3670	-18.2096	-5.1261	1.3558	4.4089	-9.8251	-18.3914	18.9138
3280.0370	10.8574	16.2721	9.4504	27.6137	12.8725	14.8394	12.9625	40.6052	10.6471	6.8920	14.6661	9.9857	8.2560	10.4829	-15.2556	19.3691
3288.0371	24.8455	30.0367	14.7586	26.3116	10.7231	6.8489	11.7030	34.0804	27.8854	19.0177	28.6736	21.8227	10.0265	10.7198	-10.4493	17.0891
3296.0372	14.0633	11.1746	2.9442	-1.1443	-9.7394	-19.9487	5.7561	29.9811	14.6424	8.1953	10.5126	20.5673	11.9374	-6.5764	-1.4778	15.8468
3304.0373	22.3380	27.7838	15.7055	17.9556	18.5120	16.2753	21.1341	40.5200	29.0770	24.7457	18.8231	21.4107	13.8444	13.4311	-0.6411	17.5992
3312.0374	25.4843	31.6516	18.1050	22.4418	13.2144	17.4367	19.6781	38.3092	30.8351	24.6071	26.1021	22.4225	9.7669	15.5813	-8.6166	14.8488
3320.0375	13.1177	11.6905	12.9234	13.7568	4.3463	2.3915	19.4238	42.7700	7.6358	5.8933	11.5900	14.6207	8.3498	6.3712	-2.1572	16.8010
3328.0375	16.1951	16.2775	18.1703	24.0432	21.1371	16.2614	29.6474	52.5744	8.6391	8.3109	14.9417	15.1454	11.8535	14.3835	8.6041	19.9969
3336.0376	-2.0718	-10.9061	-12.5092	-15.6739	-24.3969	-28.6096	6.1551	39.1246	-10.8459	-13.8214	-5.9608	14.1102	14.9352	-17.7187	10.4014	17.8612
3344.0377	-24.7045	-40.0442	-35.6138	-43.7976	-50.9938	-51.6905	-8.0367	36.5410	-34.7763	-34.1214	-34.2146	5.0913	17.8929	-39.0213	11.7486	19.3255
3352.0378	-7.2292	-13.2816	-10.0861	-9.1506	-14.7828	-8.9773	8.0489	47.3993	-11.1432	-10.0339	-13.3124	8.3293	13.6145	-10.4632	4.6261	13.0086
3360.0379	5.6929	0.3545	3.4749	-0.8761	-11.5794	-1.3568	9.8199	44.0403	1.5426	1.0272	1.6161	14.0171	9.6062	-0.8398	1.0368	7.8895
3368.0380	14.8070	9.7323	11.6409	3.4303	-4.7867	7.7691	15.3976	47.6786	7.2889	7.3706	9.6514	18.7579	15.4233	7.1218	10.6723	18.7595
3376.0381	27.0620	25.5945	19.2908	16.5127	2.6685	16.4833	17.1741	47.8556	22.6507	18.5769	25.7430	26.0426	15.6479	15.1463	8.8538	17.4879
3384.0382	17.2413	11.6440	8.5218	5.9741	-15.2093	-2.1939	5.4805	39.0073	14.1962	9.5759	15.2144	22.3811	11.3596	2.2447	5.2217	8.2093
3392.0383	32.9898	33.1024	32.9149	34.9440	21.9026	33.2988	23.2374	51.9358	31.8246	30.2670	29.1801	25.4812	14.4730	27.3602	12.5805	15.0735
3400.0384	54.4568	57.9976	51.4269	50.0447	37.3574	48.3517	29.3589	53.0560	51.3005	46.7598	53.5462	35.8025	17.8797	43.3014	15.3229	23.0876
3408.0385	29.1777	21.0298	16.5020	1.9466	-14.8003	-9.4183	2.5569	29.2923	19.3643	13.7207	25.9574	28.3955	17.4212	4.4361	16.2655	22.1759
3416.0385	10.7568	1.4041	1.3326	-10.4451	-21.7363	-18.6221	-2.4609	21.7733	4.0977	1.8183	4.4363	17.3640	14.8749	-7.1656	16.0574	17.0702
3424.0386	8.5853	2.7742	2.4321	-2.0812	-13.3453	-1.5360	-0.3761	21.3389	4.0963	3.3405	4.4976	12.7043	12.4758	0.0047	14.0372	12.7235
3432.0387	2.6557	-4.7215	-6.6917	-9.9547	-21.3750	-13.9885	-6.4973	15.9336	-3.3960	-5.6853	0.6611	10.5861	11.2498	-8.7852	13.3870	9.0763
3440.0388	-1.0589	-8.5917	-12.5894	-12.1397	-23.5649	-26.5124	-12.6023	9.6689	-3.9650	-8.7831	-1.5424	9.4306	7.7321	-16.3765	8.4488	0.5378
3448.0389	-8.8383	-18.0730	-17.6423	-12.3308	-28.3909	-25.2557	-15.0169	8.5020	-12.8726	-15.8001	-8.8365	4.0806	5.3020	-18.6451	10.9546	-4.7970
3456.0390	16.3855	15.4555	15.2457	31.3785	15.3523	27.2975	11.3907	27.5786	16.1297	14.7499	17.4274	12.8248	7.3389	17.5770	21.7061	-2.1695
3464.0391	53.7620	61.0244	49.7096	74.5166	49.8528	67.9252	30.5052	41.7963	58.7693	52.6403	57.8772	32.6737	12.9118	51.1809	30.2948	5.2379
3472.0392	46.7206	46.6031	36.1762	55.5826	25.7387	42.9336	21.8735	42.1354	45.0876	38.2265	48.8326	34.5353	18.7452	35.2031	39.9700	12.5022
3480.0393	31.9244	27.2964	29.2705	37.8242	23.4817	29.7899	21.8497	45.4991	27.6258	26.3426	27.4955	25.8304	17.7273	24.8387	40.1394	10.6896
3488.0394	14.1294	5.0843	16.3155	16.5574	12.2808	9.6349	15.7371	42.1999	7.4000	10.2995	4.7134	15.8048	16.4334	9.5152	36.4233	11.2503
3496.0394	-11.1631	-24.8187	-7.2398	-6.4735	-2.8771	-11.4395	11.0372	44.6303	-23.2323	-16.0716	-23.8238	3.3690	19.5076	-10.5407	39.4897	18.1639
3504.0395	-15.2280	-26.0977	-3.9817	-3.5583	8.3678	1.9936	14.1228	47.2714	-25.4854	-14.8367	-28.7524	-3.0248	16.6289	-4.7210	32.5758	14.8225
3512.0396	-24.8548	-37.2428	-13.8499	-18.2297	-6.6275	-8.6221	2.6827	35.5874	-34.9300	-24.0609	-37.1809	-8.9922	11.2916	-13.8710	22.9615	5.9015
3520.0397	-26.1080	-31.7185	-13.4892	-6.9649	12.5471	9.1197	13.0500	39.4613	-29.1565	-18.0943	-36.8241	-11.5794	9.8379	-6.6399	21.7031	1.0904
3528.0398	-5.0375	-1.2445	10.9998	23.5858	45.0434	46.9389	30.3222	45.9951	0.9494	11.3776	-15.2020	-3.8099	9.5704	20.0372	20.7236	1.5642
3536.0399	-15.8708	-21.0169	-6.0071	-9.4818	5.8742	9.5041	14.1058	34.1212	-17.2582	-7.7198	-27.6098	-4.7354	9.1809	-2.6243	18.2265	3.3562
3544.0400	-41.8723	-52.4208	-29.7514	-38.4366	-16.7670	-22.7868	3.6201	27.0288	-47.0835	-35.1919	-54.8008	-17.9861	3.5011	-27.4391	8.4696	-3.3527
3552.0401	-49.3927	-55.4541	-29.7460	-29.0206	0.1368	-13.1052	8.2122	29.0834	-49.5804	-35.5005	-61.8547	-26.5509	-1.6021	-24.3527	-0.7154	-9.8258
3560.0402	-43.1115	-44.8222	-27.5082	-24.2163	10.1423	-1.9862	11.9061	35.5638	-40.3701	-28.4147	-53.6241	-21.9796	2.1573	-18.5042	-1.8706	-7.7129
3568.0403	-13.8468	-11.4651	-0.1781	-4.1955	26.1866	21.1863	18.4690	40.0127	-11.1698	-2.7313	-21.5139	-7.2664	3.8263	4.2716	-4.6821	-3.6928
3576.0403	2.8890	1.5319	21.4847	9.8972	27.1996	24.1497	18.9112	37.0917	-4.0097	4.4457	-3.1063	-1.9926	0.8560	16.1743	-3.9760	1.6029
3584.0404	-15.7615	-23.7481	1.2540	-10.8503	-0.8808	-1.8074	9.6221	30.3701	-30.5626	-20.6959	-21.3929	-10.3068	-0.1226	-3.2902	-2.0364	4.6480
3592.0405	-32.2886	-44.1491	-17.4964	-30.8871	-25.3206	-25.6329	-1.8338	19.7424	-47.0092	-36.8033	-39.0958	-17.1939	-2.8419	-21.6668	-6.8525	1.8163
3600.0406	-32.0707	-40.9848	-11.3611	-21.4487	-7.2562	-19.1686	3.4022	18.5469	-45.1646	-33.9379	-38.0197	-21.3783	-7.2609	-16.4434	-11.0554	-3.1097
3608.0407	-23.3643	-23.0839	-2.4548	-3.0649	18.6295	7.1433	16.3622	19.9523	-29.8989	-20.3158	-24.7716	-19.8812	-9.6472	-1.0714	-13.7945	-8.1238
3616.0408	-25.7158	-27.7849	-11.1245	-13.5783	-0.3709	-5.9462	8.8228	8.8309	-31.1394	-23.5566	-27.2018	-18.0936	-9.7106	-9.6499	-11.1702	-9.0425
3624.0409	-36.6573	-42.2062	-21.4836	-24.9918	-10.5536	-16.5060	4.4182	6.6431	-44.2726	-34.0789	-41.5274	-23.2816	-6.8637	-19.0279	-5.0845	-3.8127
3632.0410	-30.5684	-29.5189	-13.9590	-11.2291	1.7147	8.5501	12.8001	11.6880	-31.9974	-21.0206	-35.3442	-21.9395	-5.2917	-5.4989	-8.8289	1.2763
3640.0411	-24.4853	-23.8950	-10.1200	-10.3581	-5.2426	2.2791	8.6212	5.8435	-25.6868	-17.1060	-28.1465	-18.1211	-7.2812	-5.6656	-14.9665	1.7407
3648.0412	-26.4156	-30.1444	-17.3977	-25.2385	-18.5519	-19.8278	-3.1897	-3.8744	-33.0422	-26.8488	-28.6145	-17.4004	-6.5978	-17.1546	-14.2910	1.8078
3656.0412	-30.3610	-35.5035	-26.5427	-39.9376	-32.8365	-26.3426	-10.5022	-9.7994	-38.2366	-32.3943	-32.7364	-17.4977	-3.6662	-23.7029	-12.5821	4.6607
3664.0413	-39.2665	-42.8205	-30.0648	-42.4174	-23.7821	-25.2864	-4.7673	-6.5508	-46.1172	-37.2007	-43.7317	-24.4723	-4.7035	-25.6129	-15.0589	5.4888
3672.0414	-26.9034	-25.5188	-12.9505	-20.6316	4.3206	-12.6470	5.4879	-3.3661	-28.7267	-20.7462	-31.4637	-21.1683	-6.8810	-12.5496	-18.1126	4.2532
3680.0415	-11.6136	-14.1369	-2.6206	-14.0794	-6.5074	-17.8659	0.7375	-6.4811	-13.7046	-8.9147	-17.5576	-9.4107	-4.4583	-9.2380	-10.8859	7.1125
3688.0416	-18.1786	-24.7066	-14.9754	-26.0089	-21.3012	-33.5263	-2.9355	-2.2967	-24.9874	-21.3710	-23.8284	-8.3522	0.1809	-20.8381	-4.0311	11.8400
3696.0417	-11.7115	-14.0177	-14.8312	-22.0225	-12.7148	-35.0982	-1.6667	0.1990	-16.3005	-17.6169	-12.9470	-3.1433	1.4901	-20.3357	-10.6239	12.2916
3704.0418	-6.2795	-11.9541	-11.9992	-26.5131	-26.7232	-40.6522	-11.4267	-4.3597	-12.3218	-14.8384	-8.0693	1.3723	1.8562	-21.3014	-12.1088	11.7437
3712.0419	-13.8224	-20.7629	-18.5732	-33.8353	-35.5824	-33.9119	-15.2564	-1.5630	-21.6430	-21.2731	-16.4034	-2.7844	3.9101	-22.3700	-9.9129	12.4030
3720.0420	1.1082	4.9799	-6.2841	-14.2044	-6.8373	-11.2219	-2.7453	2.0989	0.7254	-3.2906	4.2580	3.2677	2.4934	-6.4757	-19.8218	10.2051
3728.0421	15.8080	25.6143	6.8095	-1.3433	13.7061	-1.4554	8.5436	1.9741	19.1039	11.6700	21.7543	10.1441	0.7109	4.5009	-23.6087	9.1747
3736.0422	7.1194	14.9708	-2.3540	-11.0137	4.6050	-4.2650	6.3149	0.4425	10.5765	5.2183	10.7237	6.6618	2.3840	-1.3126	-17.4474	9.0610
3744.0422	-1.3663	2.3434	-12.1629	-20.7820	-12.6579	-17.8191	-5.6507	-8.0565	2.8448	-2.3389	0.9465	3.4824	0.5996	-11.6784	-16.7651	2.9942
3752.0423	-5.1930	-4.5311	-15.7111	-20.4822	-21.0800	-25.7941	-12.6207	-12.4318	-2.1294	-7.9183	-1.5232	1.5110	-2.8313	-16.5896	-16.5183	-4.3887
3760.0424	-2.8627	1.9245	-13.3902	-1.9345	-9.9204	-6.0967	-10.4036	-5.4521	3.8034	-3.1696	5.1358	1.5445	-3.1386	-7.5093	-16.4898	-9.6926
3768.0425	6.7530	15.5987	-5.8994	13.7193	0.4709	9.7390	-11.6299	-4.4487	16.2437	6.7556	18.6673	5.3486	-2.2801	2.9037	-18.7374	-10.7107
3776.0426	1.5059	6.1710	-13.9703	-2.0390	-17.5529	-9.0496	-21.0334	-14.1695	7.4041	-2.0909	11.8976	3.8719	-1.3423	-8.0116	-18.4784	-5.9138
3784.0427	-9.0306	-5.2539	-23.5653	-9.1773	-23.5944	-18.2107	-20.2017	-14.0203	-2.7549	-10.6826	-0.7205	-1.0893	-1.0087	-16.3169	-18.5638	-2.2848
3792.0428	10.0746	24.6044	-3.2531	24.8211	15.3157	22.5248	0.4919	0.9072	22.1681	12.7392	22.0630	6.1611	2.4699	10.1749	-15.8834	2.9058
3800.0429	33.8498	54.4745	14.9564	42.1823	33.9468	45.9036	9.1734	2.0639	48.8930	35.6349	48.7164	18.8433	6.8624	29.3552	-11.0251	8.2285
3808.0430	23.6271	36.1541	-1.1182	13.4158	1.2727	9.7054	-6.3596	-13.4433	35.4312	21.3189	35.1741	17.8648	6.6568	7.5665	-8.8902	7.8764
3816.0431	7.4719	15.1296	-14.4683	-1.7361	-12.3886	-7.8992	-9.9711	-14.1375	15.0194	4.1792	15.8957	9.7405	6.6720	-6.2855	-6.6126	10.8617
3824.0431	12.3830	23.5527	-0.8745	18.0816	7.3490	12.9542	-0.8544	-6.1672	20.0042	11.5182	21.9070	7.2350	3.7017	7.8854	-11.1249	10.8431
3832.0432	13.4361	23.3957	1.4894	21.3698	-0.8803	11.2787	-9.2361	-10.8318	23.0861	13.6450	24.1201	7.1893	-1.5220	7.8910	-19.9420	2.0191
3840.0433	-8.0671	-4.7799	-27.5002	-12.6233	-37.9526	-20.5095	-28.7115	-17.5108	0.4141	-9.4177	0.9115	1.7666	0.1123	-18.8440	-22.1708	-1.9653
3848.0434	-20.1443	-17.4771	-40.6409	-27.6830	-41.6674	-32.3053	-30.6499	-14.7589	-12.7912	-22.0196	-11.4520	-3.2476	0.9908	-30.0591	-25.2688	-2.8975
3856.0435	0.3159	11.6891	-14.9501	5.1309	-3.5186	0.4871	-12.1343	-5.6708	14.1289	3.9644	10.6243	3.4187	-0.5498	-4.8071	-27.3572	-3.6061
3864.0436	9.0022	19.4665	-2.9108	13.3024	2.6294	4.9472	-8.2266	-5.9222	23.8687	14.3274	16.8432	7.2347	-2.0601	2.2073	-24.0574	-5.4839
3872.0437	-4.8632	-4.8315	-11.6764	-8.6607	-19.8064	-23.5646	-17.8582	-13.2110	-0.0388	-6.3810	0.7595	-0.2153	-8.3513	-14.2991	-22.3677	-14.6036
3880.0438	4.7947	8.3880	2.8567	9.0496	-0.5205	3.3947	-5.6525	-6.6085	9.2027	4.5990	11.9889	1.3714	-9.1234	3.1632	-17.0794	-15.9092
3888.0439	13.1588	19.4454	10.2026	14.8119	5.5967	17.2045	-0.4011	-6.2229	20.8759	16.6326	18.4486	5.8029	-5.6456	12.2862	-12.4419	-10.0547
3896.0440	-6.8052	-7.9241	-10.8922	-14.9129	-25.3869	-17.2539	-14.5255	-18.9402	-3.0074	-5.7551	-4.2479	-2.6360	-8.7496	-11.7081	-15.6148	-12.7417
3904.0440	-9.0896	-8.0418	-11.9647	-8.1894	-19.7095	-6.9886	-11.1155	-16.0718	-5.2783	-7.2191	-4.6481	-5.4585	-8.4849	-7.9234	-14.0178	-11.8903
3912.0441	1.8436	4.6601	-3.1259	3.9711	-11.7947	3.0018	-9.7684	-14.0134	6.1420	2.4925	7.4679	0.2240	-5.1554	0.8192	-10.3368	-6.8940
3920.0442	-3.6216	-3.5741	-10.0793	-4.2759	-19.6118	-14.7655	-17.5237	-20.2951	0.4172	-3.9630	0.6734	-1.6388	-5.2742	-9.4528	-11.1394	-6.8867
3928.0443	-5.1813	-5.2370	-9.8386	-5.2209	-12.0108	-16.6797	-14.6008	-17.4927	-2.1566	-5.5614	-2.1835	-3.0307	-4.0278	-10.3231	-8.6521	-5.1998
3936.0444	-2.0223	-5.7600	-4.6350	-11.2218	-13.3911	-21.0947	-14.7955	-16.4573	-4.7189	-6.7309	-0.7808	-1.4949	-3.3801	-10.0456	-4.6753	-4.0814
3944.0445	5.8102	5.7522	7.6115	6.0758	6.9102	3.1789	-5.5060	-9.1187	4.6218	4.5464	6.6824	-0.4500	-1.2176	5.1218	0.8922	-1.1089
3952.0446	25.1597	31.9507	27.0903	36.6629	34.8319	35.8167	7.7850	2.5954	28.4750	26.6256	28.4328	8.3588	2.4989	27.7947	6.4008	2.5632
3960.0447	26.1072	28.4308	22.6167	25.4342	16.1761	20.3916	-0.6594	-1.3334	27.6382	23.4592	29.3143	12.9839	2.5425	19.6740	7.2766	-0.9354
3968.0448	19.7249	21.9915	14.0946	17.7255	12.9087	19.7341	1.4279	1.2724	21.4796	18.6380	20.9358	11.3415	7.1360	15.4279	14.2102	4.7247
3976.0449	33.7377	42.1759	24.5401	37.4651	33.6789	38.0215	17.1142	9.6358	38.3376	33.1945	36.3798	19.3566	13.2944	29.0003	22.6644	16.9712
3984.0449	35.3466	43.5698	22.3331	37.7301	29.4901	27.7719	14.5176	4.2829	42.4234	34.6735	38.0965	22.0514	13.1834	24.5353	22.4579	17.4782
3992.0450	22.7228	29.4953	10.4806	24.0655	23.0964	19.9488	7.7253	1.5926	29.2479	23.5362	24.1125	15.0064	13.5995	15.2608	20.9878	15.8554
4000.0451	27.1272	35.3521	16.2186	24.4466	24.0967	28.0060	11.2100	2.5848	31.4290	26.1131	30.1718	15.9050	11.9160	21.2509	15.6969	16.8573
4008.0452	29.0664	36.5487	21.6378	23.4109	20.6335	24.3481	13.6139	0.6348	33.1631	28.8032	30.2094	16.0772	8.5305	22.0349	9.1685	18.2555
4016.0453	15.4371	18.7613	11.0827	8.2613	15.0442	5.9547	9.9977	1.0225	17.2633	15.7085	12.3407	9.3775	9.0603	8.8265	10.5485	18.8168
4024.0454	11.6107	13.0525	9.4472	6.8587	13.8653	4.0540	8.3338	0.0907	11.5270	10.8918	9.1146	6.4968	6.4019	6.9332	12.1494	12.2711
4032.0455	11.1246	12.1058	12.3202	10.1508	11.1694	10.0227	6.8216	-4.3796	10.1162	10.4097	10.6372	3.7689	0.7629	10.4158	9.1540	3.8799
4040.0456	-5.4407	-5.9640	-5.5496	-7.5764	-3.0323	-6.4659	0.2309	-12.7917	-6.1789	-5.5255	-5.0117	-4.3902	-3.4400	-4.6282	4.2321	-3.9311
4048.0457	-12.3580	-9.9784	-12.6567	-9.3130	1.2383	-7.2538	3.3676	-16.4948	-7.7442	-7.2168	-11.7260	-8.3449	-6.0944	-8.2426	2.2876	-9.6053
4056.0458	-0.2982	4.9206	3.5446	7.0526	20.5013	11.8558	12.5270	-11.4384	4.4985	5.8004	0.5246	-4.8586	-5.9498	6.8886	5.1346	-8.3413
4064.0459	1.4542	2.2489	6.1975	6.2436	12.0239	5.7510	9.1687	-10.8319	0.3018	1.9566	2.3523	-3.5904	-6.0767	5.6860	8.4188	-6.9463
4072.0459	-3.8916	-7.8645	2.1761	1.9369	0.5268	-6.0041	3.0175	-12.1152	-7.9322	-5.2444	-4.7542	-5.6620	-6.4478	-1.2556	11.0606	-6.9878
4080.0460	-5.0614	-9.0318	3.1755	2.1248	5.6218	-5.9065	1.1626	-13.4147	-9.6513	-6.0870	-6.3269	-8.0257	-6.6671	-0.9854	10.3357	-7.4360
4088.0461	-13.4273	-17.5082	-7.5828	-5.8938	-3.6852	-10.1687	-1.9314	-20.9044	-16.2464	-12.3082	-14.7205	-11.8956	-7.1136	-7.4356	12.9189	-9.0161
4096.0462	-17.8654	-22.4588	-12.5895	-9.4150	-8.5404	-6.7653	-0.5482	-23.6853	-18.4469	-12.7581	-21.5251	-13.4746	-5.7095	-8.5858	21.5365	-9.2248
4104.0463	-5.6645	-8.1455	3.0717	4.6297	9.3209	4.8202	3.6300	-23.5740	-5.4885	-0.0768	-9.0656	-10.0005	-6.8524	3.3466	21.4393	-10.3969
4112.0464	1.3696	-1.2536	11.0349	11.0046	11.6203	4.7715	0.4745	-30.6129	-0.3802	3.8826	-0.1087	-8.6468	-9.4389	7.6020	18.5184	-10.6496
4120.0465	-3.3123	-6.1391	10.4588	4.5110	11.7028	8.0435	0.2876	-34.4378	-7.5100	-0.3854	-5.1769	-14.0997	-11.8442	8.1951	16.4013	-12.3422
4128.0466	-5.6680	-6.4863	13.2543	2.3543	16.6130	9.7450	2.4551	-38.3582	-6.3065	2.2769	-8.5569	-17.9859	-18.0995	9.3980	5.5427	-19.8362
4136.0467	-14.9763	-18.0719	-2.0633	-13.8304	-10.1886	-11.5645	-8.3371	-49.6832	-11.1122	-4.9137	-18.2973	-18.7890	-21.5488	-6.0900	-1.9828	-25.7515
4144.0468	-17.1818	-17.0111	-6.3632	-13.9764	-5.9527	-7.4864	-6.0205	-48.4221	-9.1597	-4.0003	-19.2016	-19.2763	-21.7737	-6.3922	-4.7294	-29.1776
4152.0468	1.7517	7.3781	17.8463	7.2956	27.0859	14.6109	5.7203	-42.7833	11.2719	15.7918	1.2017	-13.6164	-23.5537	13.6725	-8.1156	-31.3259
4160.0469	7.9681	9.2041	22.9462	-1.7853	16.4490	12.5497	-1.1749	-46.0052	11.8796	17.0619	6.0749	-9.6098	-21.5233	14.9978	-3.9617	-29.8355
4168.0470	17.5713	22.1515	37.5180	15.8798	37.1722	38.5994	9.9454	-31.6819	23.0326	30.4896	13.9929	-6.4282	-17.7481	31.4944	0.6662	-25.0941
4176.0471	29.5418	33.3212	50.4131	29.6190	45.7631	34.4201	12.3954	-25.9337	34.8374	40.2068	24.7271	0.6481	-16.3117	36.0390	-0.1210	-19.3700
4184.0472	-4.7784	-17.6904	4.6063	-28.7912	-24.4236	-38.1928	-23.5858	-44.0264	-10.6547	-6.3355	-12.0543	-8.4826	-14.6333	-14.2489	-0.2887	-18.5612
4192.0473	-20.3075	-30.3126	-5.9946	-24.5484	-15.2426	-27.5184	-15.4583	-29.8726	-25.8552	-18.1568	-26.5014	-18.3836	-13.9886	-15.6204	-0.8433	-17.8269
4200.0474	10.5127	11.7218	33.9355	26.4008	37.6253	25.2289	14.7607	-8.7522	7.7030	15.1285	8.3953	-8.5409	-14.7369	24.4939	-1.7787	-12.7924
4208.0475	12.1371	7.8300	32.9894	11.2295	21.3948	10.7253	8.6848	-13.1806	2.8589	10.3328	8.2979	-5.4814	-12.9909	18.3598	1.9048	-9.0494
4216.0476	-2.3253	-9.7751	19.6299	-4.7088	12.0211	2.9917	6.6922	-9.8052	-14.2364	-3.2137	-9.5543	-11.9406	-9.7696	8.2218	7.4472	-6.0307
4224.0477	-11.0031	-19.1440	9.0669	-13.7916	-0.0966	-0.3405	2.1956	-11.2900	-23.1650	-11.5563	-17.7045	-15.5292	-9.4702	1.9073	5.9095	-6.2029
4232.0477	-12.9872	-18.3723	3.9951	-12.4188	2.0058	0.9452	3.8294	-6.7109	-19.3712	-9.1673	-20.0641	-14.2547	-7.3357	0.0208	3.9239	-5.9358
4240.0478	3.1209	3.9443	20.0585	11.1050	31.9282	26.9763	20.5733	12.9168	1.4550	10.2810	-3.9255	-4.8403	-1.3567	17.8809	9.6355	-1.1128
4248.0479	-1.2303	-7.2540	12.2163	-10.0496	5.7284	11.5689	10.2942	9.6706	-9.1882	0.2691	-9.9103	-3.6530	0.2321	7.7303	12.7715	-0.9018
4256.0480	-14.5164	-26.1245	0.9497	-28.6022	-12.1073	-9.5519	7.0790	9.5316	-23.5155	-11.0326	-29.5032	-8.0560	0.6852	-7.0099	13.8901	1.9207
4264.0481	-19.2537	-32.9690	-3.6580	-31.2734	-14.1545	-20.6359	11.0298	18.0030	-29.7066	-16.4701	-37.4724	-8.0448	4.7946	-13.7242	17.9812	11.1170
4272.0482	-37.0086	-54.7297	-26.2631	-49.9592	-38.8407	-41.2554	-3.6106	16.4569	-51.0294	-38.0313	-54.1608	-14.5416	7.4884	-32.4055	15.0286	14.4062
4280.0483	-32.8438	-42.5318	-23.1312	-30.5862	-16.5668	-23.8776	3.9056	30.2726	-40.2085	-30.0074	-45.8665	-12.7073	9.0767	-23.7541	6.1588	14.6140
4288.0484	-21.7549	-29.7053	-16.3539	-21.8798	-11.2398	-24.4893	10.3200	39.9137	-29.5744	-23.7980	-31.3771	-3.7727	9.8065	-20.0736	2.2859	15.8707
4296.0485	-27.2204	-39.2792	-20.3297	-31.9365	-23.6100	-33.9098	8.7301	41.1264	-36.8901	-28.9246	-40.8160	-4.9669	10.5747	-26.4002	4.7971	18.2106
4304.0486	-13.5511	-19.1082	-3.7164	-12.6052	4.5953	-3.9491	20.4026	51.0452	-14.4349	-5.3665	-30.5066	0.8053	14.9957	-7.4129	8.9422	20.5128
4312.0487	-11.7009	-19.9083	-11.2185	-26.7175	-10.1108	-18.2167	11.3089	47.9732	-12.8217	-7.3978	-28.1752	7.1715	18.5192	-16.1890	11.5284	18.5865
4320.0487	-15.3870	-24.3219	-18.6524	-31.0198	-14.9615	-24.4288	11.3947	51.1967	-18.6408	-14.6064	-29.8889	7.5151	20.1262	-21.6798	14.0144	19.1978
4328.0488	10.5105	10.8040	3.5857	4.6505	15.7541	10.0226	26.2463	63.3119	11.1802	10.1669	2.6945	20.3232	23.3292	3.9792	15.2848	23.2211
4336.0489	9.2982	4.3693	-7.7681	-10.0597	-15.7791	-14.6578	7.5217	53.4284	6.7025	0.8860	4.4895	24.6545	23.7841	-10.1916	10.8370	22.5847
4344.0490	-18.2755	-30.2835	-33.5897	-39.8182	-47.7890	-44.3928	-10.8540	43.8600	-24.8196	-27.3330	-25.1693	10.5227	20.0962	-35.1641	3.0074	18.0357
4352.0491	-23.1356	-32.5636	-32.1955	-32.0767	-37.5395	-30.6476	-8.2038	47.6775	-29.6938	-29.9288	-27.6471	3.7481	16.0550	-29.6392	-2.8496	12.0796
4360.0492	-8.8864	-13.2056	-14.1211	-4.6830	-15.7745	-7.9820	1.2309	52.6232	-14.3770	-16.2647	-8.3264	7.3233	11.9389	-11.6176	-7.2660	8.4258
4368.0493	13.6766	17.3104	10.8787	26.4930	15.0050	23.5118	16.3561	56.1491	11.4930	7.5836	18.2488	14.9942	10.4600	13.6049	-8.2100	9.9320
4376.0494	25.0394	30.1970	19.7267	32.1743	20.8873	33.1083	17.5418	51.4516	23.4734	18.4626	29.8750	20.4876	12.8975	22.2369	-2.3290	13.0645
4384.0495	13.9396	11.5964	7.5668	14.4521	-1.8227	4.6061	2.7010	37.3857	9.9768	5.9123	14.7444	16.1032	12.4035	4.9939	2.1173	12.8932
4392.0496	-4.6867	-12.4817	-10.5222	-5.4509	-23.6579	-22.1928	-7.9843	24.4076	-10.4723	-12.8546	-5.9992	6.6961	8.5585	-14.3817	1.4033	9.0937
4400.0496	-5.4965	-6.5884	-9.4551	0.9500	-10.7119	-0.2658	0.4026	22.4989	-9.2624	-10.7442	-2.3079	2.1053	5.1046	-4.6779	-2.8717	5.2451
4408.0497	4.1971	10.4465	-0.3420	12.0398	1.4169	18.1041	4.6513	13.5188	3.6466	-0.2057	13.6135	3.0297	-0.5847	8.0340	-13.8280	0.4008
4416.0498	-6.0431	-4.5505	-12.9763	-6.4606	-20.6157	-8.6746	-6.2245	-2.3609	-9.2088	-13.4124	2.4756	-1.4555	-3.6659	-8.0862	-15.8469	-0.1483
4424.0499	4.0052	9.6567	4.7520	19.3209	12.7211	20.8622	8.3991	6.1179	1.0194	0.0179	11.5364	-1.5273	-0.6379	11.8600	-3.4019	5.3912
4432.0500	25.8817	36.3631	26.7857	46.9643	38.6486	45.4963	13.7568	6.5869	25.8315	21.8513	37.2122	7.1071	-1.0541	32.6891	0.2217	1.0451
4440.0501	4.2143	5.8006	-4.7354	11.0436	-7.0883	0.2293	-8.2000	-10.1537	1.4611	-4.8479	15.2912	2.2144	-2.6929	0.2922	0.0068	-5.3080
4448.0502	1.6041	8.7765	-8.1621	21.0812	5.0153	20.1206	1.8317	-1.5512	3.6301	-1.6810	13.2151	0.6488	1.7979	6.8754	5.8970	0.1008
4456.0503	8.7962	19.6552	-8.0431	24.3938	5.8169	23.2310	-0.5057	-4.7136	17.2328	7.9696	21.9018	6.8495	4.0011	8.9351	3.1921	0.2607
4464.0504	-19.4458	-18.9701	-41.1855	-20.2356	-40.6155	-28.5863	-23.3778	-22.3533	-16.5006	-25.0716	-9.2578	-3.6458	1.4637	-27.4931	-1.4734	-2.5913
4472.0505	-3.4121	6.1990	-12.5737	18.5596	5.4939	18.3455	-0.4599	-7.9694	1.8350	-3.0752	7.8812	-3.7708	0.6633	4.2643	-0.8903	2.3464
4480.0505	26.9743	44.4409	21.3472	55.0827	43.3139	51.6529	14.0783	-3.2189	39.6079	32.3321	38.9173	8.5938	0.2022	33.7406	-1.3043	2.3736
4488.0506	12.9207	20.3199	0.6656	19.1257	5.6526	8.2024	-4.6566	-20.9704	20.8076	13.0018	20.8636	6.2709	0.4131	6.8160	3.1202	1.1546
4496.0507	3.6439	8.6834	-10.0230	6.7374	-9.1144	-0.6301	-10.3483	-27.6408	9.9296	3.6619	10.0302	1.8985	1.7630	-1.5781	5.8085	5.4214
4504.0508	-8.6748	-3.3629	-21.6283	-1.9299	-17.8601	-8.4689	-15.8013	-34.9813	0.6704	-4.5602	-2.8604	-5.3730	-1.2066	-10.3635	-0.5087	2.3912
4512.0509	-18.0909	-13.6322	-28.4550	-7.2407	-20.6690	-11.9811	-20.7565	-38.5415	-10.8424	-15.1546	-9.5834	-12.5056	-6.2573	-15.3167	-5.6336	-7.2834
4520.0510	-7.9950	-1.3294	-15.4142	8.1896	-7.7552	4.5193	-17.5386	-32.1865	-0.1167	-4.9922	2.7910	-9.1148	-8.0944	-2.9492	-8.8838	-12.1976
4528.0511	-14.9530	-12.1797	-19.9292	-4.7906	-18.0339	-8.1563	-22.5633	-31.3439	-6.9805	-9.6832	-9.0524	-11.3417	-8.1956	-11.3549	-11.5903	-13.1003
4536.0512	-7.2064	-4.7626	-7.7544	0.8990	-6.8377	1.3877	-19.5320	-25.8256	-1.1021	-2.1448	-3.0348	-9.0424	-7.3334	-2.5816	-10.1876	-12.6150
4544.0513	25.7629	35.1681	28.3436	40.9561	33.4912	40.4276	-0.5000	-10.4395	33.6273	30.3811	32.4309	5.4827	-4.5143	30.3744	-5.0830	-8.2942
4552.0514	25.6258	33.0995	23.8974	32.7511	26.7288	32.8606	0.8893	-6.6469	31.4092	27.2761	31.3970	9.0665	-0.7246	25.5122	0.8292	-4.5646
4560.0514	10.0969	11.8763	2.8701	5.9538	-1.1984	5.4416	-13.8273	-15.3510	13.5574	9.3936	13.9151	4.7160	1.0388	4.6774	1.4227	-4.0788
4568.0515	14.7228	17.7919	10.8319	16.3473	7.5445	8.1380	-9.8978	-12.9416	20.2803	16.2821	17.1147	5.8338	0.3472	9.3513	-1.7042	-0.8068
4576.0516	13.8038	16.0341	11.1765	13.0368	3.9092	6.8544	-5.6148	-6.3496	17.5787	14.6047	14.8732	6.4698	0.9141	8.6576	-3.6303	2.9045
4584.0517	11.8120	13.4590	9.8255	9.3281	0.4042	11.2046	-6.5552	-2.8376	13.6429	12.2388	12.2723	5.3688	2.9678	9.4154	-3.0989	5.9439
4592.0518	30.1517	36.1686	36.0180	39.1947	35.5368	42.2432	11.2224	11.3248	30.2965	30.7396	30.7175	10.3105	5.3167	33.9661	3.8162	12.9095
4600.0519	30.1581	30.3864	34.2367	27.9653	21.7870	26.1105	9.3701	12.1534	23.5676	24.0202	29.0053	13.2359	7.1176	26.7800	9.5643	17.0629
4608.0520	4.6114	-3.6539	6.7822	-6.0621	-14.7058	-13.6127	-7.2290	2.1559	-5.1620	-2.9294	-0.3699	3.4031	5.3326	-2.6061	6.3102	14.8555
4616.0521	-4.0429	-10.0057	3.1056	-3.6435	-1.5596	-10.6541	-1.5298	8.4971	-11.3811	-7.1713	-9.5818	-3.0616	3.4822	-3.9145	3.2636	10.7652
4624.0522	-3.3460	-8.2743	-4.8247	-11.0427	-9.7299	-15.8200	-6.4255	7.4603	-6.5302	-6.4591	-6.4719	1.9168	4.2817	-9.3163	1.1859	3.3810
4632.0523	2.5008	1.6843	-2.3343	-1.4562	-8.0419	-1.9603	-5.9170	11.4484	6.0841	3.2626	2.5627	6.6101	2.5559	-2.6453	-5.3933	-5.0436
4640.0524	19.7905	25.5732	22.5817	30.9483	27.2789	34.0358	14.7287	32.9561	24.3291	22.0831	22.5878	12.1463	1.6975	22.9146	-7.3819	-5.6583
4648.0524	13.1365	11.5100	9.4446	5.1978	2.3404	1.9069	7.6281	32.0591	10.0789	6.4577	14.1802	14.5431	5.1024	4.2579	-3.6459	-0.3710
4656.0525	-9.5576	-18.2197	-19.8833	-32.6850	-35.9101	-36.5460	-8.2373	23.4637	-15.8309	-19.4276	-10.8348	8.1425	5.8993	-24.9736	-7.1104	-0.0099
4664.0526	-14.1853	-20.3990	-22.7054	-30.6064	-31.7442	-28.0396	-8.4747	29.6121	-16.7461	-19.3633	-15.4523	5.1636	5.8528	-23.6657	-12.8767	-2.9917
4672.0527	-13.9558	-19.2355	-23.0997	-24.9474	-25.8674	-23.4269	-7.8961	37.6757	-14.4306	-17.3387	-15.7354	6.4125	9.2833	-22.3045	-10.7377	-1.5368
4680.0528	-6.5751	-8.7747	-17.0904	-11.3687	-11.0521	-12.8950	1.9750	49.9881	-8.2406	-12.8105	-5.7195	10.8997	13.0214	-14.6395	-7.2960	4.4852
4688.0529	13.3371	14.4487	-1.9522	3.5618	5.1033	-1.0795	11.7140	57.1800	8.6262	-0.0624	18.4927	22.3260	17.0245	-1.3902	-2.8432	11.4184
4696.0530	10.3933	6.9020	-7.5623	-9.5292	-6.8695	-16.7645	7.7176	54.3225	1.6376	-7.3024	14.2213	23.3700	18.0892	-10.2244	2.6299	11.2471
4704.0531	-7.5666	-15.9869	-19.2331	-22.5323	-19.6078	-32.6210	5.9156	55.6524	-16.4749	-21.2133	-8.6329	14.3351	14.1326	-23.5794	1.3261	5.5947
4712.0532	-6.6583	-13.4251	-11.6741	-11.8350	-6.6369	-24.1704	13.1198	62.2614	-11.4814	-14.0003	-10.8945	12.9757	12.5633	-17.6647	-0.8049	4.6189
4720.0533	-3.5624	-7.8258	-8.7826	-6.8475	1.0373	-16.0044	17.3568	64.8277	-6.8642	-9.3719	-7.7704	14.1266	14.5419	-12.8607	0.3441	8.2371
4728.0533	-1.4754	-4.9600	-14.6076	-13.8783	-11.7982	-22.7829	14.2829	58.3737	-5.1800	-10.7254	-3.5045	17.8556	16.9760	-16.9112	-0.8472	15.3034
4736.0534	3.5541	0.9200	-13.4160	-16.7433	-16.2634	-25.5953	10.3074	53.3013	1.1889	-6.2141	1.5758	21.4740	18.5756	-16.9358	-4.4024	19.6304
4744.0535	0.3083	-2.5239	-11.5682	-15.1018	-8.3114	-25.3814	10.2741	57.9362	-1.5381	-7.0615	-3.5530	18.0663	17.6873	-16.9538	-7.9934	17.6712
4752.0536	16.1983	17.5350	5.5365	6.9284	13.9583	-9.9230	21.1851	66.6764	15.3073	7.4462	15.0947	25.1824	17.6309	-2.2703	-8.7594	18.7556
4760.0537	33.6035	38.0541	19.8900	20.7501	24.8791	6.8549	26.0995	67.4202	34.0314	23.3339	35.3896	34.3840	18.4272	11.8752	-5.6067	17.2892
4768.0538	8.4391	4.4286	-8.9217	-12.9580	-10.7223	-25.8758	8.4450	54.8478	7.2522	-1.2671	6.0177	25.0716	18.4896	-15.3672	0.1294	11.9898
4776.0539	-15.7172	-22.7815	-34.8695	-35.1608	-33.9991	-47.1044	0.1048	47.8166	-14.6687	-20.8829	-21.5829	14.6624	18.8679	-36.3568	0.4369	12.9638
4784.0540	-12.7779	-12.7507	-23.5402	-19.2642	-19.7517	-15.2651	8.3144	50.2835	-3.6028	-6.4049	-19.3122	10.8810	14.1134	-19.3810	-11.1000	9.6064
4792.0541	-13.3061	-13.1648	-16.1104	-14.0812	-16.7660	-9.6586	4.8503	42.6831	-0.7123	-0.8952	-21.8471	6.1119	7.2351	-14.7377	-19.2158	1.3896
4800.0542	-21.1898	-25.9013	-28.4731	-27.3421	-32.2217	-34.8561	-8.7542	30.0705	-12.4701	-14.4357	-28.7483	3.2276	7.0235	-29.8418	-16.3443	0.2144
4808.0542	-20.6035	-26.4152	-29.9696	-29.0838	-37.6294	-32.9464	-11.3020	29.1264	-15.3042	-17.6717	-25.9428	3.8032	7.7546	-29.4030	-13.0514	-0.0990
4816.0543	-7.1449	-10.2385	-11.3084	-13.4503	-16.9844	-16.6371	0.9811	31.2108	-1.8599	-3.5267	-12.4436	7.5720	5.2702	-14.1476	-10.8002	-1.1506
4824.0544	-5.3652	-10.1642	-10.1071	-22.5047	-20.0714	-31.9952	-1.5212	18.4708	-2.1974	-4.6798	-11.4322	7.7031	2.5990	-19.1355	-12.3463	-0.6880
4832.0545	-18.7306	-28.1503	-22.7123	-43.6950	-41.0672	-48.6279	-12.8686	8.3872	-19.8873	-20.1949	-25.7759	0.2029	-0.1337	-32.0760	-16.3903	-3.0261
4840.0546	-14.6144	-17.1046	-11.4321	-23.8156	-10.3582	-19.6823	0.3773	15.8312	-14.5962	-12.7260	-18.7073	-3.7407	-1.8233	-15.3604	-17.5560	-4.2752
4848.0547	4.0636	11.1043	9.0894	2.2329	21.5045	12.2403	13.0097	16.0140	9.3895	9.4843	4.1078	1.1986	-3.4140	7.8471	-21.4618	-4.4240
4856.0548	12.0360	16.9117	17.4772	2.3676	14.8734	14.5708	8.3842	8.7401	17.4673	17.7416	10.4529	5.0926	-4.8889	12.4801	-20.0707	-7.0590
4864.0549	-0.2312	-1.1321	5.1401	-10.4560	3.3079	-1.0497	1.6702	6.6880	0.9581	3.5223	-4.8262	-0.0387	-1.8821	0.1162	-8.9730	-5.2588
4872.0550	-10.2451	-9.2073	-9.0089	-14.2246	4.0712	-3.1818	0.9129	4.8794	-7.7949	-5.3815	-13.8457	-4.7666	2.6371	-6.5598	-2.3267	0.2786
4880.0551	-0.0968	3.4840	-0.0261	-1.0929	13.2909	8.5195	6.0057	2.4341	4.2812	5.3337	-2.3376	-0.3323	3.0530	3.0873	2.9929	1.4746
4888.0551	-2.5295	-6.7054	-1.7410	-13.1662	-5.5995	-13.7977	-0.6466	-5.2202	-4.0139	-2.3265	-7.4305	-0.0738	0.5090	-6.7991	7.0726	-0.0590
4896.0552	-11.6438	-15.8779	-3.9850	-21.7442	-3.7878	-11.9398	0.5905	-6.6774	-15.1227	-9.2560	-18.0195	-8.5434	-3.0699	-8.0621	1.5366	-2.5333
4904.0553	-4.6558	-2.7879	9.0354	-7.9461	21.1108	15.0318	9.7314	-5.2415	-5.3381	2.6245	-9.8882	-10.3916	-5.1151	8.4603	-0.8038	-5.4288
4912.0554	-10.4533	-16.1082	-3.2917	-25.3119	-11.7680	-12.6559	-6.7482	-17.1745	-11.5387	-5.3326	-18.5104	-8.2943	-4.5100	-8.2248	2.6687	-6.5882
4920.0555	-19.4597	-25.9558	-11.7534	-28.8475	-19.5538	-17.5126	-11.0631	-19.0434	-18.0352	-10.9877	-28.4885	-12.6455	-5.7727	-14.5226	0.9270	-9.4863
4928.0556	-17.9386	-19.9162	-5.0306	-18.0633	6.0373	-5.6242	-1.1028	-16.4471	-17.1291	-9.2337	-24.1934	-16.5901	-8.6015	-6.4890	-0.6032	-12.5774
4936.0557	-19.4132	-25.1247	-8.0703	-30.5765	-4.7331	-20.6515	-4.7005	-23.2919	-22.7532	-14.6896	-27.3327	-16.3169	-8.0832	-13.6137	2.3488	-9.0587
4944.0558	-16.8992	-20.9261	-4.1817	-27.1897	-7.1174	-5.4309	-5.0183	-27.1692	-17.2431	-6.9707	-26.8793	-16.6804	-6.6630	-5.9027	3.8431	-4.5649
4952.0559	-18.9179	-22.8599	-6.3118	-27.3825	-13.6988	-3.8872	-12.0717	-36.9228	-18.4687	-8.0167	-27.7070	-19.6295	-8.7770	-6.0202	1.6244	-6.4707
4960.0560	-5.3223	-5.6202	9.0444	-7.5665	3.9316	10.7142	-6.4633	-37.0474	-5.5992	2.8647	-9.6525	-15.9006	-11.4496	7.8094	-0.6779	-7.7145
4968.0561	24.4858	32.1376	37.1077	28.5891	32.9452	44.6790	5.0177	-34.5591	25.5029	29.5711	26.8744	-3.6833	-10.3949	36.3037	0.8228	-2.8341
4976.0561	14.9740	15.4488	17.7633	6.4648	-2.8378	12.4322	-15.3735	-52.8525	10.6611	12.0718	18.3092	-4.8169	-8.2108	15.7535	5.6917	1.6688
4984.0562	-0.5365	-2.8280	3.5689	-3.4720	-11.2487	-2.0751	-20.8203	-57.9442	-5.1188	-1.8870	1.1879	-13.1612	-9.3889	3.0172	8.0704	-0.6009
4992.0563	5.4151	7.9266	9.9511	9.5799	0.9625	11.9334	-15.3145	-56.1871	6.4166	8.0664	9.6033	-11.1173	-12.3691	11.6917	3.2366	-7.0463
5000.0564	4.8385	8.9993	7.8216	11.7782	-0.0499	16.6948	-15.7599	-55.4757	6.2417	7.2908	10.9923	-11.5405	-11.7288	12.9524	1.4200	-5.4809
5008.0565	16.2846	27.5666	23.4566	40.5873	33.9979	43.7685	1.0889	-42.4283	21.5663	23.0377	22.8587	-8.7031	-7.9511	31.3867	6.1400	2.9415
5016.0566	11.7970	20.1512	12.1704	26.6008	15.8376	20.7602	-5.7642	-49.5231	17.0645	15.5097	18.5767	-6.7867	-8.1929	17.5889	4.9932	2.0965
5024.0567	-12.5727	-11.0652	-12.7574	-3.9833	-11.5076	-10.4721	-16.6040	-57.4223	-13.3045	-12.6981	-6.7704	-17.8888	-11.1979	-6.9531	3.6903	-2.3959
5032.0568	3.0279	12.0337	8.1805	24.9543	23.6006	19.2553	-0.6894	-48.2155	9.1810	9.9313	8.6382	-13.2776	-10.9795	14.5377	4.5907	-1.9560
5040.0569	29.1340	45.2677	31.4255	48.2756	42.2434	50.2179	8.2148	-44.8305	40.2910	37.3071	38.5698	-0.3061	-10.5065	38.5587	1.7401	-2.5660
5048.0570	31.1134	47.7564	36.3314	53.7755	50.3493	63.2333	15.6852	-36.3900	34.9181	33.3956	44.2027	-1.5598	-10.4543	46.2339	5.0077	-1.1190
5056.0570	17.2221	27.2265	17.1833	31.3876	24.9434	29.8187	4.7119	-40.7915	19.2974	16.9023	27.2265	-3.5139	-8.5302	23.8768	7.5816	0.1035
5064.0571	-1.6028	2.6322	-8.4910	-1.9910	-10.8173	0.2938	-12.0135	-48.8544	-0.3650	-2.9504	6.3072	-8.1035	-7.5238	-0.2854	3.8096	-2.0215
5072.0572	7.6462	17.8130	9.2171	24.9078	23.8484	30.2548	6.0576	-30.5605	8.3774	7.4644	18.2831	-7.9385	-8.4013	19.5343	2.9320	-2.1438
5080.0573	31.9616	46.2332	37.7063	58.5029	53.2501	47.8203	19.5110	-19.5597	38.6267	35.0786	41.8695	3.9060	-9.5391	39.7518	1.4876	-2.8086
5088.0574	36.9697	47.3443	43.0911	54.7609	44.8181	46.9654	16.0302	-18.6461	39.5364	36.6840	45.5538	7.4940	-8.8108	41.5034	4.5612	-2.9341
5096.0575	21.5263	24.6699	24.2515	31.7769	21.4545	22.3011	6.2178	-20.6187	15.4601	13.3999	30.2371	2.3801	-6.9800	22.9020	10.7748	-2.2849
5104.0576	4.4292	3.8684	0.1867	11.6160	0.4845	-10.6878	-3.7807	-27.2590	0.0661	-3.8676	11.2654	-1.5724	-4.9102	-1.0962	11.8678	-0.5320
5112.0577	4.8281	7.0169	-1.2010	14.1603	6.7460	-4.7390	-0.7595	-23.7407	4.2072	0.1456	10.4859	-0.5481	-0.9239	0.7183	14.0479	4.3808
5120.0578	3.4985	4.7205	-5.1735	8.4439	-2.0770	-10.4372	-5.6312	-24.9257	5.0169	0.0023	8.2953	0.9686	-0.5755	-3.6237	11.7101	2.4200
5128.0579	6.7763	9.4354	4.6328	18.7648	10.1948	0.9355	2.1941	-18.5093	6.6967	3.3026	12.6561	-0.4237	-4.3824	4.9942	7.7241	-0.7929
5136.0579	22.5052	28.3691	25.4733	35.9065	34.0210	23.1338	16.3462	-8.4769	18.0107	15.4070	30.4395	4.2909	-4.2697	23.7465	9.1030	3.0391
5144.0580	3.4895	-0.5277	-5.8927	-7.5660	-21.3409	-25.6250	-10.7119	-26.7772	-1.8182	-6.6676	7.5362	2.8860	-2.0602	-10.2241	7.1389	3.6519
5152.0581	-30.2366	-41.2788	-43.7359	-40.9321	-64.8853	-58.2484	-31.9324	-34.5953	-35.1656	-37.7422	-29.2833	-10.4284	-1.3533	-41.7468	4.2437	2.1297
5160.0582	-26.1153	-29.6060	-32.0018	-15.9490	-31.3614	-26.5892	-18.1796	-18.4613	-28.9652	-29.8960	-21.5625	-13.5111	-2.3151	-24.1131	-0.3895	0.1913
5168.0583	-0.8252	2.7615	0.2259	15.7165	10.9574	7.0224	-1.2068	-7.0646	-3.4573	-5.3623	7.5271	-5.7186	-4.9477	4.3650	-4.0305	-3.4830
5176.0584	16.1773	20.0622	19.8055	28.4889	24.8328	18.6253	6.5194	-4.2469	11.4645	9.0876	24.5515	1.8761	-5.6694	18.2104	0.0174	-4.0649
5184.0585	18.2622	19.4503	17.2594	19.1068	10.8824	4.9766	1.8274	-11.0690	16.6593	12.6214	23.3720	6.9018	-4.9789	11.6162	2.1317	-4.7519
5192.0586	6.6748	3.4399	4.0950	3.1748	-6.6737	-12.3342	-6.3628	-16.0940	3.5456	0.0862	10.5576	2.8878	-6.2194	-1.8095	3.1985	-9.3825
5200.0587	-18.4614	-26.9302	-23.3220	-22.1049	-33.6836	-36.3990	-21.4659	-24.0808	-24.9632	-27.1975	-13.4298	-8.7913	-8.8452	-24.5729	1.1600	-17.2068
5208.0588	-30.7131	-38.9210	-38.9132	-37.4663	-48.6560	-50.0227	-33.1235	-36.1447	-30.6303	-33.6120	-26.6674	-13.9601	-11.5542	-37.5582	-7.6435	-24.0648
5216.0589	-9.8881	-11.2846	-10.6520	-8.4913	-13.7188	-14.0093	-18.8807	-29.3366	-6.9765	-9.2670	-4.1154	-8.7921	-14.0042	-10.2331	-9.6421	-26.9632
5224.0589	17.8529	22.5850	26.2115	29.9746	26.4704	31.1637	2.8524	-15.1122	18.2846	17.2564	26.6682	-0.5882	-15.0011	25.0967	-5.0219	-25.0948
5232.0590	29.9754	34.6941	41.1714	39.9453	35.1626	38.8061	9.4229	-13.5077	29.6825	29.2927	36.4950	4.7178	-14.0530	35.1581	-1.0045	-19.6866
5240.0591	14.7136	13.2515	24.6503	18.1633	13.9973	15.2357	-2.7285	-20.0799	10.7003	12.0173	18.3589	-1.4743	-12.9673	17.5942	1.5890	-19.0784
5248.0592	-1.4853	-2.0640	9.6498	10.4158	11.9900	17.7299	-1.9756	-14.3202	-4.0692	0.4317	0.6573	-9.9129	-10.0790	10.9248	4.0395	-16.9770
5256.0593	3.7614	8.0175	17.9224	22.5290	29.7071	34.6214	10.3587	-5.0470	6.1670	12.0522	3.4156	-8.1210	-7.2514	21.2266	4.6872	-10.3759
5264.0594	-12.8029	-17.7001	-3.4350	-8.2348	-10.0557	-6.8716	-11.3406	-18.0557	-15.4343	-10.4931	-14.5332	-12.7554	-9.4061	-5.4323	-1.7485	-12.6600
5272.0595	-39.6400	-51.6048	-36.7142	-39.2503	-47.6791	-44.8381	-31.7398	-25.3939	-46.7784	-42.6061	-40.1802	-22.4526	-9.6543	-36.0739	-6.3370	-15.2400
5280.0596	-38.6402	-44.2338	-39.4504	-30.7474	-32.0069	-34.3229	-24.4613	-17.0438	-40.6377	-38.8627	-36.2564	-20.9763	-6.5581	-32.5856	-8.0648	-13.7491
5288.0597	-24.1929	-24.1081	-22.7843	-12.9790	-11.8973	-9.1228	-12.9774	-8.2847	-21.1114	-19.8431	-21.2592	-14.6291	-6.7530	-15.0105	-10.8424	-15.3672
5296.0598	-10.3472	-10.4256	-1.4902	4.2055	0.7992	12.3318	-1.0583	0.6838	-8.5238	-4.2759	-10.3541	-9.5493	-6.9823	2.7139	-4.4134	-13.1942
5304.0598	-12.9717	-19.3484	-3.7982	-2.5842	-11.1713	-4.2580	-3.0576	-1.7771	-18.1455	-12.9758	-14.9103	-9.6619	-6.1317	-4.7592	4.6614	-8.6215
5312.0599	-12.1888	-18.2383	-1.4425	2.2453	-4.0825	-2.2023	3.1787	4.3082	-19.6294	-13.8789	-14.0917	-9.6544	-4.5977	-2.6852	7.8247	-3.8977
5320.0600	1.7503	3.9447	11.3754	19.2339	21.0710	27.3708	16.0332	14.4286	1.8895	6.8298	-0.2750	-2.7100	0.4606	15.2117	9.2625	0.9142
5328.0601	0.1247	1.6366	3.1754	5.3955	9.4291	19.9139	8.8718	8.7723	3.1333	6.8876	-3.9435	-0.1633	4.5842	8.5388	11.5823	2.9287
5336.0602	3.4364	2.3453	12.6306	10.0932	16.4363	20.7914	13.0379	13.5370	2.1616	8.4273	-3.2271	-0.2878	4.4773	12.6900	15.3671	5.7562
5344.0603	10.6787	9.1252	18.5086	13.4030	17.5278	19.0630	12.2031	13.5616	8.9155	13.6210	4.1052	4.2583	5.2675	15.0038	15.0773	7.4503
5352.0604	10.1379	9.1251	8.2889	4.7196	3.1384	13.2064	4.8349	10.7087	11.4028	12.5968	5.1115	8.5780	9.0357	8.6188	14.6712	8.6491
5360.0605	10.2349	11.9508	8.7498	10.7961	13.1541	21.1492	8.9905	16.7902	12.6742	13.6269	6.7430	8.0735	9.9580	12.0185	13.9705	8.4663
5368.0606	-6.4887	-7.7815	-12.4688	-14.4977	-8.1161	-6.7683	-5.2588	5.9415	-5.6326	-5.7962	-8.9737	1.1208	7.9165	-8.8713	5.3233	4.8856
5376.0607	-14.0568	-14.3196	-18.2328	-23.2647	-12.0901	-7.5950	-4.5523	6.7540	-11.6228	-9.9626	-17.9789	-3.1819	6.7801	-12.4796	-1.6514	5.1856
5384.0607	-8.8409	-6.0540	-4.5316	-6.8292	6.7185	9.0463	7.7288	16.8297	-2.0819	2.2721	-15.9256	-3.1046	4.8897	-0.5170	-4.5118	5.2667
5392.0608	-5.3780	-1.7009	1.5461	5.2618	14.2543	16.5524	11.4233	21.0769	4.0949	9.0242	-13.9321	-1.9199	5.4779	5.0563	-2.1740	6.7215
5400.0609	15.4302	24.5848	26.5229	36.4564	43.6514	54.7190	26.7985	33.5443	26.4585	31.9811	8.0673	5.8396	8.3769	32.0480	5.8116	10.5771
5408.0610	4.7931	2.6116	6.6319	1.8068	0.9524	9.9943	4.6942	21.0473	9.2553	12.1573	-4.1517	7.4031	8.7684	4.9981	7.9778	6.2008
5416.0611	-23.6715	-36.9248	-26.9218	-40.2518	-41.2609	-39.0067	-13.3881	14.5385	-25.6228	-21.5585	-36.5595	-1.2407	10.0012	-30.8416	9.9917	5.4818
5424.0612	-13.5092	-17.1655	-4.2146	-5.2996	5.0067	7.1499	10.9914	32.1087	-12.6462	-4.3150	-25.3077	-3.8998	9.5726	-2.3894	10.5941	9.1793
5432.0613	-13.0193	-18.5944	-2.5591	-6.9750	-0.0971	-1.1118	4.6054	26.3177	-14.9605	-7.3415	-23.3153	-4.9822	5.9366	-4.8106	4.2894	6.3137
5440.0614	-18.2488	-26.6130	-6.0712	-12.9859	-8.7201	-11.8045	0.4730	25.0347	-21.8329	-13.2707	-30.1273	-7.5453	4.7140	-11.0954	1.1756	7.0490
5448.0615	-12.8839	-17.3123	-0.4257	-4.7613	-3.0198	-0.5499	4.9925	24.4714	-13.1689	-5.0029	-24.0505	-6.0421	4.3536	-3.5861	-3.2561	10.6983
5456.0616	-22.5057	-32.0521	-18.4703	-30.2520	-36.7399	-31.4545	-9.0354	11.9657	-27.8075	-22.2327	-32.1938	-6.9965	4.2274	-23.3025	-8.0169	14.4708
5464.0616	-24.7693	-31.3780	-17.8314	-25.6821	-26.7548	-23.0238	-3.6432	15.1664	-31.4055	-24.7057	-32.3694	-10.9971	3.4153	-19.4770	-11.1243	16.5847
5472.0617	-30.6133	-35.4576	-26.2686	-33.0889	-29.5802	-29.4653	-10.3792	8.2549	-34.3411	-29.2801	-35.9883	-14.2546	0.8758	-25.8259	-19.5784	10.3886
5480.0618	-35.2777	-41.4103	-33.4296	-43.2480	-35.4860	-41.4609	-14.2992	6.3691	-38.3667	-34.2994	-41.0978	-14.6983	0.5922	-34.0916	-21.4521	6.9661
5488.0619	-12.1215	-10.2896	-5.1936	-7.3306	2.2294	-2.1451	4.4894	16.5462	-11.1027	-7.6089	-15.3357	-6.9072	-0.0083	-4.9249	-18.3720	6.2883
5496.0620	2.6077	2.1926	1.6833	-4.7102	-9.6552	-10.7736	-3.4242	5.4015	1.5285	-0.6167	3.4419	3.3406	-1.6413	-3.6825	-17.6113	3.1236
5504.0621	1.9919	-3.5093	2.2585	-11.2364	-12.9116	-22.8233	-3.7049	5.7629	-6.4698	-7.6781	1.6954	3.4862	-0.9303	-8.2525	-9.7056	4.5395
5512.0622	-3.9582	-10.2038	2.3162	-15.6559	-1.5517	-17.1404	1.2161	10.9393	-16.2946	-13.3389	-6.0712	-2.3743	-0.3040	-6.9009	-4.0493	3.1669
5520.0623	-7.9833	-17.3010	-10.2289	-34.1703	-23.9789	-36.3913	-11.6444	0.5441	-19.8538	-19.7827	-9.8502	-0.1850	0.7257	-19.9532	-4.9634	0.7662
5528.0624	11.9064	8.6271	11.0489	-2.9416	2.4533	-11.5912	3.8470	7.9867	5.2435	3.4729	10.8258	8.7814	2.3638	0.6297	-0.0994	6.0293
5536.0625	34.3005	35.3925	38.6036	26.0133	31.5165	15.4684	21.9176	16.2704	27.6837	25.7418	34.1804	17.2134	1.8774	24.6984	5.1529	9.2332
5544.0626	41.6724	39.6780	41.2543	16.2377	19.5072	6.8906	18.1413	11.0007	32.9644	29.3663	40.3375	24.1095	3.3093	22.8286	8.3532	10.2678
5552.0626	33.1686	29.9283	32.9967	8.1028	16.4446	7.8104	16.5693	13.6093	24.3494	23.4956	28.8556	20.2775	7.6288	18.7363	15.6830	13.4039
5560.0627	18.3405	12.8319	22.4810	-2.6411	13.9314	5.1971	13.6917	15.3310	4.4735	7.6999	13.4413	10.2325	7.9167	12.0399	18.0309	13.1312
5568.0628	24.9711	21.6389	26.5008	1.1229	18.0896	4.7338	14.3438	11.9854	12.5112	13.1061	22.1007	13.7742	7.0846	14.4601	14.0127	13.3586
5576.0629	35.1480	35.4303	29.0903	8.5809	21.9647	7.6248	18.0470	15.2983	29.1114	25.4520	32.4452	23.2247	11.8564	17.7086	15.4331	18.6539
5584.0630	36.1736	35.6801	29.8866	7.6438	23.7232	6.9615	18.7712	21.4292	31.0255	27.6419	31.1389	25.4966	14.8014	17.3002	17.8354	20.2333
5592.0631	34.2396	33.0770	32.6785	8.3345	30.1068	4.7932	17.3022	19.8233	30.4502	28.3753	27.5725	22.5062	11.4327	16.8973	14.7903	13.5166
5600.0632	16.6955	12.2293	12.2349	-14.8194	5.9652	-13.5147	6.2299	11.2343	12.6792	11.3757	9.6039	15.3005	9.2871	-0.2795	11.0336	8.0161
5608.0633	10.6158	6.6759	2.6837	-25.1429	-6.0231	-12.3268	1.5067	7.4359	6.5661	5.3213	5.2109	12.8836	9.6354	-4.0754	8.8895	7.0954
5616.0634	25.1109	26.0326	19.9556	-4.6375	16.4756	11.9835	9.0056	8.7869	22.1303	20.0465	23.4063	16.5157	7.4597	14.0680	8.8382	2.9783
5624.0635	22.5072	19.9724	18.8026	-13.0030	2.4708	5.3689	1.7781	0.1691	16.2686	14.8622	21.6555	14.1875	2.1754	10.6265	4.9513	-4.4360
5632.0635	11.0053	6.1756	8.6202	-23.8700	-15.9505	-6.1690	-10.0471	-10.5964	6.6458	6.4489	9.0625	7.3876	-2.3517	0.7519	-3.8239	-9.2787
5640.0636	20.8304	24.3027	22.3257	8.7030	15.2214	21.0411	-0.3153	-4.0081	22.2553	20.4947	23.7732	7.8237	-4.5783	18.5105	-8.5461	-11.8289
5648.0637	36.8564	45.5573	36.4848	34.7684	32.1708	41.6246	6.5388	1.1114	40.2297	34.4415	46.2467	15.0795	-5.9048	34.4328	-9.9055	-14.7792
5656.0638	29.4524	33.3476	26.1985	23.8245	12.7787	23.2875	-2.9996	-6.0674	33.1879	27.2137	36.1435	14.0449	-5.3676	22.2328	-6.1086	-15.0922
5664.0639	15.0651	14.4750	12.4629	11.6868	-0.8740	7.8841	-7.0072	-6.5687	17.2170	13.6851	18.1585	8.1735	-3.7127	9.1712	0.0122	-12.5851
5672.0640	13.3823	14.6702	6.1734	11.7020	-6.4161	7.7313	-8.7355	-5.6361	18.3842	12.4001	19.2293	9.4003	-3.8135	6.6185	-4.0938	-14.8215
5680.0641	4.4257	6.7113	-4.6776	1.4014	-10.2142	-5.6750	-15.9004	-12.7562	14.3275	7.0972	10.0745	5.2738	-6.3036	-3.9843	-13.0529	-20.8322
5688.0642	-13.6885	-13.8438	-21.4372	-23.5041	-23.8729	-25.8575	-25.6998	-23.7588	-4.6537	-9.4850	-10.1943	-5.2065	-9.2475	-20.4873	-20.4858	-24.0231
5696.0643	-14.1158	-9.1565	-21.6562	-17.9230	-18.6241	-7.9507	-19.9429	-24.7304	-2.0375	-5.9239	-8.7952	-7.6037	-9.2517	-13.0155	-22.0256	-21.2931
5704.0644	10.3821	26.5231	9.5860	29.1884	30.0677	42.4815	9.3123	-9.9652	27.1049	23.6513	18.4655	-0.6198	-7.6766	22.5619	-14.3836	-13.3555
5712.0644	21.0076	36.6570	18.3642	37.1790	32.0425	40.8201	11.4477	-10.3314	36.2024	30.3358	30.2316	5.7853	-7.5236	26.7451	-12.6220	-10.6598
5720.0645	-0.4277	6.3752	-9.7088	5.4162	-9.9661	-3.2743	-9.2884	-21.8673	13.4741	6.3403	6.3467	0.6178	-8.7847	-4.1965	-16.0236	-14.7332
5728.0646	-16.9015	-13.8579	-23.5102	-4.9790	-21.7791	-18.7106	-10.5849	-19.9562	-4.6698	-9.2602	-12.5743	-7.0457	-10.0069	-17.4491	-14.8640	-15.0389
5736.0647	-26.2214	-25.2220	-36.0064	-17.2988	-37.9436	-27.1278	-15.7805	-20.1405	-16.6915	-20.8330	-21.6427	-9.9697	-7.6845	-26.4748	-14.6018	-10.6450
5744.0648	-29.6409	-27.2361	-38.3921	-15.5266	-35.2322	-22.0654	-14.6373	-15.0459	-19.8255	-22.8485	-25.2734	-12.3572	-5.4127	-25.7251	-15.8349	-5.8432
5752.0649	-12.3140	-4.2102	-14.7152	14.4794	-5.1162	3.6664	-1.1360	-3.0888	-1.7000	-5.4333	-4.7905	-7.5000	-7.6191	-4.3271	-21.5631	-5.3022
5760.0650	1.7147	11.5856	-4.2124	25.4663	-0.2144	10.8438	-1.0381	-0.6214	11.4494	3.9711	13.3442	0.4955	-7.2976	4.2358	-24.7672	-5.3892
5768.0651	11.0949	21.6153	1.8352	29.4236	8.0416	14.7537	4.4218	3.3025	20.2986	11.5215	21.9188	7.2228	-2.0209	9.1607	-15.4972	0.7830
5776.0652	14.5274	25.3381	-2.3758	23.4587	3.0526	8.2289	3.7556	-0.6512	25.1932	13.7530	25.0732	12.5541	2.4500	5.5496	-9.2756	5.7449
5784.0653	-0.9273	6.5258	-24.5866	0.3979	-24.4295	-13.3409	-8.9310	-12.9228	9.3448	-2.7355	9.5514	7.5560	3.0362	-12.9427	-8.8438	5.6696
5792.0653	-9.0553	-4.1186	-29.6483	-8.3348	-28.7629	-17.8337	-11.1725	-16.1105	-1.7717	-11.2542	0.3432	1.8861	1.2765	-17.6212	-6.5549	2.4541
5800.0654	-0.7023	6.1519	-20.4155	0.0418	-14.5778	-7.7480	-8.6898	-14.8393	6.0999	-4.1979	10.6698	4.4826	0.9217	-9.1735	-5.5364	-0.9724
5808.0655	9.5532	18.6184	-8.2458	14.1213	3.8524	0.2841	-2.1111	-13.3788	16.5305	5.2651	21.9230	7.8393	0.6401	0.1106	-2.8078	-0.6623
5816.0656	4.9087	9.6668	-13.3820	2.8621	-7.2040	-15.7427	-7.8156	-18.8594	11.1115	0.2762	14.3269	7.0968	-0.0236	-9.0631	-0.0702	-3.2026
5824.0657	8.4707	14.0253	-5.3891	10.4828	0.0310	0.7884	-3.8834	-10.3956	16.6607	8.3152	15.5386	8.0183	0.9536	0.1582	1.3858	-4.4502
5832.0658	42.5625	57.0004	40.0752	59.1846	51.0991	57.3629	22.9131	12.1212	54.3018	47.6717	49.5537	19.8871	1.9233	43.2931	3.4607	-0.4648
5840.0659	38.0276	47.0079	26.1612	33.1282	25.2038	27.8832	6.3924	0.9145	49.6744	40.2651	42.4173	23.2919	5.1608	25.2221	4.1629	-0.5367
5848.0660	6.6835	8.4648	-15.0675	-13.3280	-15.0893	-19.7101	-15.1630	-14.1800	16.0689	6.5986	8.1780	12.7281	8.9886	-12.8166	5.5673	2.1326
5856.0661	20.0302	30.3228	0.8361	13.8469	13.2567	10.9407	3.2100	-4.4518	31.0618	20.7781	26.1920	16.0042	9.0923	7.8440	4.4490	7.9014
5864.0662	30.9390	44.7481	9.2549	25.5775	18.2747	26.4540	7.8375	-0.5375	43.3148	30.7508	40.6656	21.9967	9.1842	18.5829	2.1938	7.9120
5872.0663	18.8684	29.0673	6.0159	15.8704	14.3853	19.9282	7.4137	0.2506	29.3044	22.0068	23.7959	13.3495	5.7041	12.8432	-0.1599	4.9585
5880.0663	6.5011	13.7821	2.9139	7.1917	8.3791	12.3356	3.0711	-7.1525	16.1906	13.6717	7.8800	2.7932	-1.0132	7.0213	-7.2017	-0.6802
5888.0664	-6.6214	-1.4617	-10.6258	-4.2639	-5.6059	6.1659	-6.1914	-12.0722	2.3909	1.3492	-4.9370	-4.1667	-2.0378	-2.1410	-8.0312	-4.8792
5896.0665	-1.5062	7.6245	1.5359	17.0252	21.0221	29.9477	8.2446	1.2080	9.1486	10.2065	0.5675	-4.7211	-2.4934	12.4363	-3.7827	-7.0878
5904.0666	0.3888	8.1807	5.8984	22.7071	26.1990	26.4290	9.9324	1.8185	11.0821	12.2631	1.1862	-4.1413	-3.6695	12.8768	-1.0574	-8.7671
5912.0667	-16.8751	-17.2571	-10.8569	-0.6703	4.5343	2.8188	-0.2037	-1.3906	-14.0728	-9.5937	-19.3794	-11.6968	-1.5872	-4.9708	6.7238	-6.2838
5920.0668	-26.6675	-29.3871	-15.5490	-5.7311	3.0214	6.4461	1.2235	2.8183	-27.8627	-19.0250	-30.8467	-18.5542	-1.3017	-6.5923	12.3665	-6.5943
5928.0669	-20.9240	-22.1743	-7.8961	8.0352	10.7743	19.7191	4.5785	7.8290	-21.9112	-12.8233	-24.1365	-16.8988	-0.4590	2.3335	14.3449	-4.5667
5936.0670	-5.3387	-2.9112	10.4641	30.8024	30.2024	42.6193	17.0401	21.4727	-8.2774	0.5357	-6.5982	-10.5021	2.3246	20.4268	15.7462	3.9641
5944.0671	-9.5116	-9.8651	1.5829	18.3461	13.8245	24.8840	10.6569	18.1952	-12.5095	-5.4050	-11.6975	-9.0434	3.0739	9.3903	13.5946	5.0098
5952.0672	-41.3945	-54.0045	-33.5525	-26.8401	-29.5000	-30.6527	-15.8080	2.8002	-49.8082	-40.9357	-48.5772	-21.4715	2.2844	-30.0865	12.9166	0.8407
5960.0672	-69.6636	-87.7985	-53.5882	-52.5225	-44.4759	-45.8573	-26.9710	-0.9459	-85.3309	-69.5720	-79.0900	-40.0803	-1.1062	-47.1513	8.2965	-3.2042
5968.0673	-76.2294	-90.3352	-57.1414	-50.6484	-42.2396	-33.7232	-24.7535	-2.3835	-89.1450	-71.8574	-83.2587	-46.5941	-5.3338	-44.1578	-0.3354	-7.5483
5976.0674	-54.5548	-60.7243	-30.6212	-15.2175	-5.9759	-3.7729	-5.4137	6.6461	-64.5701	-49.2914	-57.2060	-39.5340	-8.6207	-19.0970	-3.0011	-8.4973
5984.0675	-27.9341	-28.5255	0.8219	15.1723	27.7954	27.1786	11.8659	17.2742	-37.7142	-23.3634	-28.7927	-29.1080	-8.5731	8.2345	-1.5155	-5.8492
5992.0676	-16.4177	-18.6384	8.0045	14.3931	22.2056	19.6805	9.9677	15.3718	-23.2805	-11.1365	-21.3682	-19.2876	-4.6521	8.7798	1.0803	0.5963
6000.0677	-18.9102	-27.1112	5.1625	7.0036	6.6594	-4.8886	1.5466	8.6091	-29.3907	-17.7553	-26.4591	-19.1081	-5.1328	-2.1844	1.2313	5.0288
6008.0678	-37.0040	-50.1233	-16.2055	-15.6360	-19.9869	-23.2028	-10.8013	0.9156	-54.2169	-41.3782	-42.8957	-27.5201	-5.0559	-19.1878	2.0984	5.7485
6016.0679	-33.1728	-39.0341	-16.8702	-13.7918	-6.6995	-5.7116	0.0927	7.1639	-45.5004	-34.2682	-36.4147	-24.4147	-2.4329	-12.0017	1.0103	6.0084
6024.0680	-4.4998	-2.1006	14.4101	17.2438	28.5954	20.9530	20.5628	16.1863	-9.7143	-1.7347	-6.6168	-10.9790	-4.6624	13.6343	-4.2045	5.1391
6032.0681	1.4173	-0.7435	16.5695	15.3242	18.8576	9.2688	16.9886	14.6434	-5.5370	1.0733	-3.5472	-4.3303	-0.7996	10.2864	5.3393	10.2186
6040.0681	-7.4696	-11.5665	1.6940	3.2365	11.0387	-1.9446	11.9009	12.5809	-16.6977	-10.6144	-12.3482	-6.3816	4.8400	-0.5302	15.4976	14.6274
6048.0682	-14.0673	-19.1905	-7.6648	-5.4905	-2.0762	-11.7087	5.5109	5.8907	-23.1562	-17.9182	-17.8001	-8.9127	3.1668	-8.4901	11.8902	12.7023
6056.0683	-11.2858	-18.4607	-8.1700	-11.1758	-12.2690	-15.6146	5.1383	7.5365	-19.3495	-14.2289	-18.5685	-3.8330	7.2764	-10.4016	16.9931	18.2969
6064.0684	-2.4371	-8.4466	-2.9495	-11.0946	-7.5290	-12.1110	8.4311	9.3088	-10.3452	-6.7025	-10.1062	2.4763	11.1310	-6.1316	20.9092	22.7592
6072.0685	-9.8519	-18.6311	-12.9497	-22.3385	-23.9908	-25.9316	-0.5869	3.8324	-17.7948	-15.0264	-17.1219	0.4705	8.9945	-16.4319	17.0496	17.6073
6080.0686	0.4554	-1.7880	2.9520	3.4677	10.8488	2.9834	16.3526	21.9278	-3.1078	0.3075	-6.0229	3.4350	10.1529	1.9453	18.6159	15.8671
6088.0687	15.9743	15.8523	17.1251	12.3446	24.9854	10.2180	19.9960	26.1279	9.1061	9.7487	12.8858	10.8277	11.1722	12.1120	15.6874	17.9915
6096.0688	-14.6238	-28.2643	-23.4781	-45.2419	-41.9484	-50.8806	-11.2719	5.0349	-28.9686	-28.3188	-21.2482	2.2417	11.2831	-31.3098	11.6510	18.7891
6104.0689	-24.0492	-31.8187	-27.2893	-39.6780	-26.9811	-34.1784	0.3734	12.3195	-31.1420	-27.1760	-32.1511	-5.1132	9.5930	-27.3237	8.0373	16.1177
6112.0690	-0.2885	1.3778	2.1908	-3.7534	8.1285	5.6165	15.1981	20.4483	-1.4377	0.7966	-3.5993	2.1121	4.5260	2.4040	-1.7997	9.4691
6120.0690	-7.9354	-13.4720	-6.8712	-20.0962	-17.4716	-16.6625	-0.5918	11.9515	-12.8922	-10.7354	-12.3022	0.0922	1.9960	-11.1855	-4.0248	3.8101
6128.0691	-16.4157	-24.1675	-12.1196	-22.9370	-18.1573	-22.8595	-1.2938	9.8010	-23.9286	-19.7303	-21.4803	-5.8888	0.5227	-16.3329	0.0295	2.2367
6136.0692	-11.9633	-21.4429	-9.3302	-24.1491	-26.2596	-26.8650	-5.0274	2.0117	-22.1605	-18.9773	-15.9181	-3.7455	-0.7468	-15.9861	0.6627	3.2913
6144.0693	-11.6977	-21.5674	-10.0183	-30.2520	-30.6490	-30.6690	-8.2142	-4.3889	-20.1799	-17.2442	-16.6494	-3.3146	-2.1542	-17.9314	-1.1136	0.1557
6152.0694	-12.3079	-19.9905	-12.5319	-33.0713	-25.7003	-32.4554	-8.4046	-8.5045	-18.4637	-17.1976	-15.2163	-3.8119	-4.4785	-19.5768	-4.7091	-6.5427
6160.0695	-20.6815	-28.6154	-22.6021	-41.1425	-31.0758	-37.9797	-12.1401	-10.0771	-27.6106	-26.5829	-21.6955	-7.7883	-5.4336	-26.4431	-6.5419	-10.6034
6168.0696	-10.3821	-10.7925	-1.4204	-12.5760	6.6241	-1.2863	5.7812	1.8492	-12.9909	-9.1958	-10.3513	-8.8496	-9.2416	-2.7759	-9.5193	-16.0249
6176.0697	8.5050	8.3869	17.0627	-1.5948	12.9107	8.2495	9.1126	1.2468	6.8145	8.7362	8.2016	1.3896	-9.8776	9.8098	-7.9176	-17.6497
6184.0698	4.2600	-4.3705	5.6436	-21.7350	-14.6443	-20.8891	-2.5224	-5.4011	-0.6224	0.4693	-1.2724	5.4427	-3.8645	-6.9554	4.6291	-10.6831
6192.0699	-5.5134	-15.0464	-0.5393	-25.0111	-11.1361	-28.8890	-1.9495	-5.7527	-9.5907	-6.2228	-14.0438	-0.7935	-3.7611	-13.5226	6.6160	-9.2336
6200.0700	-22.1801	-31.5492	-23.4921	-46.4863	-33.6453	-44.6913	-13.9612	-15.8561	-24.0080	-21.9965	-28.3923	-7.4530	-5.5407	-30.2021	-3.1933	-13.2015
6208.0700	-29.7038	-35.9431	-37.0048	-49.8384	-41.9806	-41.3046	-16.3881	-17.3702	-27.4863	-27.2842	-32.3931	-9.5287	-5.0018	-34.5410	-5.3953	-15.6988
6216.0701	-22.9412	-27.8207	-28.0636	-39.5742	-30.9601	-30.9195	-12.8113	-15.6816	-20.6215	-20.6714	-24.0896	-7.7310	-6.8327	-26.2709	-4.4304	-20.3003
6224.0702	-20.0454	-26.7324	-23.1116	-42.6766	-30.1726	-27.7042	-15.2450	-15.0532	-21.5232	-19.9926	-22.1632	-7.4035	-5.6604	-23.1267	-2.6849	-19.3752
6232.0703	2.8739	0.1255	9.0877	-9.9404	3.7248	4.1840	-0.2452	-3.7638	0.8378	3.9229	0.4183	-0.7504	-5.6699	4.3074	-0.1085	-15.2727
6240.0704	18.0924	14.1843	22.2751	-3.4815	4.9179	1.6020	-1.9079	-8.1505	16.5632	16.6512	15.5826	8.3312	-6.8363	9.8116	-0.1252	-17.5010
6248.0705	18.5541	18.3774	14.6649	-4.3495	5.7795	7.6562	-0.5044	-5.9630	22.0691	19.7504	17.0701	11.9586	-0.8109	9.4242	5.1297	-13.7376
6256.0706	29.5551	33.0729	26.6501	14.0990	23.0223	23.1617	9.4465	1.5915	35.1105	32.1318	28.3084	16.8704	2.0214	21.6390	8.7346	-7.1434
6264.0707	0.7806	-12.7728	-13.0838	-47.1518	-47.4226	-54.2820	-25.2189	-23.9273	-2.7351	-7.3263	-4.7929	10.6815	0.3081	-27.8062	6.4501	-10.2910
6272.0708	-18.7038	-32.5134	-32.0197	-59.3541	-51.5541	-58.8902	-28.3386	-20.8737	-23.2485	-25.3294	-23.8954	0.2104	1.6669	-38.9854	7.4422	-11.6932
6280.0709	27.6128	32.7669	33.0556	25.5109	40.6948	35.7573	11.1551	9.3848	30.5779	30.3709	27.7268	10.6338	0.4377	28.8627	3.8204	-8.2915
6288.0709	42.1101	43.5378	43.4315	20.8381	26.9852	24.5319	3.2012	-0.6079	42.2587	39.2233	41.3227	20.1857	0.4090	29.8497	1.8421	-4.8511
6296.0710	17.6491	11.3004	12.4941	-17.3889	-10.9842	-10.1035	-9.7727	-11.0552	11.2271	10.0177	14.0626	11.8554	4.1060	1.8656	8.9560	1.8587
6304.0711	27.8200	28.1633	33.8236	14.8416	20.9242	27.1354	6.5432	0.8381	23.0684	25.4793	24.8320	10.0328	3.2418	26.3123	7.5176	7.8829
6312.0712	41.6314	42.6249	49.9377	33.9863	26.7688	33.4636	8.0548	2.3133	38.6871	39.2624	39.1657	16.3154	0.7853	36.5231	2.7380	8.3452
6320.0713	13.7343	4.0118	14.8918	-4.7229	-19.3581	-16.8954	-16.0660	-11.1856	5.8453	5.5196	10.3302	7.5393	-0.9968	-0.0840	1.7740	1.5241
6328.0714	-15.3881	-29.0959	-13.0543	-29.2707	-41.8275	-39.0176	-30.2079	-19.1085	-23.9300	-21.4596	-19.2333	-7.8282	-5.0804	-22.8791	-4.1274	-7.4509
6336.0715	1.2273	0.3058	12.7967	15.4275	9.1921	10.4172	-5.7350	-3.5544	0.4991	3.6577	1.3526	-6.3849	-7.4276	8.9659	-8.0944	-8.4627
6344.0716	23.9228	30.5430	34.4030	46.1747	37.2092	36.6400	7.1042	4.9731	26.7787	26.0141	28.6605	3.9897	-6.1748	30.6563	-9.4400	-5.0792
6352.0717	15.2526	14.5981	18.2496	23.9146	2.9644	6.9222	-8.8233	-4.2838	14.2875	11.7911	18.7498	4.6006	-4.2649	11.6646	-7.9210	-2.2527
6360.0718	0.9778	-2.4497	7.5011	14.4728	-3.6561	1.6836	-9.8566	-5.0995	-3.4865	-1.9940	2.3563	-4.2046	-3.6913	4.0794	-2.2589	0.2545
6368.0718	-8.6193	-11.1466	0.2438	6.0220	-4.8677	-1.5088	-13.9498	-11.3730	-12.7505	-9.6378	-6.8661	-11.8245	-6.5743	-0.8639	-9.0522	-2.6709
6376.0719	-16.0759	-19.8447	-6.8007	-5.3090	-18.3214	-17.3531	-21.7648	-20.3705	-17.9685	-14.9923	-15.6034	-15.6599	-10.9557	-10.7575	-20.9058	-5.4112
6384.0720	-16.4918	-15.8460	-4.0265	4.9462	-5.8890	-4.1933	-10.6645	-13.6691	-14.7632	-10.2725	-16.8376	-17.4224	-10.2004	-4.2453	-21.7857	0.0308
6392.0721	-9.6285	-2.4426	-2.8056	12.9946	5.2272	10.5922	-3.7687	-8.7578	-3.5806	-2.2687	-5.9649	-12.6336	-7.5278	3.1723	-23.6795	1.6935
6400.0722	4.5665	12.6278	6.0554	18.2971	9.0163	10.3419	-4.8515	-11.3586	9.0650	5.5273	12.9179	-3.9424	-8.6714	8.2504	-25.5640	-2.7042
6408.0723	13.2731	18.1124	15.6643	23.2730	8.9856	10.0452	-4.2920	-9.9683	13.3421	9.9198	20.4892	0.8413	-7.0163	12.7239	-18.4005	1.0465
6416.0724	7.8623	8.8478	12.0150	19.2746	-0.1159	4.5327	-4.8062	-6.4777	7.4536	6.6676	10.1040	-0.2728	-3.9746	8.1123	-10.8410	6.1788
6424.0725	3.0460	4.3671	7.5755	17.9663	4.1959	2.9803	-1.7263	-6.8046	3.8460	3.5549	4.9827	-2.7910	-4.5703	5.3501	-6.4407	2.5289
6432.0726	10.3993	19.0571	9.5603	26.6634	21.7763	22.5442	6.9772	-5.7775	15.7471	12.4598	17.4578	0.9962	-3.4484	15.1290	-3.6416	-1.9571
6440.0727	16.1168	27.8256	12.3306	31.7351	28.3738	30.8076	10.5595	-5.4701	23.8773	18.6488	25.4395	4.4826	-3.1932	20.2286	-2.9650	-4.2930
6448.0728	10.4658	18.0364	6.3442	22.4118	18.8356	11.7689	4.2827	-9.3212	15.6689	10.4706	17.8838	2.6835	-3.1338	9.7578	-2.3867	-2.8365
6456.0728	3.8659	11.5524	-2.8312	13.7331	11.5897	7.8831	1.4540	-7.2607	10.0019	5.0646	10.4095	1.0221	-0.1295	3.8073	-3.7654	0.9515
6464.0729	-3.8765	2.6695	-10.1874	3.0619	2.9404	4.1270	-1.6603	-7.3504	0.8743	-2.9300	2.9528	-2.7642	-1.7115	-1.6044	-7.6470	-2.7317
6472.0730	1.6608	8.5599	-4.0938	7.9320	8.4932	7.5017	0.5170	-5.4807	7.7589	3.3368	8.1744	0.3657	-2.3637	2.3897	-7.1341	-5.8658
6480.0731	27.3568	41.8824	22.5324	43.9929	39.1668	45.9453	17.9425	7.4734	41.0298	35.2055	33.5286	12.9741	2.5001	30.5425	0.1238	1.0993
6488.0732	24.3655	32.9641	16.0659	32.7778	19.3443	27.7665	9.5917	3.8528	32.1294	25.9731	29.2358	14.1145	5.5266	20.6753	5.4131	8.1465
6496.0733	-0.7864	-2.4866	-15.8043	-8.1091	-19.1787	-23.6280	-13.0486	-4.0787	-0.1910	-6.6152	1.1870	6.6467	8.7782	-14.9341	4.1893	11.4974
6504.0734	6.0216	11.0595	-4.3586	12.6085	10.7456	-1.4800	-1.2956	7.0568	12.1644	6.3128	8.0475	7.2245	10.1716	-1.0790	2.0629	13.3551
6512.0735	16.9825	27.6633	10.6002	31.1295	29.4674	23.5060	10.5230	10.4018	25.5648	19.8889	21.7386	9.3541	6.7851	16.0649	-1.2224	10.7327
6520.0736	6.6003	15.4246	-1.9588	12.4509	9.4034	13.8027	3.9449	4.4921	16.3958	11.7148	9.7463	5.8819	5.4884	5.8860	-5.6567	8.0236
6528.0737	5.3564	15.0472	-0.4206	13.3310	13.5682	18.3037	5.5380	3.9648	16.8952	14.0668	6.3299	3.7692	5.7919	8.0038	-5.4762	9.8055
6536.0737	11.6763	21.7865	7.0731	19.9603	21.5081	22.9598	9.0214	2.9957	20.7116	17.6159	14.0097	5.4084	5.2016	13.7960	-2.5564	10.5635
6544.0738	5.7621	11.9691	-0.1662	10.2427	8.6346	8.8510	2.8164	-3.0076	13.3174	10.2798	6.9840	3.7547	4.1201	4.7163	0.3514	7.5740
6552.0739	-4.2306	-1.2210	-9.1273	1.9018	-1.8221	-4.7028	-1.7558	-8.0415	2.0622	0.0519	-4.0198	-1.3011	1.7340	-5.0908	0.9376	4.5989
6560.0740	7.5088	17.1164	6.2640	21.6824	23.1711	25.6675	13.5868	3.6821	15.2402	13.8542	10.1609	1.8625	2.3573	14.2819	0.3357	6.6674
6568.0741	24.7918	37.6938	24.6091	39.3312	40.5183	50.5655	24.2141	13.7223	32.5070	30.9879	27.9211	10.0991	5.9162	32.9118	5.6429	11.6398
6576.0742	-1.5430	-2.1697	-5.9153	-1.4390	-4.9776	-1.5366	1.6515	1.1995	-3.7263	-4.0983	-1.4114	1.1848	5.4135	-2.5012	10.1004	9.2534
6584.0743	-27.5549	-33.0889	-27.0548	-23.4987	-19.2014	-21.8165	-6.9139	0.0136	-31.8497	-27.7765	-30.6388	-12.8851	2.6678	-21.9875	7.1646	2.9251
6592.0744	1.1817	10.1411	10.1195	28.6141	36.9697	38.1639	19.0904	17.7788	9.8014	13.5137	0.0460	-3.9362	1.5941	18.9731	2.2604	1.0000
6600.0745	19.9069	33.6158	25.5961	51.9867	50.6940	54.0325	27.5032	21.5130	31.9991	31.2138	23.0156	6.3688	1.1472	33.7057	1.6910	0.9408
6608.0746	4.4591	8.0519	7.4037	25.8334	17.6787	23.7576	14.0917	14.8598	6.2754	7.0921	5.9126	1.3700	2.5456	13.1191	9.5799	3.6979
6616.0746	5.3212	6.6276	12.0056	23.8601	16.5707	27.5137	15.7332	16.0751	4.2074	7.7020	4.4691	0.8039	2.4478	16.1368	13.6844	4.0839
6624.0747	11.4251	15.0835	19.3704	30.8273	24.3404	35.6169	22.8845	19.7151	13.2984	16.1556	10.8857	4.0207	0.0382	22.6186	10.6759	-0.1258
6632.0748	1.1113	0.7817	7.2340	18.0448	6.8636	18.5799	17.2676	19.9003	1.4434	4.8302	-1.5655	1.5337	1.4099	9.9097	11.1489	2.6959
6640.0749	-10.9198	-11.0432	-6.0043	6.2677	-1.7328	6.9276	11.9984	17.7720	-8.1752	-4.3316	-14.9545	-3.8593	1.9872	-1.1422	4.4522	5.0425
6648.0750	-19.1590	-15.6930	-17.1221	-7.4835	0.1567	-0.6152	7.7990	11.7770	-12.2864	-9.7644	-21.7216	-8.3363	0.2762	-9.3156	-6.8313	-0.0830
6656.0751	-13.7604	-8.8510	-13.2244	-7.9492	5.3232	5.0959	10.3937	13.2875	-8.2006	-6.2189	-15.3684	-5.5519	2.1333	-4.9354	-6.0693	2.1944
6664.0752	11.2266	20.8534	14.9132	25.8587	28.9930	38.7117	28.7252	26.5699	16.0285	17.5517	11.1908	5.3973	5.1722	22.3755	0.5199	13.1347
6672.0753	21.5628	31.5098	18.7356	31.3241	25.5988	39.4795	26.2504	24.2626	24.4091	22.4431	24.3925	12.5402	8.9496	25.8498	4.2039	20.2531
6680.0754	4.5669	9.8939	-6.7042	1.9097	-0.5881	8.7409	7.1437	11.4220	4.6587	1.1502	7.7623	7.0429	11.6054	2.2082	3.7935	20.6742
6688.0755	3.5417	10.5710	1.5957	13.9681	19.1037	21.6340	17.9605	18.5961	5.2487	5.7275	3.6860	2.6845	10.1195	10.2155	6.5994	20.1744
6696.0755	14.8338	20.7043	19.0194	27.7754	31.6366	31.3744	26.6008	20.2016	16.2571	18.6050	11.7519	6.6135	8.6214	21.7670	14.7421	19.3513
6704.0756	0.2284	-4.1348	-4.8714	-5.9421	-11.7982	-14.3844	3.2931	-0.2589	-3.6969	-3.7573	-3.7341	4.3902	7.7539	-7.0035	17.5039	16.1404
6712.0757	-15.6554	-23.0287	-24.5455	-19.3431	-29.4891	-32.3721	-6.0623	-3.9860	-22.7420	-23.5395	-16.9663	-2.1730	7.1296	-22.9814	16.9277	13.7019
6720.0758	-14.8744	-16.7688	-18.7635	-6.9423	-8.6478	-8.8068	3.5573	5.4393	-18.6632	-17.6829	-14.5801	-4.9769	5.7713	-11.5297	14.1159	8.8126
6728.0759	-19.8165	-23.2781	-23.2344	-19.8273	-17.5546	-19.2559	-3.4185	-2.5677	-20.6487	-19.0417	-22.2879	-7.1574	2.8534	-18.5322	8.1748	2.6352
6736.0760	-23.8614	-30.0337	-26.2943	-26.2516	-27.5975	-30.2180	-8.0048	-9.7683	-26.6078	-24.3324	-27.3188	-9.7675	0.6296	-24.2909	6.6651	3.0583
6744.0761	-19.0431	-23.6065	-13.7545	-14.0074	-12.0618	-15.5372	1.1138	-6.1536	-24.4624	-19.5942	-21.9865	-11.8725	-2.4244	-12.8638	6.2009	3.1803
6752.0762	-13.5925	-19.5004	-8.5283	-14.2948	-12.9985	-16.1816	-1.4016	-5.9470	-20.6059	-16.5768	-16.0348	-8.6322	-3.2907	-10.8610	4.7531	-0.1670
6760.0763	5.0308	4.7660	7.6384	7.3220	5.6083	8.7175	6.0805	2.6708	0.2144	1.0165	7.0234	0.7590	-1.1768	7.3321	4.2117	0.4959
6768.0764	20.9959	25.4907	28.1095	27.9996	28.0985	32.0359	16.6074	10.2403	17.9650	18.6577	24.0963	6.0422	-2.1151	26.0979	0.3456	1.4902
6776.0765	-0.8106	-6.3238	3.5674	-11.2740	-15.4184	-10.2172	-8.4276	-5.1887	-6.1584	-3.8546	-3.3099	-1.5489	-3.5331	-3.3067	-6.3124	-1.2745
6784.0765	-16.9897	-22.6793	-12.1224	-26.5204	-26.2948	-18.7276	-17.3027	-11.8417	-17.8347	-13.1261	-22.7813	-10.2444	-3.4190	-14.8121	-11.3674	-1.8961
6792.0766	-5.0818	-4.2466	3.7858	-7.0338	3.6401	4.0716	-3.8688	-5.2726	-3.1038	1.5842	-9.3582	-7.6830	-3.6267	1.8815	-12.4280	-0.9495
6800.0767	-14.8485	-19.3151	-12.7375	-30.6409	-19.3014	-21.9737	-17.1695	-13.0795	-19.0266	-16.3548	-16.9774	-9.4897	-3.4445	-15.7250	-12.8391	-3.7878
6808.0768	-17.8103	-17.9051	-16.8002	-30.0300	-9.2508	-15.5559	-12.8711	-11.2949	-14.9807	-12.5155	-20.7070	-10.6372	-2.5068	-15.2824	-13.8772	-6.5313
6816.0769	2.2234	8.8950	4.3938	-7.1916	19.6537	4.6689	4.5314	-3.1568	14.1514	14.3561	-1.9903	0.0332	-2.6516	2.6991	-13.9642	-8.1272
6824.0770	-6.2501	-9.1093	-5.7179	-26.5740	-10.3829	-25.5620	-6.0394	-8.5176	-4.4754	-4.3592	-10.4973	-1.5000	-5.0876	-13.9964	-12.6614	-8.9753
6832.0771	-12.6177	-17.6758	-7.7234	-23.6567	-11.3382	-20.7083	-5.6118	-2.4427	-15.8226	-12.4217	-17.2745	-6.6532	-3.3694	-13.3949	-7.0263	-4.5044
6840.0772	-2.9159	-4.4302	-3.0503	-14.7787	-7.0897	-7.4689	-5.1149	-1.6807	-2.5211	-1.7135	-5.4523	-0.4338	-0.1787	-5.2298	-5.5155	-2.5025
6848.0773	-9.0375	-15.7780	-16.0695	-36.2666	-33.6539	-34.7861	-17.1042	-12.4251	-14.3218	-16.2610	-9.3111	-0.2232	-1.9056	-21.3991	-8.6687	-4.3713
6856.0774	-2.2026	-7.3930	-5.0683	-24.5936	-13.4390	-25.0237	-4.5058	-1.2263	-10.4212	-11.5685	-2.1013	1.7981	-0.9859	-12.4383	-4.5489	-1.7875
6864.0774	10.0849	6.7437	9.0441	-10.3964	1.7614	-10.5268	4.3414	4.8587	1.7763	0.1228	11.0565	7.3368	-1.0025	-0.0045	-0.5499	-3.0755
6872.0775	6.3936	-1.9571	5.0767	-22.8300	-11.8637	-23.7968	-2.6912	-2.0279	-3.5675	-4.3133	4.5050	6.8202	-2.0691	-7.6496	3.4287	-7.2832
6880.0776	14.4746	10.1915	10.4272	-16.0397	4.4601	-8.1416	3.0565	3.9782	9.6050	8.1655	11.3347	12.1342	3.7322	1.0547	10.4976	-5.2516
6888.0777	18.1832	14.8453	8.3970	-19.4194	0.4401	-11.1475	1.1878	0.8131	10.8794	6.3571	19.2142	15.3104	4.2498	0.0174	8.6181	-4.2771
6896.0778	0.9744	-11.0810	-8.8657	-45.8560	-31.8258	-44.6656	-13.4322	-10.7168	-14.5119	-17.5590	0.9607	7.4229	0.4746	-21.5961	5.3792	-5.6536
6904.0779	-7.0199	-20.0760	-12.7500	-47.2199	-32.8381	-42.4001	-13.8682	-7.8297	-20.5471	-20.2671	-10.7633	2.5245	1.3531	-23.5239	7.7399	-5.1239
6912.0780	-3.9844	-15.5020	-4.8873	-33.5555	-20.8457	-32.1302	-3.9533	0.6408	-17.4685	-15.9974	-7.7469	2.5085	0.2118	-15.9757	8.6820	-3.9635
6920.0781	-3.9178	-14.9111	-4.8387	-29.4180	-18.3522	-31.6140	-1.1389	5.2572	-18.3420	-17.4062	-6.4582	2.8069	0.5910	-15.5390	8.2484	-2.1938
