Time	Fz	Fpz	C3	C4	T5	T4	O1	O2	F7	F8	F3	F4	T3	T6	P3	P4
0.0000	-35.2348	-35.2852	-36.2679	-49.7020	-24.9523	-19.5403	-18.2209	-9.1807	-29.2175	-24.6886	-39.8563	-17.3941	-1.0908	-26.9080	-18.5350	-8.8571
8.0000	-26.4831	-30.8113	-22.8778	-42.1129	-21.9411	-30.0533	1.6044	14.7476	-28.5502	-24.1107	-33.1754	-8.9342	-1.5178	-25.2015	-17.6537	-1.0827
16.0000	2.7943	8.0789	1.9280	-4.8425	5.6405	2.6232	16.6808	19.6645	7.4745	6.5746	0.7901	5.6772	1.6974	1.3643	-15.4787	7.2064
24.0000	-2.0566	4.8806	-4.1104	-2.8567	3.7349	9.4518	6.0322	12.8693	7.7486	6.6007	-2.5664	1.7625	0.8147	1.0304	-17.7491	-0.3996
32.0000	-5.3260	-6.5579	0.2514	-17.1654	0.2672	-8.2729	9.0882	13.4159	-10.4972	-7.2504	-8.7510	-2.1955	-0.6780	-4.5141	-11.0493	4.5059
40.0000	12.4115	13.8880	-0.8586	-8.6979	-5.2458	-17.2299	30.1249	30.5505	13.9258	8.6007	7.2353	21.3262	13.0964	-6.0808	6.4879	26.3457
48.0000	17.2027	24.4602	4.6083	12.1611	6.7703	5.7909	32.3797	34.7459	31.1221	25.6729	10.2150	23.3810	15.1830	5.1976	6.0831	25.8596
56.0000	4.2490	9.4758	17.8305	8.4344	26.0672	27.8319	3.6755	-4.0050	6.3919	13.4089	-0.5397	-7.8157	-0.6958	18.1099	-7.9875	7.3767
64.0000	-3.2315	-4.3054	-0.5609	-8.4471	-0.1342	-2.7121	-4.2463	-5.6238	-8.0228	-4.7705	-6.1042	-4.8967	4.1867	-1.2582	1.2531	13.7859
72.0000	17.1804	15.3279	2.4644	9.5005	-11.1291	-17.6519	13.0891	21.2388	20.4172	13.4349	12.2477	22.8163	15.3704	-4.2049	14.8350	27.4556
80.0000	24.4658	23.7463	17.7486	13.8809	4.9192	-3.2748	13.4597	13.5138	27.1859	22.9599	19.0115	20.4554	9.7857	7.8190	11.9060	18.0037
88.0000	13.9748	13.6146	14.5995	1.0888	14.8116	4.4650	25.9658	18.0841	9.1515	10.3283	9.0977	11.0243	6.5666	8.7001	14.7397	13.8981
96.0000	24.6406	27.9705	21.5669	21.5307	22.8287	18.5539	29.9633	27.4508	23.5887	21.6509	22.1743	18.2864	10.7154	18.3273	16.0678	19.8010
104.0000	11.4719	12.4052	5.2508	12.4155	5.4139	11.0586	-1.1564	9.3666	10.0316	7.6447	12.6645	8.4295	10.4996	7.7699	10.4386	13.2161
112.0000	-7.5748	-10.2864	-10.8764	-11.5400	-6.8066	-7.2116	-0.6408	0.9198	-16.4893	-15.8059	-5.3199	-3.1930	4.2572	-7.1500	10.1607	6.4895
120.0000	11.1716	11.9743	2.2649	3.3377	-0.0609	-5.6592	18.5931	14.6112	11.6813	7.6918	9.7226	14.0370	7.7048	0.1368	11.7269	14.1513
128.0000	16.2708	16.3818	6.0567	8.4933	-0.1208	-4.5777	18.6632	23.1438	21.0165	16.5739	10.6869	20.0157	12.6913	1.7390	14.7248	18.9581
136.0000	2.2069	0.6699	0.2886	2.0064	-1.9553	-6.8751	9.8350	6.0516	-0.8641	-1.9828	2.2992	4.0572	1.1320	-1.9230	7.2522	4.8369
144.0000	-8.4959	-6.8221	-13.4504	-0.6164	-11.8635	-6.3540	-11.1999	-14.8346	-5.0750	-7.7429	-3.7356	-5.2260	-3.3285	-7.6361	-5.1374	-4.4391
152.0000	-13.6013	-14.9606	-18.1671	-4.8981	-20.4118	-17.6010	-13.2412	-15.7105	-10.7105	-12.5308	-11.6155	-6.5821	-2.4916	-14.4963	-2.1169	-1.1484
160.0000	-27.2277	-33.4518	-33.3367	-22.3415	-38.8734	-43.7425	-14.0940	-21.3280	-32.9979	-35.6595	-21.1765	-12.3937	-8.8819	-31.2851	-3.4565	-7.5925
168.0000	-49.8597	-52.3559	-60.7870	-42.1794	-51.3249	-40.4824	-35.2836	-36.8589	-48.4618	-49.4396	-42.6483	-26.3252	-6.1873	-43.0469	-9.7086	-11.1580
176.0000	-33.4469	-34.9431	-32.1487	-17.1015	-25.9260	-20.2997	-21.6166	-31.8316	-32.5525	-29.8362	-30.4280	-23.4046	-8.2996	-22.3550	-6.4143	-6.2377
184.0000	-10.3002	-12.2529	-12.2597	4.4049	-19.6802	-25.5590	-3.5045	-19.7160	-13.7547	-17.7486	-2.1663	-6.9195	-12.4152	-13.5907	-6.5629	-6.5764
192.0000	-15.2212	-8.7753	-28.0463	-2.2214	-16.8745	-5.1908	-6.3385	-16.4729	-6.2638	-11.9480	-6.5066	-5.7961	-2.9827	-12.7162	-5.0038	-5.2705
200.0000	-5.6890	-1.2464	-2.9336	11.9202	9.2896	15.3254	9.8284	-1.2206	-2.4781	-0.6879	-3.9865	-6.0861	-1.7989	5.2907	4.5613	0.7761
208.0000	9.7753	6.2863	18.5112	24.4491	13.7067	3.6527	17.4766	7.4212	-5.6886	-4.2526	14.0642	0.3577	-3.7536	11.4349	11.6383	8.7732
216.0000	7.3018	13.4619	4.4406	24.2554	15.9141	26.5457	0.7888	-7.5087	3.4416	1.6323	16.9312	-2.2112	2.5210	15.2148	8.2140	8.1501
224.0000	-7.8318	0.9696	-5.6745	19.3871	16.4284	40.1202	-15.5227	-16.2247	-4.1562	-1.3734	-0.5842	-15.3452	2.2619	14.3077	0.4540	2.1008
232.0000	4.7396	5.3099	18.5233	33.1394	25.3856	31.1319	1.2597	3.2601	-8.5093	-2.8242	9.4818	-10.0224	1.1486	21.6258	7.7292	13.8864
240.0000	33.8193	39.7606	37.2524	55.2901	39.9273	38.6285	34.8406	29.9790	25.1868	23.0054	39.4355	15.6552	7.2715	35.1003	14.7008	25.9976
248.0000	14.8715	20.5834	9.3515	28.6720	15.0683	21.9301	15.6895	20.6581	16.9190	13.9212	16.6786	10.9711	11.3096	14.6750	9.6237	21.9872
256.0000	10.0157	10.1764	22.4307	21.3540	29.9026	35.7175	2.1339	10.2198	2.3815	10.5332	4.9692	-3.5926	11.0992	23.7514	15.8868	21.4129
264.0000	28.5162	31.6683	43.6246	34.0558	52.6204	51.5498	27.2281	24.1329	19.4595	27.2361	23.0241	6.8327	10.6227	40.0797	21.4287	22.6483
272.0000	4.1038	-0.4721	5.3538	1.1703	2.9992	-2.5571	10.3345	16.8575	-4.5994	-1.9898	-0.8412	4.8087	10.2545	1.4336	17.5680	19.7438
280.0000	-5.8950	-13.0276	5.4499	-2.8290	8.1395	8.4288	-1.7096	16.2650	-17.6399	-8.4144	-13.8759	-6.6162	10.3732	3.8166	17.3402	15.3592
288.0000	3.5919	7.2450	16.7535	7.9055	35.2955	42.6950	17.5194	25.3326	3.6007	12.9571	-3.9634	-2.7303	7.8945	22.0475	10.0642	5.9253
296.0000	7.2084	9.1536	4.7301	1.9494	7.7937	8.3065	14.4857	16.1001	14.8741	14.9451	0.7613	9.6557	6.7505	4.6733	8.4827	4.5041
304.0000	14.2844	16.0071	14.4769	13.0243	18.9503	23.1901	11.1805	16.7839	18.3153	20.0313	8.0679	9.8693	10.8687	15.1794	16.4450	9.7485
312.0000	-7.4837	-4.0981	-3.2430	-6.3456	16.1341	25.5883	5.9674	8.8238	-7.6541	-1.6724	-10.0428	-6.9907	6.2161	7.4481	8.7326	2.5649
320.0000	-12.2816	-15.5098	-13.1919	-21.5417	-10.3394	-14.4759	4.0447	4.9827	-15.7578	-13.6038	-15.3384	-3.1564	1.9646	-12.4930	4.6701	1.5337
328.0000	15.5155	15.4024	16.2043	3.6311	16.8123	11.5194	19.0189	21.3646	12.2308	13.5257	10.4825	11.5907	8.7630	11.6243	12.7464	12.0222
336.0000	11.5037	14.1057	14.9289	6.9556	23.7263	26.0877	12.2411	15.2394	7.4756	10.3167	10.2758	4.2066	6.8053	16.8082	9.0373	7.1899
344.0000	2.9430	5.4970	3.5326	0.2311	10.1780	14.2406	6.1798	10.7194	6.8959	8.3943	-0.0992	2.7617	4.3363	6.3553	2.2540	0.9020
352.0000	10.2788	14.7037	6.7756	-2.0894	10.0353	10.0587	15.6840	16.5719	22.3240	21.8993	2.0346	12.1602	7.3561	6.0066	1.5908	5.3932
360.0000	6.7006	3.0125	6.7137	-10.4450	-2.5688	-14.4405	10.9136	10.5651	6.8151	7.1853	-0.9907	9.2106	2.9191	-3.5448	3.8618	5.1539
368.0000	7.8750	3.6661	10.8248	-1.9669	2.2856	-9.4475	15.1012	13.0447	6.9043	8.3440	-0.0050	8.6552	2.3308	0.3222	8.9031	5.3090
376.0000	9.7310	8.5893	6.3229	5.0915	-1.3350	-10.9912	24.8541	22.2435	17.2329	14.8910	1.7179	15.8026	3.6979	-1.8910	8.4307	6.2156
384.0000	-12.7254	-20.3616	-7.2224	-10.6407	-14.6305	-21.8039	1.6992	12.7258	-15.9140	-12.5221	-19.2787	-3.0521	-0.4004	-13.7895	1.5573	0.7227
392.0000	-22.8365	-29.2525	-3.0325	-14.9553	2.4033	4.7230	-17.8909	-5.7182	-32.4685	-19.9308	-28.7042	-23.6061	-2.8588	-2.7047	-3.2958	-3.2159
400.0000	8.3100	6.1988	14.5818	9.3193	8.5802	1.9166	9.0355	8.9266	5.4786	7.0583	5.3350	3.7520	-1.0647	6.8990	1.8225	2.3384
408.0000	32.8882	37.2879	29.0908	35.0516	21.7264	15.8771	30.8040	26.3788	39.0668	33.0947	31.8920	24.5105	3.6707	20.7655	6.7647	7.9563
416.0000	39.2831	48.6880	47.4661	51.8039	48.2576	50.7796	26.8816	20.2538	50.2148	49.3048	36.9409	17.8410	0.2214	41.7482	0.5589	0.8007
424.0000	47.5544	50.1499	57.1367	57.4004	40.7873	30.0566	34.3870	30.9911	52.0791	48.5385	45.1177	26.5886	-4.3617	37.9299	1.5501	-3.1877
432.0000	30.6660	33.5647	33.8272	37.1519	27.7762	25.4526	22.1769	22.4310	35.3575	32.5338	29.6364	18.4624	0.1213	25.5459	5.5260	-2.6969
440.0000	5.9502	7.6877	8.8049	11.7595	9.3916	13.9607	0.4549	1.0486	14.5410	15.1050	2.9754	2.6963	-1.4205	8.5768	0.9963	-9.1018
448.0000	7.4023	0.7308	7.7379	10.4720	-12.4806	-23.4385	5.1822	5.8107	12.3028	9.2514	2.0391	10.8258	-4.7568	-6.3554	3.7900	-7.5597
456.0000	5.4508	3.8288	4.4872	17.6517	-3.7598	-1.0792	-6.3535	-7.8156	13.6932	11.5240	3.6520	4.1040	-2.2079	1.7055	6.5991	-7.5090
464.0000	3.2248	2.3620	4.0079	19.8703	0.9627	5.8375	-3.2444	-4.2826	8.7129	7.5769	3.5001	1.3819	-2.6305	4.2611	7.9612	-8.4204
472.0000	14.1040	6.4504	19.0501	24.0685	-0.6501	-17.5581	20.8831	15.9571	7.8512	5.7029	12.2435	11.9675	-5.4338	2.2133	11.3611	0.4032
480.0000	6.2149	4.2723	17.7188	20.4418	12.4266	10.6261	-2.7824	-9.4807	3.8734	6.7451	6.5117	-4.5645	-8.1023	11.9886	1.0075	-8.6728
488.0000	-0.4688	1.0415	6.0182	15.1345	6.8927	13.4981	-10.5701	-17.0560	5.5593	6.5814	1.7975	-7.0038	-9.7546	7.6579	-4.4984	-18.9479
496.0000	10.3743	6.4234	7.2844	17.6813	-10.6343	-21.8155	13.4522	6.2916	15.3332	9.4761	9.3342	13.3148	-6.5976	-4.6241	3.8945	-7.1259
504.0000	2.6682	0.0826	2.4484	11.6597	-3.3633	-0.0682	-7.3977	-0.0292	5.2169	4.2855	1.7976	2.3722	0.6975	0.8543	5.5312	-3.5012
512.0000	-9.0640	-8.8223	-2.1690	5.1227	6.3774	21.2342	-22.6020	-11.9741	-8.8750	-4.7536	-6.2113	-13.4526	-2.7067	6.1851	-1.8245	-14.2964
520.0000	-19.1251	-25.9014	-8.7590	-11.0839	-17.5474	-22.0531	-16.7713	-14.2525	-21.4439	-18.1464	-19.3659	-14.6568	-14.3923	-14.5646	-14.5519	-20.8815
528.0000	-33.7933	-43.5183	-28.4012	-32.4415	-40.6639	-43.8680	-36.5956	-29.2493	-34.2679	-30.8882	-36.5060	-20.9946	-11.6721	-32.3576	-17.9305	-16.7418
536.0000	-22.2249	-24.1251	-22.9040	-14.5127	-24.9495	-17.1555	-32.2485	-30.3915	-15.4339	-15.1347	-20.8841	-15.3966	-7.7432	-17.8868	-12.8493	-15.5403
544.0000	-6.6444	-5.6786	-6.2349	1.6882	-9.1559	-9.5154	0.6229	-3.3563	1.8805	-0.3113	-5.6326	-1.5884	-9.9146	-7.1405	-12.5154	-16.2432
552.0000	-4.3537	-5.7044	-10.4643	-6.3245	-16.3845	-22.1892	6.1505	4.3963	-2.8873	-7.4430	-1.9383	4.3145	-4.5928	-13.0702	-5.7204	-5.9952
560.0000	-6.6918	-7.1816	-9.8815	-9.7574	-11.5694	-13.7034	-4.8863	-12.7267	-6.4414	-8.7272	-2.8958	-3.1996	-6.8200	-9.3978	-5.6296	-10.8343
568.0000	-9.9072	-10.0608	4.0381	-18.5125	8.0166	5.1466	-6.7674	-16.9013	-7.0347	0.2950	-15.0639	-13.6552	-11.2604	1.2499	-13.0393	-20.1253
576.0000	10.3115	10.2639	16.5506	-5.5573	12.4251	4.4046	4.7724	-5.1478	12.1280	14.5933	4.9605	2.9736	-3.6494	8.2015	-2.7487	-6.4407
584.0000	13.4710	17.9709	7.3264	3.5545	8.9711	5.9512	14.2015	0.3960	16.7844	12.3757	16.6557	10.0346	-1.9192	6.9408	1.1605	-5.0936
592.0000	-6.8584	-0.8135	-6.7438	-22.1322	6.4051	6.1948	4.8007	-15.0525	-3.1598	-2.1287	-4.2171	-6.9236	-8.3635	-0.8213	-11.0757	-16.1911
600.0000	-7.9406	-7.9285	-6.9251	-27.7295	-9.6137	-16.2850	-12.0510	-29.3990	-5.0661	-4.2719	-8.7738	-7.8579	-10.1389	-10.0547	-14.0288	-15.1748
608.0000	-21.1155	-23.0173	-20.5985	-29.5650	-19.2849	-15.7168	-25.7748	-26.0492	-16.6080	-14.0352	-23.0174	-14.2776	-5.4749	-17.0160	-11.4172	-14.2577
616.0000	-21.4684	-23.7549	-21.6886	-33.1440	-18.4556	-16.3967	-18.2462	-13.4820	-19.6161	-16.6247	-24.3437	-11.8630	-1.7632	-17.9943	-9.2654	-8.3318
624.0000	1.6807	-1.8772	-5.0792	-18.1905	-20.9967	-35.7008	5.0970	0.8140	6.5402	2.6598	-4.5009	10.2248	-0.5129	-16.5673	-5.9414	3.4721
632.0000	-0.5354	4.8608	-3.2953	-15.3804	-0.5997	-2.0057	3.7516	-7.4943	14.2480	14.1600	-7.5369	2.4476	-0.2874	-3.1301	-10.8378	-1.1724
640.0000	-9.4559	-3.5610	-5.5638	-23.8720	3.1967	7.9194	-15.6944	-26.1673	0.7558	4.0752	-11.6076	-11.8938	-7.3402	-0.9036	-21.6337	-15.4521
648.0000	-31.2642	-38.0428	-34.0497	-48.8573	-42.2737	-47.3799	-30.8728	-27.2807	-31.3020	-30.7445	-32.3658	-15.5282	-8.8691	-35.7280	-20.4205	-15.5422
656.0000	-41.4316	-47.0259	-45.9868	-54.8592	-44.4386	-44.7981	-26.3754	-20.9684	-40.7407	-38.6192	-43.2837	-19.2403	-4.7325	-40.3012	-14.8596	-10.7396
664.0000	-7.6684	-8.0614	-3.7694	-18.3243	-9.0362	-14.5712	-7.7592	-10.0433	-3.2024	-2.1716	-10.3956	-5.1868	-8.4223	-8.9337	-20.4932	-11.4777
672.0000	-1.4070	-4.2952	-2.6314	-15.0860	-18.6007	-21.8579	-22.3142	-9.5270	6.5605	4.9978	-6.8866	1.6358	-1.9687	-11.4411	-20.3724	-5.2069
680.0000	-16.8392	-17.1901	-22.3664	-29.0935	-23.4005	-15.6968	-30.5513	-14.1070	-9.0845	-9.1589	-19.5821	-7.5665	2.4765	-17.8921	-17.7200	-3.8091
688.0000	-10.6209	-6.5501	-6.9990	-15.5714	-0.0793	-3.4160	8.6005	3.5820	-9.7927	-9.0022	-7.9354	-6.6758	-9.1289	-5.3367	-22.9090	-9.7157
696.0000	-10.0271	-3.4319	-5.6397	-12.2875	7.4131	4.4303	19.4965	11.2860	-10.2011	-9.0222	-5.9947	-6.4250	-8.8817	-1.3518	-22.4723	-7.2310
704.0000	-8.8649	-1.4186	-3.2078	-19.6022	11.8491	15.5775	1.2814	-2.8995	-4.4695	-0.4922	-9.0013	-9.9313	-4.7490	3.1963	-22.5603	-7.8840
712.0000	1.1353	5.9233	2.5518	-19.4018	8.8786	5.7779	5.4368	-0.3995	3.3511	4.4636	0.4325	-0.6415	-3.1296	2.5552	-16.0024	-6.1497
720.0000	-6.1856	-2.1151	-16.5224	-24.0761	-5.8819	-3.3363	4.3997	7.2576	-6.8575	-9.7876	-1.8660	1.8812	3.5758	-8.4427	-6.5573	-0.3759
728.0000	-24.0615	-22.1008	-27.1554	-41.8558	-13.7815	-9.8085	-9.8957	-5.1611	-24.0500	-21.2251	-24.3026	-12.3996	1.0442	-17.5298	-13.9944	-2.9331
736.0000	-18.4724	-21.6874	-21.7235	-44.6924	-21.0749	-27.0535	-9.3841	-7.1465	-20.3110	-17.7519	-23.8158	-6.7468	2.6280	-21.8690	-7.1812	3.1708
744.0000	-3.4006	-4.9663	-13.1861	-26.3553	-13.0630	-17.0998	0.4266	2.9694	-5.6630	-7.3589	-5.4532	4.8655	7.7079	-12.5281	4.7771	8.4414
752.0000	-8.5784	-6.4928	-11.5441	-24.6166	-1.5350	0.1235	-4.5068	-7.5119	-12.1768	-10.4849	-7.3040	-6.2001	2.7853	-5.1415	-2.7546	2.7181
760.0000	-10.2241	-10.8262	-16.4887	-24.2919	-10.3155	-9.2007	-10.5277	-11.3190	-18.6317	-18.4410	-6.4466	-6.4792	4.4196	-10.1696	2.1790	7.1604
768.0000	7.0053	5.1216	-2.3489	-1.0259	-8.5633	-13.9904	6.3072	8.2995	2.4888	-1.4920	7.3571	10.1923	8.3362	-5.0048	9.6738	17.1815
776.0000	18.3115	20.9490	7.4596	16.5889	0.7621	-0.8154	11.9627	16.3574	22.1556	15.8524	17.7850	17.8679	10.4738	4.8512	5.5167	20.5458
784.0000	-1.8381	3.0582	-9.3232	3.2416	-1.5197	11.1256	-10.9472	-3.9011	3.3299	1.1698	1.2182	-0.8931	6.7289	1.0216	-1.6906	7.2153
792.0000	-24.9350	-23.1706	-14.3435	-11.7997	-1.5913	8.7024	-20.4440	-22.3901	-22.6633	-15.1871	-25.4352	-24.1664	-6.2959	-4.5893	-12.1993	-8.0275
800.0000	-5.7887	-5.3904	2.6077	12.2082	4.4038	8.6942	-7.4217	-7.2123	-5.9037	-2.2702	-6.0205	-9.9606	-2.6806	4.3510	-4.0451	2.7926
808.0000	14.0792	12.3350	10.8207	30.6432	-0.9782	-0.3812	-0.2263	5.1316	15.1814	11.1586	14.6151	9.9384	4.5812	6.2641	9.6596	12.1454
816.0000	4.5485	0.3400	-3.2326	18.8201	-16.4383	-16.7989	-2.3454	5.3269	6.6217	1.2992	4.7086	9.3390	4.4144	-6.7946	11.0814	8.9373
824.0000	-2.8747	1.3223	-10.4678	19.5137	2.5302	21.0280	-3.3133	10.4517	-0.1173	-2.3149	2.5868	0.0922	9.7029	4.7194	11.1514	8.5792
832.0000	-3.1432	2.7732	3.3583	18.0234	20.7869	37.4505	-6.4477	-4.9915	-1.5004	3.2407	-0.8102	-11.1481	3.1171	16.3534	3.7343	3.6791
840.0000	-3.7825	-10.4545	-2.0457	3.0409	-13.6327	-18.9020	-11.0496	-10.0052	-11.3236	-11.0515	-3.5135	-3.7283	-0.9460	-7.7202	5.4890	6.2905
848.0000	-13.0608	-20.5541	-19.2889	-2.7923	-26.6166	-26.7420	-11.3662	-2.7456	-19.4475	-21.0585	-11.9644	-2.8239	4.7345	-18.3439	13.5558	10.0943
856.0000	-15.1418	-16.3153	-8.3220	3.8078	-0.5087	6.5658	-5.3073	-7.3303	-12.1424	-6.1230	-20.1112	-12.3696	1.7026	-2.0259	10.5547	4.1407
864.0000	6.4292	7.5817	11.9713	21.2295	18.4731	23.1731	8.4199	5.4460	4.9182	7.7774	6.0199	-0.4361	2.6025	14.8288	14.3682	3.9830
872.0000	20.8653	22.6656	21.7951	29.6424	23.5588	24.5175	16.7035	11.1821	17.9458	16.7222	23.2739	10.2330	3.0845	20.8786	17.6678	3.5296
880.0000	19.0258	15.4908	19.7783	22.8643	9.7010	3.7005	13.0871	11.1379	18.0892	16.9510	15.0680	13.3073	4.1019	10.9445	19.7268	6.1795
888.0000	5.1207	0.6502	4.3519	10.8838	2.3594	3.9437	0.1117	8.0692	-2.1706	-1.9865	5.8893	3.7004	5.7763	3.9591	19.2235	4.4273
896.0000	-17.2794	-19.6309	-12.1520	-5.4600	-3.2732	6.6626	-20.5926	-18.4017	-23.1189	-18.7290	-13.0369	-17.4327	-3.6384	-3.2946	4.3757	-10.9407
904.0000	-17.4899	-19.8201	-14.3218	-6.5601	-6.6894	3.4352	-20.8811	-15.7670	-21.6401	-18.0854	-14.0451	-15.5873	-2.0919	-5.6057	3.3193	-8.8629
912.0000	5.6504	7.1589	2.7246	10.5743	9.3297	15.9077	-1.3139	-1.0748	-0.6079	-1.9633	12.7369	0.3524	2.4328	8.9221	9.9107	-0.1133
920.0000	19.7133	19.4133	13.0251	22.0806	3.1574	1.5909	1.1613	-2.5920	17.9937	11.2142	26.3144	12.3707	-1.5098	8.6370	7.1834	-4.1895
928.0000	9.7118	9.8959	5.1629	18.3902	2.7538	8.6602	-5.0044	-1.1434	9.0253	4.4328	16.9773	5.4444	-1.8787	6.8918	5.1740	-10.5537
936.0000	-2.9407	1.3904	-1.0220	6.3279	11.8367	20.5710	-1.1940	-9.0677	-3.9620	-3.4495	4.6822	-7.5592	-6.0297	8.2141	-0.4719	-14.2090
944.0000	8.0080	7.6297	3.3999	10.2044	-2.1551	-7.5232	11.7270	4.4811	7.3929	2.9470	11.1277	8.4042	-2.3866	-0.0963	4.7160	-1.3071
952.0000	29.0851	32.8730	19.5212	31.2486	15.8767	13.3448	25.7421	21.1216	29.3839	21.4183	34.2139	22.5601	4.8984	16.6642	13.3151	7.2596
960.0000	21.9858	31.3340	11.0773	24.1669	19.3165	29.8771	7.5993	1.1364	28.2155	21.1594	30.5586	12.8574	3.4372	19.2640	4.9285	-2.0269
968.0000	-14.2865	-14.9279	-22.3857	-8.3835	-20.1362	-8.2907	-27.8594	-17.0538	-15.1987	-18.4516	-5.8835	-8.6426	-1.1219	-12.6936	-5.6285	-8.9364
976.0000	-25.8713	-31.5690	-24.9305	-15.5110	-25.8893	-25.3092	-19.6005	-16.9854	-36.9557	-37.1575	-15.9888	-17.5015	-11.5930	-20.9914	-9.1307	-16.0183
984.0000	-0.5482	-2.4138	-9.7081	0.0710	-13.4305	-19.7691	8.8074	-1.4913	-8.2500	-14.8176	9.4122	4.3142	-5.7148	-9.8223	4.9426	-6.1828
992.0000	20.9501	21.1055	8.0831	20.4006	3.8313	1.9998	12.1438	9.5567	12.2607	4.0207	30.4912	16.5112	5.8784	7.8605	18.1819	8.8868
1000.0000	20.5564	22.1098	16.0657	29.7901	12.1014	12.8070	11.5453	10.8477	18.2800	12.6727	27.1678	13.0654	0.6149	14.2667	9.1863	-0.2011
1008.0000	-3.9081	-3.5632	-9.2312	5.6524	-7.0066	-1.3145	0.6698	5.3575	-0.3068	-3.3502	-0.7146	2.0110	-0.4910	-4.4413	3.2525	-7.2148
1016.0000	-19.8182	-25.8833	-13.8472	-10.6501	-11.5273	-9.1179	-18.4852	-14.7827	-32.5927	-28.9753	-13.7315	-17.5329	-7.0448	-10.1766	0.9497	-11.7468
1024.0000	-0.6286	-6.6945	6.9547	7.6210	-3.7631	-11.9412	-2.7989	-5.6586	-10.8130	-10.8648	4.6860	-4.3878	-12.3886	-1.4623	-3.3225	-15.1386
1032.0000	22.3720	27.7041	16.9379	28.6639	10.3909	9.2248	16.5296	11.1868	31.6334	23.6286	27.0763	16.9968	-5.2882	12.5893	-6.5386	-9.6904
1040.0000	26.5516	36.8848	22.5560	38.5301	22.3732	28.9228	9.3668	2.7979	36.2118	28.1344	36.2894	13.0466	-6.6128	23.5908	-13.8936	-10.9850
1048.0000	12.5242	20.1598	13.9668	28.7556	17.1208	23.6077	5.5125	2.9228	17.6119	14.0131	20.1036	3.0785	-6.2651	16.7047	-14.0534	-6.8503
1056.0000	4.0391	9.4761	7.3404	13.8394	12.3587	16.2860	2.0296	-2.2858	5.0414	4.7446	8.6729	-2.9430	-3.8762	10.4463	-10.9946	-0.1411
1064.0000	11.2457	15.2065	0.9669	11.3056	-5.1568	-4.7583	1.3795	-0.4461	17.3781	9.9822	15.3763	10.7082	0.9333	0.3900	-6.9725	4.6015
1072.0000	5.0978	13.2405	-10.2336	9.0497	-7.2789	-2.5387	12.7801	8.8296	19.6692	11.6885	6.5488	12.5075	5.7260	-3.7880	-4.5381	11.6304
1080.0000	-3.5845	4.2919	5.0959	10.2150	18.0910	20.9165	10.9946	-3.9071	-1.5134	1.7795	-0.9146	-9.9553	-6.3900	10.9357	-13.2265	2.1763
1088.0000	0.7933	4.9981	13.7294	10.7515	18.5207	21.1420	-4.6212	-12.4355	1.3603	5.9270	1.9999	-11.0257	-8.3244	14.0216	-15.0966	-5.5849
1096.0000	2.5026	7.1909	6.5802	4.2288	9.2921	14.5950	-7.8796	-10.2761	11.3903	13.3158	-0.5489	-3.4460	-0.9075	8.0837	-10.8489	-0.3973
1104.0000	5.2904	5.9500	8.7862	2.0900	5.0652	-1.3835	9.7553	6.6908	6.6159	7.4263	1.5878	3.3932	-0.4682	3.0893	-5.1773	5.7961
1112.0000	12.6431	16.5311	7.5528	7.5225	4.2187	-0.1666	17.6110	13.0442	21.9552	18.6743	7.9693	13.5118	4.4759	3.7746	-0.9333	10.6032
1120.0000	7.5927	12.7237	0.4188	0.8955	-5.3502	-3.6293	-3.4200	-7.8672	27.0804	23.0677	1.3553	9.1432	1.7304	-1.4046	-10.4869	1.2138
1128.0000	-19.0695	-26.5794	-24.2342	-28.2600	-40.7665	-46.9045	-17.6973	-4.6432	-10.1935	-11.9796	-27.0355	-0.8579	-2.0675	-31.5156	-12.2285	-6.3159
1136.0000	-33.9400	-38.3010	-32.3024	-31.7361	-31.2768	-29.4266	-14.8855	-2.8660	-28.0515	-24.6878	-39.2565	-14.6418	-4.2323	-28.9465	-14.0637	-9.8768
1144.0000	-20.8421	-15.9116	-3.9574	-11.3633	9.2037	15.8150	-10.7241	-16.4044	-13.7165	-5.4705	-22.4708	-23.1072	-14.2398	1.6753	-28.0744	-20.3947
1152.0000	-14.7698	-13.7052	-3.9932	-16.6270	-3.6863	-8.9717	-1.6433	-7.5546	-9.7646	-5.5426	-18.2592	-12.0308	-12.5407	-7.5102	-25.8547	-13.5189
1160.0000	-13.5264	-14.5836	-16.0457	-15.3896	-23.1190	-28.5616	-0.0748	3.4737	-5.6286	-7.6329	-16.8819	-0.6868	-4.8148	-19.6042	-17.9409	-3.4815
1168.0000	-8.3284	-8.4110	-4.4184	-3.9857	-7.8153	-5.9846	-6.8924	3.2068	0.3455	1.2090	-11.9855	-3.2655	-4.8638	-6.3549	-16.9058	-10.1457
1176.0000	-1.8172	3.0534	10.1410	-0.2753	17.6764	19.2393	4.7287	-2.0147	6.3019	11.2637	-5.6103	-7.0567	-8.5432	10.1088	-16.0497	-14.1832
1184.0000	25.6368	34.4423	33.9819	28.1621	34.1352	27.4890	29.8293	12.4170	33.8397	32.7863	25.0741	11.0909	-8.3828	26.3798	-13.8450	-5.2546
1192.0000	35.3771	40.5951	40.0199	44.7249	27.0871	18.3241	30.6070	26.7072	44.4636	39.8566	32.8866	22.2587	-3.0997	25.8165	-8.7007	3.9760
1200.0000	3.6387	6.5549	11.8665	18.6045	8.4982	7.9663	5.8079	1.9475	13.5182	15.0019	-0.8325	-0.3874	-5.2423	7.6836	-11.2622	-0.8832
1208.0000	-10.8906	-12.4284	1.1170	-0.5393	-1.7716	-2.9841	-8.1423	-8.3206	-7.0395	-1.6542	-16.4692	-11.4307	-6.5861	-2.4781	-12.1031	-3.7634
1216.0000	-7.1398	-12.9671	5.3791	-7.0446	-4.7546	-10.1070	-13.4941	-7.7316	-6.1297	0.2635	-16.7509	-8.3135	-3.0870	-3.9912	-6.9144	-0.9338
1224.0000	-3.1060	-5.9454	-3.6552	-10.7204	-13.0925	-17.0597	-8.4256	-9.2361	6.4958	7.6545	-13.3466	1.4762	2.4948	-9.5618	0.0187	4.1505
1232.0000	17.1662	19.7958	2.3312	10.8334	-7.0162	-11.4529	21.8537	19.8655	34.8954	27.5302	8.1054	25.2170	11.2642	-2.6832	10.9406	16.1593
1240.0000	14.0323	20.4668	10.5631	20.4937	11.6996	13.3002	19.5127	10.1508	30.8925	28.4688	7.5103	12.9756	4.3375	10.3330	4.5103	7.7463
1248.0000	-4.5717	-1.2953	-0.9728	1.7848	4.6155	13.0464	-12.7874	-22.3972	7.0274	9.9762	-8.3860	-7.9939	-2.7459	3.9892	-0.8570	-8.2634
1256.0000	8.7233	10.6010	11.0042	11.7956	10.9629	16.6286	-4.7563	-7.0980	18.0546	18.3372	6.2514	2.6620	-2.1307	10.8004	2.5744	-12.7306
1264.0000	3.2180	5.3333	12.8787	9.5225	13.8797	15.3771	-0.6593	-6.4962	8.4925	10.6838	3.2364	-4.1054	-10.6780	10.6400	-10.1977	-20.1229
1272.0000	-20.0493	-27.7139	-22.8863	-28.5811	-33.7270	-42.6667	-11.0353	-11.1721	-20.3641	-20.9630	-22.9057	-5.6524	-5.9009	-28.1262	-4.8816	-8.8229
1280.0000	-8.8594	-15.8385	-21.6713	-19.7814	-38.6051	-54.0793	12.3161	9.0102	-2.3462	-8.3633	-15.7023	12.2391	0.8969	-31.0633	5.7399	3.8782
1288.0000	-2.1581	1.9781	-7.0352	-0.2149	-8.1675	-8.4461	5.6904	-4.4385	12.1929	8.5038	-3.6995	3.6211	-5.2461	-6.4873	-10.0772	-7.9041
1296.0000	-10.9255	-6.5463	-11.8710	-11.4207	-2.7692	9.5656	-23.4738	-23.6784	-4.8165	-4.4654	-6.3393	-11.8199	-5.4441	-2.0490	-14.4316	-16.6897
1304.0000	4.2093	8.5922	8.8073	-3.3431	16.3820	17.5531	0.2709	-10.9703	3.4837	4.8412	8.2236	-4.4120	-7.4697	10.7992	-8.7625	-14.5464
1312.0000	27.0647	31.4267	11.5778	-2.2093	1.4034	-8.4211	13.4124	1.4072	31.7442	20.9309	31.7452	23.3383	-1.1415	4.0041	-5.8543	-5.6854
1320.0000	3.5954	3.8505	-27.4761	-34.8767	-35.7295	-31.6844	-21.7718	-7.5254	10.7922	-3.3376	10.8115	17.7983	6.4053	-23.5933	-6.1777	-12.8645
1328.0000	-27.3065	-28.5319	-29.8877	-50.0016	-18.1288	-8.9312	-30.7248	-21.5638	-27.4159	-24.3222	-25.1601	-17.1832	-4.2376	-19.3609	-13.1764	-25.7162
1336.0000	19.5332	15.3022	12.7589	-12.7184	-2.2939	-19.3704	14.0285	16.1586	12.1243	6.9579	19.1845	19.1411	1.4310	-1.5752	0.9609	-0.8408
1344.0000	45.1161	41.3040	19.6081	8.0548	-7.3775	-31.3623	38.9407	47.4048	36.2393	18.8133	50.1705	48.2865	10.7676	-0.2381	12.7900	14.2322
1352.0000	-8.0259	-9.8342	-6.9969	-32.8768	-1.2135	-6.9403	-4.0523	-6.2865	-21.7315	-19.0894	-4.2808	-7.7276	-1.9432	-6.1853	-5.1229	-4.3214
1360.0000	-7.8708	-9.0607	2.3893	-36.4604	13.4745	14.9954	-28.5264	-29.2069	-26.8957	-17.9211	-4.2416	-20.7947	-0.9778	6.1101	-7.8411	-3.8027
1368.0000	23.5836	26.6146	14.6293	-4.7601	19.8067	23.0502	-9.1652	-4.4672	6.1399	2.8210	34.7066	7.7923	10.3122	18.2885	6.6378	10.3671
1376.0000	17.5910	18.9858	2.7331	-11.7392	4.4159	6.5513	-16.3648	-14.2842	-0.7807	-6.4300	30.4953	6.5024	10.8062	7.3724	7.9393	14.0307
1384.0000	24.9168	26.9888	10.1718	-5.1946	10.1404	13.9431	-14.3736	-7.4139	11.7526	5.9024	34.4266	12.2777	13.4572	13.0102	9.6150	13.4558
1392.0000	29.3492	32.1568	10.6329	8.2922	9.4959	13.0302	2.9732	10.2872	23.9369	15.3677	35.9563	22.3998	15.9233	12.9032	18.0292	15.0212
1400.0000	12.5101	2.9347	-2.3460	-6.2131	-19.1695	-27.0531	-9.8047	4.7981	-5.8742	-12.4877	17.7703	14.0740	12.2928	-9.2724	21.0926	17.1920
1408.0000	9.6734	0.9788	13.1465	-0.7541	8.0034	4.5276	-14.9600	-3.7944	-17.6702	-14.7083	15.4725	-2.5014	7.3502	8.9313	19.8127	11.5437
1416.0000	24.6891	25.6126	31.8590	18.7313	38.5029	43.0716	-8.4721	-12.6368	5.2581	8.9882	32.4869	-1.7361	5.0447	33.2461	17.6053	6.3836
1424.0000	35.8987	33.7413	28.0170	22.4330	19.1238	18.6741	-5.6198	2.0555	18.1953	12.7231	45.2831	16.9907	10.8060	23.1590	20.9494	12.3133
1432.0000	28.4221	24.8287	17.1170	15.9907	10.6170	13.2214	-6.1209	7.7364	13.4134	8.1344	35.2583	17.1806	14.9460	15.5240	27.4563	13.5143
1440.0000	16.6402	13.9943	9.1572	9.0080	8.9346	19.6561	-22.5971	-8.5094	5.6644	3.7533	22.7554	5.4511	12.2122	13.4885	22.6786	5.1307
1448.0000	9.8104	9.0079	5.5872	9.2771	15.0623	32.8811	-24.1594	-0.4535	-4.4686	-3.7721	18.1890	-1.1165	14.1992	16.5716	19.1108	7.1868
1456.0000	15.8667	18.6417	12.4137	13.5795	11.5190	12.4202	-1.8795	-13.2775	14.2226	12.1598	18.6987	4.8459	3.5487	12.6389	8.7131	9.3221
1464.0000	11.0988	9.8348	0.0041	2.1879	-9.3443	-12.9185	-4.4645	-12.0676	10.7971	5.1171	13.0700	9.6998	4.0433	-2.9120	10.4217	7.2944
1472.0000	20.7447	24.9223	15.2077	16.2331	16.2444	21.5025	-3.1568	-7.5637	20.9584	17.7344	24.6246	8.6003	5.5133	17.2254	8.3613	5.3273
1480.0000	46.0597	53.0039	46.0801	44.2380	40.0848	42.4392	0.7011	-9.1659	43.1586	37.7441	55.2198	15.9560	-0.5435	40.5115	1.9146	-0.3855
1488.0000	22.5221	21.9688	8.6344	7.6438	-7.0919	-9.4262	-17.2889	-16.3717	16.3322	6.3200	33.1297	13.1679	0.9901	3.3175	-2.1275	0.6524
1496.0000	2.6266	0.9619	-13.0515	-12.3135	-25.3633	-30.3086	-17.1872	-26.6801	-0.2029	-8.7172	10.2061	4.6636	-1.2626	-14.9648	-2.1852	1.4995
1504.0000	11.2014	12.2672	7.5967	8.3277	1.7792	2.5035	-11.5191	-18.9106	10.4453	6.5675	17.0727	2.5717	-3.8284	5.9890	-1.9320	-6.4994
1512.0000	-0.9489	2.9865	-2.2933	-4.0061	4.1250	19.3733	-27.7373	-22.3654	7.7341	8.0101	1.1069	-6.3000	-1.2793	5.8211	-7.8974	-16.8091
1520.0000	-8.9068	-9.6915	-6.0849	-14.5016	-12.6794	-11.1043	-26.4286	-31.7481	0.7290	1.1924	-10.4186	-9.2937	-11.4836	-8.5087	-17.5375	-23.3870
1528.0000	20.9775	23.1310	20.9592	20.5449	9.3579	4.2859	4.8223	-4.3105	27.2603	22.6160	22.3310	11.2899	-6.8488	11.9250	-6.7605	-9.4182
1536.0000	38.9625	53.9521	28.2970	41.5528	35.1826	47.7064	13.7810	4.2601	54.9213	45.9659	45.6472	21.7495	3.9128	34.2074	-1.2722	-1.4268
1544.0000	-9.2216	-3.1978	-9.1031	-9.2962	-4.2729	4.9294	-26.7250	-36.7241	-0.8809	-1.9525	-2.6861	-13.6006	-12.0493	-2.0398	-25.1446	-20.6998
1552.0000	-29.3661	-28.4926	-14.2830	-22.4692	-5.8538	-0.9587	-29.8322	-40.4218	-30.1851	-22.3147	-26.4899	-31.7361	-17.4944	-8.5400	-27.2498	-21.8173
1560.0000	9.8234	20.6744	18.2800	21.2044	32.7640	39.7380	12.1054	-6.3623	18.5340	21.1455	11.2233	-3.7097	-5.7272	24.2065	-8.4196	-5.0289
1568.0000	-3.0632	1.0860	-4.5067	-3.0089	-2.5557	0.4619	-6.8352	-16.9317	6.0288	5.0543	-2.9641	-3.5809	-4.4617	-1.6825	-10.2132	-5.8462
1576.0000	-21.6234	-21.7948	-17.4805	-20.4552	-14.5339	-6.8666	-30.9595	-30.7898	-15.4126	-11.3976	-23.4622	-18.5833	-5.8574	-12.0838	-15.1300	-11.1866
1584.0000	11.2917	14.5308	20.9360	12.5694	17.4488	16.7266	-4.0225	-11.5529	16.8277	18.7617	9.6839	-1.5269	-7.7975	15.3531	-13.4734	-9.6557
1592.0000	22.5761	23.4607	23.4847	15.7368	6.9549	0.7933	-5.5966	-8.4824	25.7044	20.5274	25.9171	10.2702	-9.1443	11.4127	-15.9659	-13.8906
1600.0000	1.0056	3.7212	2.5788	6.7517	2.9866	15.4603	-27.4489	-17.5252	4.2361	2.3494	9.2975	-6.6201	-8.7065	6.8330	-18.5669	-24.2203
1608.0000	-8.6254	-8.6290	-1.2850	-2.9060	-0.1290	6.4330	-21.6792	-18.7573	-7.3605	-5.3230	-4.5380	-12.6778	-11.4487	0.6879	-15.9590	-24.0641
1616.0000	5.0259	3.9057	-0.6876	-4.6637	-12.1323	-14.1223	-12.5405	-13.5249	12.2585	7.6779	5.1061	5.6499	-4.5977	-5.9117	-7.5495	-13.1563
1624.0000	4.2281	7.0878	-5.7162	1.2590	-6.1110	4.9208	-18.2181	-9.4930	12.5139	7.3638	8.1764	4.3814	1.8374	-0.2371	-4.4716	-9.6769
1632.0000	-5.6281	-9.9674	-4.8335	-0.8912	-10.1793	-9.6220	-11.5382	-3.1389	-10.1120	-10.4619	-3.0657	-3.6464	-2.8144	-6.2301	-0.9386	-6.6119
1640.0000	4.7135	0.2763	4.9376	8.7100	-3.2465	-7.1772	2.3232	5.7684	1.6008	0.6026	4.0159	4.8622	0.3278	-0.4753	8.8713	-0.0273
1648.0000	-6.7450	-6.2113	-5.7548	-1.5131	2.5666	13.5460	-15.6033	-11.6482	-6.7411	-4.5009	-4.5469	-8.4577	0.7151	2.3947	4.3679	-7.4853
1656.0000	-21.2503	-24.0642	-9.9125	-10.8006	-2.0076	6.0150	-22.4615	-18.9740	-24.9176	-17.4218	-21.1367	-21.5754	-6.1458	-3.8774	-3.5023	-13.2208
1664.0000	-1.5224	-1.3521	10.1887	15.5927	14.4458	18.4399	3.0693	5.7229	0.0690	5.3693	-4.9310	-6.0916	-2.1330	10.5209	1.4595	-2.7023
1672.0000	0.2373	-2.7320	4.6440	11.4096	-0.5253	-3.2110	7.0997	11.7837	1.4141	2.6707	-3.8551	2.1702	0.1196	0.1061	4.5697	2.4457
1680.0000	-8.5443	-16.1883	-3.5251	2.5021	-15.9289	-24.8694	6.5857	9.9681	-6.1963	-4.5522	-16.4410	0.7506	-2.8754	-12.8326	5.4383	-0.6132
1688.0000	6.6500	8.5513	13.4439	23.7659	14.8102	16.8944	14.5304	11.8769	15.7981	17.8225	1.0911	3.7998	-0.8426	11.8417	5.7760	-1.7807
1696.0000	6.6927	6.6093	12.1477	10.8235	11.4125	10.9081	3.2545	0.4523	6.6030	8.1543	5.8354	0.6432	-2.4223	9.4751	2.8023	-4.6102
1704.0000	-5.1734	-12.9329	-2.7676	-7.9249	-14.6486	-23.5839	-5.1950	-4.3270	-10.6953	-10.1356	-7.0855	-1.4821	-4.1728	-11.0880	3.4937	-5.3048
1712.0000	4.8744	0.2434	-1.0459	2.6622	-13.5081	-18.3971	-0.7167	3.9723	5.8820	2.0066	3.3000	9.2395	1.8140	-7.4076	6.9763	0.5545
1720.0000	7.4201	0.5303	4.0456	-6.5851	-10.5336	-20.2797	-1.1005	4.4436	3.2213	1.3757	3.6786	9.4628	3.2729	-6.3261	8.6295	2.7852
1728.0000	-1.6762	-9.7697	1.9580	-16.7160	-7.9912	-18.2696	-5.6604	-5.0855	-9.6469	-7.0443	-5.8823	-0.8972	-1.2505	-7.3145	7.0116	-3.9389
1736.0000	2.6246	-2.1282	-2.2830	-8.7502	-10.8402	-12.0659	-11.7513	-4.4225	2.1764	0.1393	1.5288	4.8745	1.6717	-6.1670	5.8834	-7.1309
1744.0000	6.5653	-1.7784	-1.9337	-11.0882	-19.3403	-24.7623	-11.4572	5.1797	5.9069	2.1809	2.0708	12.5490	6.4456	-11.2958	9.5407	-1.1338
1752.0000	9.9751	5.1310	8.9341	-3.3933	-0.4904	-6.4614	0.4589	7.7106	7.0292	6.5217	6.1501	9.0436	3.7285	0.8633	8.4273	-0.3751
1760.0000	3.0556	3.9387	6.7438	-5.4043	11.5446	12.1480	1.0457	-1.1503	2.0693	4.4023	2.4704	-1.2019	-1.5138	7.0384	0.5756	-8.5489
1768.0000	-11.5395	-19.0390	-8.1027	-27.8880	-12.5205	-22.7009	-0.1140	0.6652	-17.9107	-14.3718	-16.5630	-3.8916	-2.4817	-14.3439	3.8545	-7.5156
1776.0000	3.8446	-2.5777	5.2823	-11.8718	-1.4557	-16.6372	23.0895	23.0437	-1.8686	-0.3731	-3.5531	9.9241	2.9389	-5.2835	13.6518	3.4193
1784.0000	5.0570	5.0676	7.4014	-5.0603	9.5202	3.0249	18.5218	13.2024	6.2535	8.7090	-1.7360	5.7995	3.5789	3.7242	8.0015	5.2648
1792.0000	-25.1307	-32.8244	-24.3050	-35.0298	-27.0844	-33.4201	-10.1393	-5.4789	-29.6974	-25.4897	-31.3642	-10.7784	1.1908	-25.7229	1.2350	3.5585
1800.0000	-14.5981	-17.6557	-8.7715	-16.4446	0.5153	-2.4414	13.0801	20.1917	-22.6997	-16.5644	-18.9933	-6.4509	4.5658	-6.4679	6.8180	8.2945
1808.0000	15.4546	20.2030	25.4875	16.2557	37.5305	31.6655	38.9162	30.4189	8.8008	13.3371	13.4869	6.0105	3.1228	23.9548	7.9692	11.9786
1816.0000	13.2454	12.8123	8.5657	2.2503	4.4474	-6.4091	22.2202	20.0756	5.1824	2.2655	14.0029	12.7694	5.8206	2.7467	6.7215	16.6627
1824.0000	4.8340	8.9815	-5.1199	-10.9783	5.1793	6.4934	14.0610	18.0480	1.2697	-0.7261	6.1367	8.2761	12.3548	1.2874	6.2387	17.9303
1832.0000	2.5548	4.8347	-5.5770	-14.6155	-1.3300	-5.0369	9.9844	7.6077	-1.2712	-3.3864	3.6612	5.7566	6.9628	-3.4436	1.5888	13.4528
1840.0000	0.4765	-5.3768	-11.2544	-18.6679	-24.5278	-35.4350	2.6232	13.0280	-4.6073	-9.5110	-1.4470	11.6691	7.6441	-18.5062	3.3716	13.6315
1848.0000	5.9533	6.2096	7.1621	-4.6562	13.3691	15.2999	10.6988	27.8490	3.9804	6.9191	0.5723	6.7262	11.0274	7.7322	6.2922	9.3473
1856.0000	6.4656	6.4733	15.0573	2.8058	22.7190	23.6286	10.7914	24.7112	-2.7955	2.1057	5.4798	0.6208	4.8454	14.7603	2.5016	3.8542
1864.0000	-0.1970	-3.2116	-2.4881	-4.3462	-2.9678	-3.7457	4.0648	24.4311	-9.6028	-9.9680	1.0748	4.3010	7.5568	-2.9106	2.2457	9.9889
1872.0000	0.1473	0.2708	-7.9675	-0.3834	-2.3921	3.5970	12.6546	40.3318	0.5979	-0.8086	-3.0609	11.1617	16.3090	-2.9035	8.7018	17.7973
1880.0000	-4.6786	-6.1372	-10.9238	0.9338	-3.8970	1.5045	16.2056	43.3950	-6.3747	-6.1375	-9.0560	8.6078	17.3519	-5.1162	14.7049	21.8808
1888.0000	-12.9404	-16.3139	-15.2448	-6.6358	-9.8670	-6.6814	2.9484	20.5472	-19.9228	-17.8071	-14.5844	-2.5056	10.8486	-9.8548	10.4108	17.8303
1896.0000	-13.1867	-18.0474	-16.5331	-9.4344	-18.0993	-17.1665	-5.8586	11.8497	-20.1224	-19.9452	-12.9386	-2.8964	6.3705	-14.4561	3.0409	11.2129
1904.0000	-12.4719	-15.7550	-16.8861	-7.4146	-14.5427	-9.6350	-5.9114	13.9264	-17.4551	-16.8464	-13.0403	-2.4297	9.9902	-11.6490	5.9187	14.9723
1912.0000	-3.2477	-4.7742	-6.2161	2.0507	-3.5267	1.1380	-1.9466	10.7480	-6.5604	-5.3683	-5.4743	0.4611	11.6804	-2.1070	11.3578	19.4519
1920.0000	6.9802	2.9407	1.0894	10.8831	-8.7959	-13.4136	8.9097	20.2422	4.4826	1.8677	3.1865	11.8481	11.1593	-3.9843	13.4461	22.7918
1928.0000	7.0980	5.9621	1.6422	20.2298	-4.8708	-7.5832	14.6028	21.6622	6.4928	3.1668	5.4849	11.0676	9.3385	-0.8583	10.6653	23.9528
1936.0000	-3.5664	-3.7493	-4.3226	18.4277	-6.1550	-3.6690	-0.2496	3.0193	-6.9061	-8.5130	0.5911	-2.5139	1.2341	-1.9106	0.7220	13.0692
1944.0000	-27.2417	-31.5679	-22.1421	-7.6918	-20.3583	-15.5901	-23.4506	-20.8859	-34.2106	-30.1361	-24.2733	-21.7077	-3.8429	-16.0703	-3.7227	3.4438
1952.0000	-24.9346	-26.6739	-16.9273	-2.0055	-8.1193	3.2577	-24.4299	-21.7662	-27.7835	-21.0623	-24.4892	-23.3444	-0.9111	-6.8303	0.8151	3.5992
1960.0000	-1.2430	2.4247	4.5927	25.0579	12.3660	27.4345	-13.4466	-7.5405	1.5018	4.0378	1.6392	-9.1394	0.8753	13.1244	-0.5655	2.2459
1968.0000	11.8624	18.1434	15.4149	27.5507	19.2836	30.8209	-8.1908	-9.8507	20.4945	20.9120	12.5066	-0.6062	0.8311	19.6085	-2.7217	1.4467
1976.0000	33.6911	42.4175	30.7639	44.1264	27.4189	35.1922	9.1342	7.2679	50.5642	46.0787	30.5981	19.0005	6.6239	28.8760	3.0221	8.6875
1984.0000	16.0034	20.8101	13.2685	26.2581	9.9415	16.2443	2.3807	5.4761	29.6434	27.0164	11.7547	10.8496	6.0460	12.7549	0.9785	9.2418
1992.0000	-27.3222	-31.6696	-21.2873	-21.4493	-18.4464	-14.4451	-25.3538	-26.1593	-27.1706	-20.2487	-32.6344	-20.8784	-0.8545	-16.6313	-0.2186	2.0243
2000.0000	9.3245	10.7913	14.1778	22.5608	17.8150	24.3000	1.7145	3.3137	10.7990	13.3918	7.0836	1.0510	4.9343	16.0608	11.7025	6.8830
2008.0000	35.2465	42.8212	34.6615	52.4615	35.2806	41.1197	22.1531	18.6482	43.0242	38.9860	36.5276	19.2007	5.4617	33.6092	11.8165	8.2402
2016.0000	-13.9833	-15.3504	-14.4611	-4.4550	-12.6181	-8.6125	-12.2538	-19.2242	-11.1012	-9.9329	-14.1384	-9.6955	-2.5017	-9.7245	4.0274	-3.0565
2024.0000	-20.3343	-19.7800	-14.5626	-8.5287	-3.3008	8.2877	-20.5405	-26.0304	-14.7764	-8.4803	-23.3425	-18.8449	-1.6874	-4.3718	3.0842	-5.9588
2032.0000	-3.4334	-3.1015	2.2675	4.9296	0.8287	3.4794	-10.8073	-20.6610	5.2778	8.5489	-9.0566	-6.9414	-2.9299	1.7982	0.5938	-2.3792
2040.0000	-7.1498	-11.8733	-8.2084	-1.5529	-19.3924	-23.4997	-8.6900	-13.4102	-1.5906	-2.0156	-12.3969	-1.4047	-1.7117	-13.0923	4.1967	1.0897
2048.0000	6.7405	11.1014	13.9875	22.6556	20.0698	27.6359	-2.1507	-12.9668	12.4582	15.4619	5.9236	-4.6603	-1.8480	17.4982	4.1999	-1.1554
2056.0000	-1.9572	-4.3588	7.5790	3.3745	1.4833	-0.8964	-17.0730	-28.3882	-4.3553	-0.6921	-2.4913	-11.1999	-7.9050	3.0596	-3.8147	-5.1196
2064.0000	-6.9594	-14.3320	-8.3788	-8.9970	-22.0233	-28.4866	-13.7507	-11.2731	-9.9237	-10.2626	-9.9312	-1.9274	-0.0386	-15.0289	3.4989	3.8256
2072.0000	15.7734	21.8213	17.3108	25.8744	23.8577	28.6014	14.3822	4.6069	21.9900	21.8295	15.2722	6.4335	2.4149	19.9576	8.4218	4.2042
2080.0000	-1.9072	-1.6273	2.1145	1.3569	2.4667	0.8245	-1.7646	-13.7321	-2.2770	-1.3101	-0.0580	-5.4855	-7.3650	1.5027	-2.2785	-8.9593
2088.0000	-17.3204	-20.4368	-14.1746	-15.6884	-14.4781	-14.0210	-17.4612	-19.2697	-20.5727	-18.4139	-15.2293	-13.7205	-7.0792	-12.4496	-7.4104	-10.0120
2096.0000	-8.0240	-5.3351	-1.5585	1.8851	5.0489	5.2990	4.2072	-6.1789	-7.9223	-5.1846	-6.6310	-9.4176	-6.2981	1.3762	-7.3296	-2.1596
2104.0000	-0.9659	-2.9479	0.1286	0.4872	-8.4723	-20.7581	12.2036	2.2762	-3.8265	-5.1242	-1.5383	1.7491	-4.4630	-7.3796	-4.3658	6.9382
2112.0000	24.4649	28.1355	22.8560	24.7646	15.5787	10.4289	12.8310	3.6652	25.6061	21.4809	26.2290	13.0984	0.6871	16.2870	0.0897	9.1172
2120.0000	18.3331	24.4227	22.2143	19.4340	24.7855	24.7220	6.4160	-8.5069	17.8264	17.0122	23.0771	2.5981	-4.5232	21.1955	-4.6034	-1.8104
2128.0000	-2.5781	-4.8494	3.5997	-4.9153	-1.2473	-6.9893	-13.0566	-24.7627	-12.3664	-10.9581	2.8743	-10.4785	-9.9507	-0.3574	-8.3101	-7.1455
2136.0000	9.1224	8.4961	10.9685	12.9528	3.3525	-0.9317	-7.3616	-18.9521	1.1028	-1.1852	16.8822	-1.8817	-7.4419	6.5822	-3.2064	-2.8392
2144.0000	1.7680	1.3349	-4.8559	4.5612	-11.5675	-17.0695	3.0948	-9.1955	0.2813	-5.1792	7.6527	3.4009	-5.2642	-6.8724	-0.0472	-1.7168
2152.0000	5.8841	6.5543	1.1607	11.5022	-6.0713	-11.3652	6.8565	-6.5583	8.2432	3.2580	9.3518	5.5908	-5.0461	-2.1902	0.0855	-1.0715
2160.0000	31.0576	38.9071	37.3880	45.0098	37.8933	35.2895	21.7089	-0.2499	29.5404	27.0398	38.3562	8.6833	-6.7579	33.3941	-0.4566	1.0546
2168.0000	22.5212	26.0327	29.5491	27.3044	27.7026	20.6905	14.3929	-5.3045	13.6627	13.0156	29.2551	3.4826	-6.4662	23.7478	0.2457	2.7562
2176.0000	11.6997	10.9096	10.3861	10.6535	2.1844	-3.9391	1.1365	-9.2538	8.0998	6.0487	12.9747	4.6918	0.2308	4.8627	5.3011	8.9104
2184.0000	12.3539	16.0308	8.7445	14.2330	7.0628	6.1946	2.1532	-13.2456	13.8806	11.2448	14.4583	4.2085	1.5332	8.6341	4.3532	10.8920
2192.0000	14.0929	15.0065	13.3797	14.7750	5.8503	3.6121	-8.7459	-19.4480	9.6864	6.9920	19.4369	1.6672	-2.4536	9.6438	-0.6275	4.2408
2200.0000	21.7592	22.8679	17.3630	22.9020	6.7536	6.6692	-5.4379	-5.2747	20.8050	15.3177	26.8181	10.6239	0.6708	12.3880	0.1624	2.8352
2208.0000	17.4565	23.3860	8.1975	11.3656	4.0801	3.0809	4.9819	-8.7405	25.9059	18.9180	20.9488	11.9581	-1.4155	6.9302	-4.4419	-0.7550
2216.0000	4.0126	2.9533	-1.9050	-10.7179	-16.4565	-28.5302	-2.8731	-20.1235	8.5610	3.2590	4.4648	5.2279	-8.6091	-11.1054	-10.2647	-7.8824
2224.0000	1.6684	-1.3123	0.7121	-5.9939	-11.1721	-22.6394	1.7914	-4.7785	-1.4437	-4.3408	3.2789	2.8511	-7.0251	-8.1209	-8.2812	-4.5111
2232.0000	5.5108	8.0566	10.5092	5.8406	11.8079	8.3220	4.5251	-4.3209	-0.4427	-0.4431	11.3981	-2.8630	-7.4029	8.7929	-10.1716	-4.6990
2240.0000	-3.4715	-1.9435	7.4924	-2.9404	12.0002	9.1984	-0.4049	-9.6525	-9.2528	-5.0908	-0.6071	-11.0256	-9.5112	6.5608	-12.6012	-8.4549
2248.0000	-2.1181	0.8116	3.8563	-4.1157	9.1090	4.9344	9.7332	0.0424	-4.4690	-2.3877	-0.5778	-4.9546	-6.2529	3.5166	-10.7659	-3.1155
2256.0000	12.6738	15.0089	10.7466	5.9191	3.3557	-4.2505	9.3462	4.3808	12.7665	8.5013	15.7137	8.5573	-4.3097	4.0736	-12.2617	-0.5201
2264.0000	-0.8506	0.4262	3.0294	-6.0302	1.1915	-3.5929	3.4787	2.3273	0.4386	1.2128	-2.1423	-1.1821	-4.3766	-0.7895	-14.5388	-2.1913
2272.0000	-7.8132	-3.0924	5.4674	-7.2782	18.6678	18.6584	7.4309	-1.4714	-8.7223	-1.5562	-9.4900	-12.9357	-6.0075	8.4314	-13.9203	-2.9431
2280.0000	11.0653	13.5032	20.9604	12.5861	19.6988	14.8745	10.1134	6.1839	9.0699	11.0844	11.2080	0.7474	-5.6350	14.9212	-10.9303	-2.2339
2288.0000	14.4446	17.8192	18.3753	19.2498	15.9546	11.1916	20.3775	17.2384	17.9440	16.9984	12.8488	9.0683	-1.5064	12.7519	-4.9933	3.4960
2296.0000	7.5327	10.9044	13.5920	11.2512	17.3645	13.4435	20.9391	13.9470	9.5156	11.7297	3.9835	3.4460	0.2348	11.1948	-0.3643	7.1049
2304.0000	-5.6286	-7.4787	0.0938	-10.5578	-0.0817	-6.1921	7.0699	6.5501	-6.4647	-2.5798	-11.5790	-2.6638	0.0232	-3.7019	-1.7960	3.8421
2312.0000	-16.6539	-15.2336	-14.7104	-22.4657	-4.0935	-3.7997	3.9240	-0.7400	-13.9814	-9.7650	-21.0363	-8.7209	0.5048	-9.3570	-2.9976	1.3000
2320.0000	-6.9556	-6.1741	-6.2559	-16.3909	-0.9118	-1.6537	-0.0633	-3.2513	-6.3606	-3.6597	-10.2245	-4.2721	1.9196	-4.1106	-1.2909	3.2900
2328.0000	10.3917	8.9340	6.4062	-6.7626	-2.0771	-10.2335	5.6719	8.0586	9.5378	7.1322	7.7841	10.5421	3.2015	-1.1190	-0.8863	4.9145
2336.0000	17.8132	22.1071	11.2076	1.9987	13.6984	9.5604	22.7610	23.2511	16.9594	12.5805	20.2942	15.8842	3.9148	9.5411	-0.3167	2.4289
2344.0000	4.0180	7.1890	3.2407	-14.5630	12.7760	12.8138	11.4440	19.1722	0.5923	1.5420	4.4338	4.1551	4.0882	5.6043	-4.9508	-0.5604
2352.0000	-5.6628	-5.8264	-2.3148	-25.5379	4.4200	4.2855	-2.8803	8.4587	-9.7856	-5.2306	-9.4069	-3.9703	4.4419	-1.2788	-6.9407	1.5488
2360.0000	-1.4612	-1.9104	-1.9002	-16.5974	3.8200	4.4755	2.3500	15.7423	-6.2222	-4.0442	-3.4173	1.3032	6.8229	-0.2774	-0.0474	4.2105
2368.0000	-11.9739	-13.5400	-21.2726	-31.8414	-18.2544	-16.5657	-4.8308	12.5992	-11.4086	-13.1521	-12.8293	2.1974	5.3461	-17.4766	-5.4291	-3.7574
2376.0000	-22.5944	-21.9582	-29.9851	-42.5688	-20.6062	-13.7482	-16.5663	-3.9360	-18.6930	-18.9442	-21.3970	-7.9691	-0.8071	-20.8564	-15.2595	-16.5389
2384.0000	-22.1361	-20.1298	-18.6782	-37.2457	-3.8678	4.3758	-16.5977	-6.7582	-21.3510	-16.7735	-20.8606	-15.7128	-5.1515	-9.4090	-19.8071	-21.3304
2392.0000	-11.5698	-9.0492	-14.2453	-30.7400	-9.3764	-7.5685	-7.0778	1.1107	-5.5199	-5.8190	-12.0488	-3.2889	-3.7179	-11.3756	-22.1344	-15.1754
2400.0000	10.4751	16.4488	0.3941	-10.4575	3.0897	3.2863	11.8711	15.9800	19.9582	14.6186	10.3983	14.2756	2.7205	1.1368	-11.0570	-5.5735
2408.0000	11.2833	18.7694	8.9372	-11.6729	19.5872	19.5603	19.3344	18.4926	18.3271	17.8227	8.8731	10.0363	2.4967	10.6285	-8.6904	-5.6176
2416.0000	1.0269	5.3986	-0.3021	-24.5915	7.1916	2.9459	15.7278	15.1301	6.8205	7.8345	-4.2328	5.4932	1.7555	-0.6513	-10.8752	-3.0741
2424.0000	8.1718	10.5617	3.4131	-11.7418	7.0684	3.1868	21.6616	29.6568	12.1526	11.0627	2.8895	13.7023	7.4956	1.6301	0.0016	4.2237
2432.0000	-2.9635	1.1367	-8.3378	-19.6944	1.2320	3.6142	12.8112	21.3159	5.4515	4.9685	-7.1419	6.5068	4.8447	-4.0324	-6.2982	-3.7171
2440.0000	-35.4256	-34.7843	-40.8365	-49.6042	-26.3579	-16.8682	-18.0822	-9.3213	-25.5244	-21.9375	-40.8431	-14.9836	2.2351	-27.7699	-10.4643	-9.4053
2448.0000	-38.6975	-42.8288	-38.2350	-47.8484	-25.4228	-17.9371	-18.0036	-5.2765	-34.3351	-26.9026	-47.5093	-18.2658	4.1215	-27.7337	0.1344	-5.8567
2456.0000	-15.6740	-17.9848	-14.5647	-29.4776	-7.4898	-11.7435	13.5362	18.3431	-13.2846	-9.2299	-23.9241	-1.4551	2.4323	-13.7619	2.1901	-3.5566
2464.0000	0.8244	-1.4276	-5.7909	-14.7443	-5.0903	-11.9381	22.8941	29.7699	1.4657	0.3762	-5.3008	12.6756	8.4098	-8.2250	11.6347	6.4780
2472.0000	7.1893	3.9534	-2.6521	0.2579	-7.1561	-7.6975	13.5837	37.3454	8.6592	5.2120	2.0637	17.8654	14.2523	-4.8971	13.6757	12.3443
2480.0000	6.9955	5.1766	3.2690	3.9546	-0.9330	-1.7511	11.6418	33.5416	8.4299	6.8623	2.1470	13.1735	10.0251	-0.2430	4.0585	10.3734
2488.0000	5.3343	3.8980	10.7150	5.0449	11.9099	9.5109	15.1782	27.0994	3.2141	6.8483	-1.4348	5.5176	7.6870	7.2179	7.1376	11.6653
2496.0000	-2.5452	-6.0034	2.2733	-1.2700	4.1420	-0.2142	20.1147	35.9713	-6.5292	-2.2181	-10.7513	4.4729	9.3918	-0.7870	9.3897	15.7811
2504.0000	-9.7308	-17.3460	-7.4720	-10.3327	-9.9606	-20.3268	21.4569	35.7430	-18.9039	-15.1168	-18.1053	3.5736	10.0085	-12.6651	14.6233	21.2554
2512.0000	3.0106	-0.5142	6.4701	8.9941	8.3360	5.3710	19.6110	29.8771	-3.3997	-0.1443	-2.3610	5.7006	9.7879	4.4612	18.6293	16.5253
2520.0000	4.6888	6.0284	2.9582	12.3404	10.8621	17.7901	13.3538	29.1801	4.7982	5.5537	2.4363	7.1431	11.5940	7.9726	12.7089	12.5423
2528.0000	-13.1742	-20.3887	-17.1150	-10.1246	-19.3352	-21.0625	1.8344	18.2968	-19.8608	-18.5678	-17.4712	0.3670	10.6981	-16.4700	15.8198	17.0737
2536.0000	-17.5657	-26.2218	-16.1023	-4.0417	-19.6393	-20.1473	-3.9701	11.9374	-24.7777	-21.7393	-21.3233	-5.7305	5.9595	-16.0136	13.9123	11.2525
2544.0000	-11.5775	-12.5746	-6.4937	13.2752	0.0542	8.5139	-0.1723	11.9893	-12.1625	-8.5767	-12.7712	-7.4609	3.7561	-0.2331	6.0261	7.6113
2552.0000	0.7420	0.8914	3.9402	26.1664	4.7494	9.5109	6.4918	12.6269	1.2283	1.7190	0.9787	0.1632	2.5777	5.9361	6.5817	9.2828
2560.0000	1.1077	5.3074	-4.4038	24.0767	0.6848	14.7040	-3.9940	5.2140	7.7371	3.8968	6.5526	1.8947	2.5830	4.8055	0.9153	0.1571
2568.0000	-21.5482	-17.5684	-32.7746	-5.0988	-21.6334	-2.2991	-23.5392	-17.9434	-11.0714	-14.3827	-15.6028	-10.3768	0.9992	-15.0191	-3.8952	-6.4439
2576.0000	-25.8829	-31.2629	-35.4673	-15.4539	-40.6700	-36.2434	-21.1270	-13.8201	-21.4883	-24.1978	-25.7752	-7.8495	0.4655	-30.1770	1.6418	-0.5032
2584.0000	-1.5611	-4.7700	-6.7346	9.4340	-13.6938	-8.5705	-10.7524	5.4211	-0.0667	-2.9661	-0.9734	3.3618	4.5411	-6.2506	4.0837	3.7044
2592.0000	15.3016	19.2202	17.2771	31.3450	17.4414	27.1305	-5.0633	0.5939	18.5997	16.6250	20.0141	3.7516	-0.7910	19.1660	-1.8092	-4.5507
2600.0000	1.6465	2.8211	6.2604	16.1596	5.0880	9.6128	-6.9577	-4.1716	2.0353	1.7152	5.9230	-3.8541	-5.9316	6.7046	-8.3592	-8.0191
2608.0000	0.2989	0.4423	3.5194	8.9190	3.7439	8.0204	-6.3274	4.9114	-3.1071	-2.2719	2.5717	-2.8379	1.1258	4.6329	-5.3160	3.6377
2616.0000	32.4968	37.0738	33.9348	41.9271	28.4116	27.8504	17.2168	20.6133	31.8835	28.3829	34.8324	16.7941	4.7225	27.8817	2.0833	13.5460
2624.0000	22.3659	24.5200	18.4468	30.6084	9.3486	7.4278	9.5602	10.0880	22.8838	17.3269	25.6285	14.2147	2.6979	13.2104	2.1135	10.4481
2632.0000	-12.7766	-16.1686	-16.9676	-2.5794	-20.7929	-15.2282	-19.4990	-9.4694	-13.4513	-14.9477	-10.1714	-6.1732	0.6735	-13.3709	-0.6104	0.4703
2640.0000	-4.6286	-5.5148	-5.6150	10.2021	-6.4463	-1.1424	-5.6161	1.7273	-3.3643	-4.2337	-3.1469	-1.8680	0.8793	-2.7864	1.6529	1.4744
2648.0000	5.3598	7.2478	4.4492	16.3879	4.8275	8.2805	0.4847	-2.9135	6.5534	5.0101	8.0721	1.3294	0.1162	6.3692	3.4042	2.7187
2656.0000	12.4467	14.6678	13.8842	27.6228	11.9382	15.7493	1.0946	-3.9556	14.6781	12.6534	16.0800	3.4495	-2.7170	13.6329	3.7173	-3.1222
2664.0000	28.6688	33.2142	29.2409	46.8614	24.8415	27.6381	15.3294	14.4824	32.2393	27.8378	32.2689	15.0233	0.8936	25.7417	5.4393	3.6447
2672.0000	20.1563	22.6716	19.0345	31.9645	14.8637	19.2885	1.9424	5.7378	21.3579	18.1682	23.0918	9.6220	3.4880	17.5680	4.9631	6.3600
2680.0000	13.9077	15.4755	14.2963	25.9323	13.9360	16.4993	8.9264	8.1007	14.6985	13.7473	14.0627	7.1472	4.2330	13.9575	11.4278	8.2638
2688.0000	7.0004	8.1971	4.2028	15.8772	5.9247	5.1905	12.3573	3.8177	4.8078	3.5130	8.1713	4.6460	4.6761	5.7411	14.1871	13.9942
2696.0000	-25.8460	-35.3889	-29.5434	-20.9449	-38.2029	-38.6584	-28.9250	-20.3551	-34.1244	-33.7955	-24.0979	-13.6661	-0.4923	-28.3817	2.7625	2.5467
2704.0000	-26.1691	-38.9818	-28.5422	-20.0612	-39.8669	-43.4046	-18.1769	2.9662	-35.9640	-34.8410	-28.3184	-8.3695	3.2830	-30.9337	7.3055	6.0756
2712.0000	-4.3082	-5.3405	-1.5983	4.9597	6.6744	6.7977	15.8281	20.2029	-13.1748	-10.6416	-3.1032	-1.5449	4.4552	2.1178	11.3645	9.9126
2720.0000	-8.4219	-5.2279	2.2786	4.5073	19.1666	27.0024	1.6733	-1.0618	-14.9649	-9.1352	-3.5511	-14.3577	-4.7532	11.1846	-1.7956	-7.5006
2728.0000	2.3842	1.2439	1.6502	4.6218	0.5537	1.3876	-1.3662	1.9446	-1.0538	-1.8926	4.8047	1.1456	0.4377	1.6546	3.3878	-0.8003
2736.0000	17.2551	15.7031	13.7896	14.5981	6.7110	3.0950	5.8628	8.0230	10.7898	7.0408	21.1918	11.0551	2.2805	8.7961	8.6710	2.6904
2744.0000	16.1019	17.2858	32.6998	21.1029	37.0694	38.7195	-3.0666	-7.7041	3.5983	9.1575	21.6879	-7.0495	-7.1378	29.9712	-0.6618	-10.5101
2752.0000	33.9304	39.1178	43.8894	32.7307	44.4309	46.6209	0.4564	-6.0145	26.9780	28.0369	39.9039	5.1625	-2.7545	39.3238	-1.0040	-4.0268
2760.0000	44.8704	51.8547	38.8899	39.4886	30.7542	30.0474	12.4938	9.2497	45.6133	37.0809	52.4643	24.0109	2.0833	32.1159	-0.6949	2.5982
2768.0000	45.7038	52.3704	44.8882	42.3357	37.7248	33.2197	19.0043	7.7341	43.4755	37.2753	52.3876	21.4936	-0.1445	36.1314	1.9618	4.0986
2776.0000	51.2643	60.8701	52.1451	47.7464	50.3252	49.2466	18.4521	-1.7227	51.0724	46.4140	57.4439	20.2411	0.8337	46.1138	7.1341	4.7567
2784.0000	26.6401	32.2038	26.9841	25.4707	25.8983	24.7732	5.4881	-14.8908	25.2927	22.1571	33.1092	7.3650	-3.9554	24.4267	3.0287	-2.1869
2792.0000	-6.3601	-10.9455	-4.8042	-9.5761	-11.7630	-19.2081	-13.5098	-30.7021	-15.4980	-15.4267	-1.5494	-9.4717	-9.1744	-8.4333	1.2328	-7.1353
2800.0000	-15.8273	-19.3165	-17.5264	-18.9221	-19.2591	-18.1766	-26.6168	-40.1047	-17.9284	-17.1570	-12.9234	-14.2309	-6.6638	-14.4278	1.4258	-10.5919
2808.0000	-22.1624	-25.6848	-23.6200	-30.4006	-24.7321	-25.2080	-32.5998	-53.2422	-24.2796	-22.7615	-19.0153	-19.6757	-9.9332	-19.9361	-2.8749	-13.8448
2816.0000	-40.8558	-51.2027	-41.4359	-57.5386	-47.4503	-56.9808	-40.3888	-64.3951	-52.2337	-49.4620	-36.2318	-29.5359	-16.7920	-40.9007	-6.3332	-21.2079
2824.0000	-44.8657	-50.4312	-47.4491	-50.4181	-44.3558	-43.3203	-40.9861	-62.2466	-47.9243	-46.0047	-38.4239	-31.3060	-17.0148	-38.4279	-9.8586	-27.2087
2832.0000	-7.6047	-3.2716	-7.8086	-2.8983	-6.0535	-2.0254	-20.8588	-46.9289	-1.5034	-3.7082	0.8432	-13.3994	-16.6774	-2.9462	-15.2882	-23.6812
2840.0000	17.5054	24.9649	19.2958	19.4744	16.9178	17.1263	-4.9072	-34.1426	24.9689	20.8686	25.4895	0.1567	-15.6969	17.3755	-13.6785	-21.3596
2848.0000	4.6048	10.6489	-1.3150	4.8771	1.5076	2.9430	-5.2075	-40.8481	11.6084	6.5178	13.4619	-2.8733	-13.1551	3.2192	-1.9994	-19.7015
2856.0000	-5.1006	-1.2099	-11.1612	-3.4933	-6.9319	-6.5580	-3.4694	-39.0218	1.6203	-2.4113	2.2342	-5.9598	-13.5919	-5.4674	1.3432	-21.2920
2864.0000	-9.0812	-8.4835	-9.2645	-5.1544	-9.0221	-8.3088	-8.0076	-30.6734	0.9423	0.4457	-9.0526	-7.2775	-11.6036	-7.3796	0.0339	-21.3855
2872.0000	-12.7999	-15.8015	-16.9726	-7.2085	-20.6691	-19.4422	-14.6661	-32.0412	-4.6866	-5.9179	-13.7380	-6.7003	-6.9658	-14.9043	9.0221	-14.7744
2880.0000	-11.0068	-7.9450	-4.7719	-0.7923	9.2622	17.7468	-4.9622	-28.1870	-1.9237	3.1092	-12.8709	-13.6918	-7.7003	4.2526	9.4680	-18.8670
2888.0000	0.6022	8.4976	16.6795	7.6821	34.4515	41.0776	2.9914	-30.1532	11.9448	20.4385	-3.4171	-14.4492	-11.7684	22.5583	0.7481	-21.3184
2896.0000	10.1914	12.7870	15.5476	9.6000	14.8799	11.0862	4.1252	-22.3014	15.4615	16.4288	9.2442	-0.6667	-8.9135	11.9353	3.0066	-12.0183
2904.0000	3.0055	2.4644	4.8887	3.8197	4.4371	4.9004	0.2696	-9.2708	9.8098	11.6558	-2.7142	0.9679	0.2795	3.6934	11.4452	-3.6230
2912.0000	-0.7475	-6.0279	-5.3999	-4.6760	-17.0413	-19.6943	-12.1958	-18.8751	8.0344	7.6949	-9.9258	3.3988	4.0589	-10.3377	16.3433	3.1638
2920.0000	0.8482	-1.7812	-5.3523	-1.0914	-12.5891	-16.1164	-2.1723	-17.7825	8.7057	6.9333	-4.7306	4.3211	1.7462	-7.9609	16.7755	2.2246
2928.0000	5.2911	11.2765	10.7982	14.1903	22.2014	23.8351	17.0358	-13.1142	15.5853	19.2931	0.1550	-1.9598	-2.2173	14.7330	14.0043	-0.5017
2936.0000	4.3532	2.4771	5.4165	11.1600	-1.6240	-8.2426	4.5344	-16.5261	6.9489	6.8574	1.1702	1.1490	-2.6818	0.4283	13.1539	4.0718
2944.0000	-2.9505	-7.9869	-1.2347	6.9517	-5.9640	-5.8350	-5.2199	-5.4193	-2.9161	-0.3797	-8.7257	-1.6321	5.0659	-2.8913	18.2855	9.4266
2952.0000	11.8982	14.7454	18.8920	24.2947	25.1587	31.2791	7.9599	1.7064	19.0503	24.1350	3.3697	2.1735	8.0709	20.5607	19.0483	12.5368
2960.0000	14.2709	16.6811	14.9449	19.9861	13.1696	10.2429	14.0338	-0.7681	19.6919	19.7450	9.3554	7.6187	4.0873	11.9006	13.0383	13.5277
2968.0000	1.5340	3.0570	-0.4560	4.9344	-0.1019	-2.2081	8.1155	-6.4867	8.2212	8.9218	-4.7120	2.2914	5.0927	-0.2254	11.5667	15.6192
2976.0000	-1.6801	-2.6672	-9.9574	-3.7430	-18.4883	-20.7533	-3.9548	-11.1132	10.9408	8.7923	-10.5914	5.6722	6.6669	-12.2188	8.1047	14.1907
2984.0000	-10.9100	-15.7055	-17.1734	-9.6820	-26.3816	-27.7995	-7.1208	-1.4158	-0.4880	-0.4368	-22.6240	2.6753	9.3295	-19.4592	10.0511	15.9973
2992.0000	6.0189	4.1132	8.6224	17.6725	5.0162	8.0011	2.5183	10.4295	13.1711	16.6396	-5.9921	5.4749	13.0885	6.3418	18.3252	22.3544
3000.0000	9.2980	8.9759	10.5645	21.7348	4.5821	8.9019	-1.2599	5.9609	19.5802	20.3806	0.6862	6.9572	7.9363	7.7441	9.8455	11.7922
3008.0000	-13.7353	-17.5714	-12.6980	1.8775	-17.6199	-14.3452	-6.2072	1.9638	-1.9924	0.2782	-24.0901	-2.5947	3.8540	-13.0034	6.2029	5.2420
3016.0000	-3.6441	-11.5822	-5.7255	16.2038	-22.2256	-24.9497	1.0952	16.8342	2.7553	1.3122	-12.5894	7.8751	6.4097	-13.1310	13.2473	12.3487
3024.0000	-13.0356	-20.4696	-12.9517	8.2677	-23.1137	-23.3286	-1.9879	15.6990	-10.2772	-9.8314	-19.5415	0.2541	4.7393	-16.0565	8.4330	10.2179
3032.0000	-24.7320	-30.0017	-20.9465	-2.1301	-20.3483	-15.2681	-8.8418	4.9685	-22.9112	-18.5205	-30.6172	-11.5840	3.7128	-16.8880	5.1056	9.2740
3040.0000	-16.5612	-21.2631	-15.1442	7.9620	-17.8834	-11.1685	-8.9517	14.5647	-16.7678	-15.9025	-17.3585	-5.7418	2.7534	-12.2670	-0.4061	4.7009
3048.0000	-17.4150	-19.5004	-7.1086	9.6536	-2.4456	2.3524	1.5923	16.0292	-19.9982	-15.4496	-17.5120	-11.5816	-3.2221	-3.8170	-5.8953	-0.6917
3056.0000	19.5472	19.0502	27.5380	39.2199	18.9629	13.1162	22.9293	29.2107	16.0890	15.5046	19.0118	11.1687	0.2182	17.9593	2.5649	10.2450
3064.0000	26.2539	24.4786	28.0196	41.3562	15.2615	9.9899	24.7293	43.3022	22.7392	18.7603	26.2260	20.7808	5.2522	16.9988	6.0262	11.7644
3072.0000	-8.9080	-11.5374	3.2715	9.8445	9.1509	7.3663	16.7915	25.6959	-18.2002	-12.8126	-8.9868	-6.7655	-2.1996	3.1413	1.7533	2.0737
3080.0000	4.1681	3.5636	13.8087	12.7911	16.9990	11.9250	20.9419	27.7661	-7.6584	-4.9708	7.0624	0.3170	-1.9550	10.5668	-2.1217	3.5092
3088.0000	13.6261	13.1284	15.0871	8.6508	14.9798	11.7369	16.4467	34.7108	2.8002	2.4306	15.6003	10.1879	6.8535	11.2903	0.7589	10.6041
3096.0000	12.7857	11.8314	17.5223	10.6737	22.6951	20.9869	16.6563	32.3962	-4.5467	-2.4410	16.6569	5.5922	7.6483	16.3673	8.0667	12.5865
3104.0000	24.6205	28.9697	30.8172	26.3581	43.0865	44.2863	31.3477	44.6517	8.5802	10.0980	30.9052	10.9157	8.1051	31.9715	7.8412	12.4696
3112.0000	16.3161	17.2734	10.6393	7.5698	16.0584	13.3385	28.1979	41.6219	5.2043	2.7023	19.4537	16.1688	11.9017	10.9297	13.0972	15.6158
3120.0000	1.4525	-3.0502	-13.7102	-11.2807	-14.2119	-15.0665	8.2619	31.7373	-11.7120	-17.6291	7.6999	13.0418	12.1918	-11.1016	13.6858	9.7490
3128.0000	-3.6820	-3.5324	-12.2159	-13.9493	-0.2298	9.5842	-1.5287	26.5822	-13.6051	-14.8680	2.2582	3.0416	11.8739	-2.0169	4.2970	4.4980
3136.0000	-0.6356	-2.0582	-13.3182	-19.5595	-9.6144	-3.9742	-5.4557	22.0187	-6.9576	-10.1030	1.7981	8.1050	13.9881	-7.7721	4.1168	8.6133
3144.0000	-14.5303	-15.7220	-24.6358	-27.0433	-15.0739	-2.8370	-17.2811	15.0612	-20.4674	-21.8580	-9.3872	-2.5579	9.4154	-13.2805	-4.1774	-2.3403
3152.0000	-17.5131	-15.6285	-11.4992	-19.8950	6.9797	18.2285	-12.5651	3.4918	-27.1849	-21.6855	-11.5009	-16.6944	-0.6641	0.4439	-11.9446	-8.8208
3160.0000	10.9303	11.7289	8.2886	-1.7192	5.1927	0.4375	3.4446	11.3182	-0.8150	-4.8802	20.3640	5.9184	-2.4204	4.8793	-12.8701	-2.6117
3168.0000	1.6918	4.9934	-4.9022	-14.2598	-3.7389	-1.0298	-9.5586	5.6836	-3.5997	-8.6917	12.2290	1.8323	-3.0481	-2.3858	-25.0499	-10.1472
3176.0000	-9.0735	-10.6065	-12.5619	-28.2068	-15.8507	-16.9111	-20.6112	-7.6449	-16.5316	-18.6209	-2.2838	-5.7583	-4.6705	-12.8128	-23.0592	-10.6463
3184.0000	16.4507	18.0991	8.2888	-3.0138	0.9713	-0.3131	-5.0932	11.8530	10.9403	3.8590	25.1006	12.2418	0.2133	4.2664	-17.6466	-5.8354
3192.0000	27.9432	41.3957	32.3156	18.3687	44.8512	55.6327	5.6177	16.4460	30.2779	28.6126	36.5553	7.6737	-2.0825	36.1969	-28.0203	-11.5367
3200.0000	30.5278	35.5981	36.1586	10.1573	28.2218	20.4421	3.9951	7.2166	23.3543	20.4013	37.6121	10.2683	-6.9571	24.7248	-27.9635	-7.1528
3208.0000	16.4958	14.8654	13.6069	-13.9937	-1.3827	-12.4361	-8.9416	4.0763	5.0260	0.5715	21.9416	9.0968	-1.4138	1.5737	-22.8327	0.2809
3216.0000	-2.5440	-1.5563	0.3191	-30.0581	3.8441	3.9354	-17.9925	-5.7459	-10.9094	-7.6005	-1.4462	-7.2162	2.0403	0.4768	-19.9066	1.2083
3224.0000	5.5729	6.4361	5.4941	-23.5540	5.2599	0.2907	-9.2138	-5.9784	-4.3747	-3.6610	8.3092	-1.1009	1.3039	2.5882	-13.9255	3.1541
3232.0000	9.1822	11.9087	3.4911	-15.3961	5.4252	2.6293	0.9738	2.4048	4.1347	1.9446	12.3181	5.8055	3.7275	3.2116	-6.7547	3.7973
3240.0000	8.3050	10.3659	1.5945	-13.4618	3.2112	-0.2217	10.9821	15.5911	8.5789	6.1865	7.2005	10.7406	5.7288	0.4570	-1.8635	3.4936
3248.0000	14.9185	19.7737	9.9393	-6.4560	11.0194	8.9692	10.3196	13.2455	19.2824	16.3161	14.1724	12.3600	3.1793	7.7454	-9.1016	-0.8426
3256.0000	3.6780	5.8863	5.1944	-18.5232	7.3643	5.7915	-6.5440	-7.7018	3.4050	4.9249	2.7435	-1.2132	-1.0838	3.7745	-11.5303	-5.6601
3264.0000	-20.6070	-26.6515	-23.2502	-49.5261	-25.8430	-35.9250	-11.5246	-14.1459	-26.9397	-24.5543	-24.0544	-8.7839	-1.5135	-25.8269	-5.1275	-3.0776
3272.0000	-25.9834	-26.5749	-35.4779	-49.1153	-29.9546	-32.4527	-9.5987	-14.4615	-23.1167	-23.0910	-28.4358	-8.6421	1.0044	-29.4067	-8.3129	0.1073
3280.0000	-16.3622	-15.1107	-22.4667	-34.0458	-15.6660	-11.5898	-16.9603	-14.4308	-14.7454	-14.2257	-16.1288	-8.4243	1.8168	-15.2825	-10.2022	-1.9154
3288.0000	-14.2075	-14.0836	-15.1260	-34.4805	-7.8731	-6.7289	-14.0742	-16.5028	-15.2671	-12.1381	-15.5656	-10.1570	-0.1499	-10.4853	-6.6125	-5.0934
3296.0000	-10.1372	-5.5825	-12.1846	-25.9399	-0.4164	-0.0641	3.4122	-14.8750	-1.0133	1.4812	-15.0366	-5.3986	-0.8233	-6.1772	-1.5510	-4.2448
3304.0000	-11.7712	-10.4150	-16.8268	-21.7991	-10.1779	-11.3715	7.5193	-2.0837	-3.9758	-4.0411	-15.4231	-0.8318	-0.8799	-12.7693	1.3919	-6.5582
3312.0000	-24.9001	-22.5409	-22.5002	-27.7323	-5.4358	-0.4989	2.3449	-5.2317	-17.8187	-12.8532	-28.5649	-13.3876	-3.9154	-12.3186	-3.2147	-13.2308
3320.0000	-14.5036	-8.5215	-5.9577	-16.4573	16.7741	20.0674	18.5337	1.8718	-6.5249	1.2110	-20.8727	-10.8202	-3.1222	3.1912	0.5648	-8.6657
3328.0000	6.7254	7.1921	5.1691	1.1435	8.4532	1.5289	30.2170	24.9704	7.9305	7.6178	2.5121	11.1812	3.5158	2.6881	12.3170	3.6342
3336.0000	-1.7316	-4.5361	-7.9601	0.4252	-9.0359	-11.0653	14.3726	19.6661	-0.3837	-2.4827	-4.4342	8.5559	5.5619	-8.0042	14.2990	4.3822
3344.0000	-12.6710	-13.1090	-6.1696	-4.9515	5.1509	7.6831	9.8602	7.7052	-12.2556	-7.0569	-15.8831	-7.6680	-1.3399	-1.2051	7.4131	-5.9557
3352.0000	-2.1026	-0.7045	2.1149	3.7500	8.5234	9.4352	9.7765	3.8336	-0.5712	1.3922	-2.4628	-2.3305	-3.4021	4.1801	2.5918	-7.0600
3360.0000	-15.5244	-18.0956	-28.1363	-12.7714	-31.8840	-27.5874	-12.8469	-6.7169	-8.2175	-12.6987	-15.7635	0.0794	2.9123	-23.2639	2.6723	-0.3311
3368.0000	-40.3038	-50.3382	-50.8297	-39.6050	-58.3938	-60.3427	-21.1848	-12.2831	-37.6140	-38.8761	-44.1342	-11.2582	-0.0656	-47.7142	1.6047	-1.8964
3376.0000	-30.5069	-42.1055	-38.7810	-24.1668	-52.9640	-60.0386	-10.9987	-3.3509	-29.7899	-32.3744	-33.9493	-4.8524	-2.2015	-41.8020	5.2295	-2.4698
3384.0000	-22.5246	-26.1753	-28.9304	-6.6040	-24.4181	-15.0168	-7.6856	5.3270	-18.5164	-19.3797	-22.2426	-5.4487	2.3582	-19.6750	9.1594	-5.8202
3392.0000	-14.8530	-11.4567	-9.7798	4.4750	7.8246	20.5458	1.4070	0.9797	-11.2309	-7.7011	-11.8879	-11.8545	-4.5836	2.7283	1.4874	-14.9575
3400.0000	-0.5061	-0.8553	-11.4272	9.3569	-21.2736	-22.6817	1.7144	-2.4743	7.5508	-0.9514	4.1839	7.9847	-5.9986	-12.7016	-2.9544	-9.6962
3408.0000	-8.6087	-11.8896	-28.8822	-1.1347	-42.7200	-40.2059	-10.7793	-0.6586	2.0081	-9.1853	-5.2417	10.2037	1.0661	-27.5759	0.0541	-3.8929
3416.0000	-2.9502	-4.9122	1.2791	18.0542	-3.0142	0.4932	-2.6819	3.5508	1.2762	1.6192	-4.0439	-1.6852	-3.0676	0.1848	0.7738	-4.8202
3424.0000	12.5013	12.3040	21.5223	36.4399	12.7898	9.2814	11.0126	8.5025	12.7951	12.3900	13.4013	3.6966	-6.4003	13.8111	-1.9514	-0.1931
3432.0000	9.3560	13.4279	13.8245	32.7449	12.8768	14.6150	9.4958	3.5709	11.3216	9.3042	14.4785	1.4567	-6.2235	13.2297	-6.3104	-0.5239
3440.0000	1.9824	3.5908	13.8557	28.6379	11.0920	13.7212	-2.8179	-7.6086	5.4017	7.8785	2.4263	-7.1811	-8.2343	11.5847	-8.4209	-3.0201
3448.0000	-1.1277	0.0116	9.9461	22.4852	6.1921	9.3307	-7.7213	-9.4759	4.0408	6.7743	-2.3246	-8.1259	-7.2391	7.6754	-11.0160	-2.4599
3456.0000	7.4549	11.6731	14.2961	29.0442	13.2556	15.4454	7.5005	5.5358	12.4002	12.0688	9.0550	0.3334	-5.3199	12.8265	-10.5750	0.3286
3464.0000	-1.5057	-4.9649	2.9067	11.3582	-9.0756	-17.7134	6.4792	7.7729	-2.3102	-2.6051	-4.1010	1.0290	-3.1513	-5.6612	-5.4405	8.4603
3472.0000	-8.3040	-10.8621	-4.2517	-3.2664	-7.4095	-12.0012	-0.3442	-2.5102	-10.1748	-7.2698	-12.5138	-5.5312	0.9601	-6.8378	0.1841	11.9361
3480.0000	4.4804	7.8407	9.5182	13.6712	15.8691	18.2576	7.7903	-0.0749	5.3881	7.8873	3.7110	-1.9795	0.7300	11.8679	3.9709	5.9523
3488.0000	-11.8241	-13.4187	-3.3760	-3.0903	-1.3575	-4.3345	0.3973	-8.8489	-14.0464	-9.9097	-12.7800	-11.1934	-7.1353	-3.7976	-2.5018	-4.5238
3496.0000	0.8543	3.6058	14.1399	6.3272	23.5350	22.9219	11.6320	1.1213	0.1095	6.6897	-2.1319	-7.2217	-4.3042	14.3702	-0.4991	-3.0598
3504.0000	36.6440	43.6094	43.9001	38.3971	47.7305	46.3910	31.6398	23.0986	40.4153	41.2514	33.3823	17.3823	3.9195	38.4455	10.5968	5.4903
3512.0000	22.1755	21.0107	24.3026	20.0257	10.8648	0.8277	10.8417	-1.4672	24.0474	21.8748	19.3228	12.2709	-2.5734	12.1131	6.6126	0.5401
3520.0000	14.9942	11.9162	16.3660	10.7318	3.1066	-3.9232	-2.7958	-14.0085	18.0224	17.9170	8.8563	6.9995	1.1103	6.3542	11.7248	4.7695
3528.0000	20.5490	18.9189	17.5949	13.0667	9.8166	7.6756	0.1252	-5.3806	22.6382	21.9504	14.8086	11.8692	8.8839	11.8504	21.3062	11.2228
3536.0000	19.5191	17.6048	20.9325	17.9653	13.1708	10.4003	-2.6999	-11.3550	15.3445	14.4084	20.7571	6.3636	-0.0973	14.8029	14.0159	-1.1462
3544.0000	22.1225	21.9449	25.3399	23.6925	18.8219	18.5548	-3.3603	-10.9954	20.1417	19.2841	24.0225	6.2151	-1.6639	19.7989	9.9460	-4.7951
3552.0000	10.7125	11.5341	10.2946	9.4622	6.9942	7.7369	-5.3474	-12.8201	12.3447	11.2034	11.5899	2.7799	-1.0275	8.4775	4.1625	-2.9398
3560.0000	7.5189	8.7189	11.1973	10.3641	9.5714	9.5326	-3.3605	-11.4341	7.4805	8.1068	8.4021	-1.1613	-2.8266	9.3554	-0.0614	-1.4028
3568.0000	-1.5614	-4.2493	1.0180	-3.9717	-3.3670	-6.5046	-7.5149	-13.3744	-2.3731	-0.0546	-5.4500	-3.5321	0.6912	-2.1394	5.0071	4.9140
3576.0000	-8.1810	-12.9662	-7.9664	-14.4877	-13.1678	-20.4310	-3.3999	-11.3393	-10.6719	-8.8299	-12.4935	-3.7545	0.0680	-11.7137	7.1659	4.5364
3584.0000	10.0083	9.5949	13.6851	10.9673	13.1519	10.2065	9.1416	4.3286	7.1496	8.7868	7.9387	3.6821	2.3646	10.4991	10.2410	6.0127
3592.0000	3.9477	2.7615	11.0056	6.6274	9.5203	7.7111	-0.3000	-3.8103	2.3024	5.7579	0.6825	-2.3335	-0.2159	7.6268	4.2345	2.6859
3600.0000	5.6046	6.4868	17.4723	9.8791	18.1872	13.5079	7.8057	-1.6540	2.5623	6.9970	3.8097	-4.1571	-5.1027	12.7924	-3.0685	-0.1994
3608.0000	26.5046	33.8710	34.3161	27.1008	38.9911	37.0769	18.7162	6.2288	24.2757	25.4808	28.3196	6.7166	-0.1804	31.2424	-1.7660	7.8448
3616.0000	23.8514	27.7628	24.9266	18.5508	17.4538	13.0015	5.6293	0.5099	24.8955	22.0962	25.1011	10.3770	-0.6376	17.4716	-7.9538	5.3496
3624.0000	21.6510	24.3046	24.3667	19.9335	18.3073	15.7240	8.5318	13.3581	22.1960	20.4401	21.6745	11.0449	1.0865	17.3893	-6.3490	3.9978
3632.0000	4.1408	6.5285	7.7944	-0.2785	12.9963	14.8227	-2.0463	-2.6203	-0.3866	1.5300	6.5146	-3.1768	-0.0058	9.4544	-4.1521	0.8002
3640.0000	-12.3483	-19.2473	-9.1232	-21.7026	-19.1330	-30.1576	-8.5396	-9.3449	-20.3487	-19.2397	-12.2952	-7.0587	-7.6777	-16.7112	-8.3936	-7.2544
3648.0000	5.4932	0.8548	-4.8482	0.0674	-19.7098	-30.4070	12.0083	19.9304	2.6498	-4.6892	7.1773	15.1169	1.5513	-13.2466	1.4731	4.4223
3656.0000	-5.5638	-0.6643	-26.1303	-5.5555	-19.0489	-6.0525	-11.4812	-3.5189	-2.2068	-11.2054	5.3121	3.8365	6.1279	-11.8061	-2.2588	2.4475
3664.0000	-25.2426	-24.1556	-25.0377	-21.6803	-13.6173	2.1206	-34.9341	-21.7137	-26.0534	-23.2569	-19.6837	-20.6714	-2.3276	-11.4518	-15.4696	-10.8941
3672.0000	0.2670	-1.7630	6.9601	4.9767	2.8100	3.0002	-4.9429	8.4655	-2.1959	-0.2658	-0.5428	-1.9480	-1.6383	3.0909	-8.4086	-2.5709
3680.0000	11.6961	13.1472	4.0924	12.9409	-1.9409	-2.6406	11.1630	19.2352	16.9254	10.7832	13.1245	14.6193	2.1558	1.3187	-1.8771	0.1437
3688.0000	-7.0061	-8.0441	-12.3332	-13.0826	-9.0129	-4.2740	-2.4137	13.5987	-4.4104	-4.8256	-9.2989	2.4271	6.3363	-8.4262	1.5380	-0.3268
3696.0000	-10.8016	-12.3823	-14.4316	-16.2152	-7.2090	0.1233	-9.8530	6.7876	-14.4064	-12.9530	-10.4913	-3.9191	7.1780	-7.3165	3.5919	1.9848
3704.0000	-10.3890	-10.6771	-12.1925	-16.9579	-5.6117	-2.0122	-6.4105	-2.7154	-12.2100	-11.3939	-8.3321	-5.5315	-0.7917	-6.9197	-1.9780	-8.3926
3712.0000	-18.2827	-26.6913	-18.5996	-37.2785	-24.2695	-34.8574	-4.4501	-1.9047	-24.7848	-23.1033	-21.1263	-5.2418	-4.5685	-23.8131	-0.8501	-12.0582
3720.0000	-21.8685	-31.8347	-29.7258	-37.0659	-38.6928	-47.9241	-5.5668	6.9008	-28.8930	-31.1429	-22.0013	-1.1803	-1.6422	-33.4060	-0.0909	-8.6492
3728.0000	-20.7701	-26.0474	-19.6405	-28.0301	-17.8102	-22.4452	2.0171	11.6464	-26.1616	-23.9710	-21.8641	-6.5545	-3.0853	-19.5730	-4.3909	-9.2230
3736.0000	-1.5928	-8.5121	2.4135	-14.6203	-4.6982	-18.8899	13.7300	20.7871	-14.5902	-13.5985	-1.7787	3.1704	-3.3352	-7.4331	-0.7573	-4.5490
3744.0000	6.5375	2.2458	-4.4672	-6.2686	-14.1224	-18.9090	2.0613	17.7436	-0.4843	-7.2500	11.7504	12.9922	2.9404	-8.8446	1.6074	-2.7515
3752.0000	-34.0087	-42.8382	-42.2956	-48.7643	-44.6592	-45.8262	-25.3356	-14.0664	-39.5820	-39.4890	-33.5750	-12.7899	-0.7143	-38.3095	-2.3273	-8.5774
3760.0000	-39.5872	-53.6292	-40.0620	-53.5396	-47.5513	-61.9304	-13.2205	-10.9735	-54.7896	-51.5144	-40.9067	-17.0173	-6.1030	-43.8327	0.5377	-5.9478
3768.0000	9.9127	8.3556	8.6036	4.5729	4.0915	-2.8031	13.2821	12.4591	4.9548	2.6708	11.7122	8.6477	-0.7275	3.2549	4.4111	-1.4409
3776.0000	13.9974	11.2395	10.0135	2.3866	-1.8812	-6.4249	-4.2325	1.1632	12.2232	8.0606	15.7442	10.4190	-0.9641	2.2340	-0.4034	-7.4774
3784.0000	5.1313	-4.1119	-2.0809	-8.7595	-21.3569	-31.5853	-5.2879	10.9610	-3.4824	-8.7470	6.7138	11.3204	0.9178	-13.3698	2.7985	-3.6855
3792.0000	31.8165	33.9162	28.1844	28.9580	25.2568	21.6964	27.0992	30.1865	28.4593	23.9938	33.8006	22.3136	6.9188	22.5992	14.6777	7.2331
3800.0000	28.9308	32.5165	28.0495	27.2605	28.2047	26.9900	17.0861	11.2438	24.3266	21.1973	33.8467	14.2487	2.3677	25.0733	10.6813	2.3151
3808.0000	9.2632	5.7500	7.6770	2.7095	-1.7819	-5.3129	-6.9209	-1.4902	3.2477	1.1277	11.5173	5.0418	0.3557	1.8549	2.1510	-1.1508
3816.0000	14.5473	10.4087	12.6141	7.9804	1.6780	-4.4052	4.4260	12.0720	10.0595	8.1241	12.5993	11.7225	5.1251	4.2149	9.7158	6.5473
3824.0000	23.0025	22.5004	20.9790	21.9873	16.2211	14.9865	10.0023	18.5761	15.9656	13.1510	25.7974	14.0238	6.6892	16.5065	11.4413	8.3748
3832.0000	19.4733	22.2696	23.0476	23.5040	24.3841	29.9089	-0.8236	8.2429	14.1173	13.9384	23.9548	5.0493	3.2703	22.8077	0.5111	3.1742
3840.0000	1.4659	1.8954	4.2197	7.6442	7.8974	12.7726	-3.0059	5.4802	-3.0745	-1.8230	4.1338	-2.2912	1.8900	6.9132	0.3089	1.8517
3848.0000	3.4062	5.0514	-0.3796	11.9611	1.5899	7.4069	0.2380	5.8343	5.3826	3.8484	4.1994	3.4030	5.8711	3.4674	5.5506	8.8844
3856.0000	21.6514	25.6778	21.9997	31.1572	16.5824	17.6597	7.4651	1.9430	29.9395	28.0261	18.4120	11.0099	4.1737	17.9702	4.7688	11.9486
3864.0000	14.7460	19.5007	16.2416	25.8123	19.4141	24.5240	7.8375	4.6160	19.2740	18.8351	14.7263	5.6338	3.2178	17.8106	5.0291	6.6758
3872.0000	10.8364	16.5188	3.6898	19.2245	9.6572	22.7045	-5.3962	-1.3345	17.2150	13.9705	14.0405	5.5866	7.5078	11.9764	5.9412	6.4056
3880.0000	-0.0070	-1.1594	-6.5143	5.4737	-13.3512	-11.2782	-8.1413	-7.4030	6.7596	3.9664	-2.5746	3.7105	4.1731	-6.6899	5.8052	7.3632
3888.0000	-16.3671	-18.1433	-10.9633	-3.0116	-6.5953	-4.8713	-0.8543	-3.4215	-14.1254	-9.3223	-21.5408	-10.3603	0.3689	-7.7304	4.9213	5.4087
3896.0000	0.1426	2.7737	9.2771	15.0827	17.4991	23.2364	-0.8299	-6.6533	-0.5996	4.8236	-1.5494	-8.6138	1.7024	13.4485	5.1571	9.1634
3904.0000	-1.3296	1.2028	-1.2656	7.1650	5.2627	11.4943	-6.6949	-14.0916	-2.3190	-1.0329	0.8699	-6.1719	2.4917	5.1884	5.9605	8.1709
3912.0000	-5.1941	2.9085	-9.6344	4.2790	7.6994	23.2158	-5.3836	-10.5041	2.3569	2.3623	-1.6301	-6.1643	3.5382	5.6913	0.8353	1.9296
3920.0000	11.4333	17.3374	11.4366	22.5018	14.4156	21.1466	0.5506	-2.5570	16.9318	15.6374	13.1724	2.7392	2.0611	14.5942	-2.2947	7.0691
3928.0000	-6.4407	-6.9847	-4.4075	6.3933	-6.3741	-5.4993	-8.7879	-13.6064	-8.2707	-7.5892	-4.6939	-7.7242	-1.9205	-3.2289	-1.9122	7.1073
3936.0000	-15.3742	-10.7935	-14.6242	-1.7605	-1.8057	8.5274	-8.2597	-16.9746	-9.2659	-7.0859	-13.7277	-13.1073	-2.2479	-3.0100	-3.1499	-1.7290
3944.0000	-2.2201	3.0714	-3.7596	3.9732	5.8738	11.0921	4.2370	-8.1747	3.2848	3.1646	-0.5659	-3.1132	-1.0614	3.4682	0.7984	-0.2415
3952.0000	-2.5478	0.2131	-9.3090	3.4735	-4.1098	0.5067	-3.0762	-15.5621	-1.8292	-4.7864	3.4038	-2.4255	-0.9362	-2.0114	5.7150	0.0552
3960.0000	3.5207	8.1605	-5.3003	18.4571	-0.4256	9.8458	-2.9990	-11.8193	11.0784	6.3664	8.8443	2.4667	1.2094	3.5907	8.6984	-0.4856
3968.0000	-9.4014	-8.7641	-13.2776	2.7114	-11.4098	-5.6311	-9.0407	-18.4109	-2.1619	-3.2302	-8.9992	-5.3231	-1.7615	-7.4755	5.4931	-2.9076
3976.0000	-29.7990	-33.4614	-24.7741	-21.8967	-20.4408	-16.0808	-20.5818	-26.7237	-24.9745	-19.6828	-33.4674	-20.1223	-7.3722	-19.1852	-1.7220	-14.1722
3984.0000	-17.2966	-17.2441	-4.7415	-2.0341	5.7263	10.7509	2.1501	-3.7560	-8.8202	-0.8844	-24.8687	-13.6791	-5.7983	-0.4733	2.0934	-12.8498
3992.0000	-19.7125	-19.6885	-12.8146	-6.8063	-3.9039	1.5907	-4.6709	-12.2909	-12.5971	-7.4309	-23.5196	-14.1588	-6.0993	-6.7115	0.4616	-12.2611
4000.0000	-37.2898	-39.0342	-42.0029	-30.5069	-33.0673	-21.2968	-23.8150	-17.9818	-26.8262	-24.9357	-39.4978	-17.3834	-2.5111	-29.1444	-4.8372	-14.2285
4008.0000	-16.1332	-10.9756	-19.2736	-0.2739	-5.4480	7.6708	6.7610	11.2157	3.5394	4.6066	-22.7080	-2.2175	3.5069	-7.3602	0.5895	-3.4799
4016.0000	-1.3807	4.3998	6.9828	16.6477	17.7374	25.0684	12.8073	8.0935	11.5362	15.1044	-5.8854	-2.9095	-3.5961	11.5649	-3.1817	-7.9325
4024.0000	-21.9913	-18.0169	-8.1814	-12.6509	13.2604	23.8373	-5.5105	-11.6925	-17.8890	-7.7866	-25.4587	-22.2121	-5.2059	3.3166	-6.0244	-11.4029
4032.0000	-14.0936	-4.0637	-10.7002	-8.8543	14.9318	28.7372	0.9444	-16.1871	-1.2542	4.5839	-17.2755	-14.1715	0.3268	5.8021	-1.7261	-2.0976
4040.0000	4.6182	11.8284	-1.1706	2.6330	5.7902	9.8223	10.8379	-3.0707	20.8065	18.5704	1.1231	6.2620	0.9072	3.5683	0.3891	-2.4264
4048.0000	6.3202	11.8767	3.2957	-1.5134	12.9762	15.0526	17.9927	8.8212	17.6790	18.0975	0.2543	7.6993	4.9354	6.9332	7.4712	1.3110
4056.0000	12.7979	23.3441	8.2620	6.8410	23.2415	32.6785	11.1751	-1.1667	26.5371	25.7597	10.9619	6.8101	4.9300	17.0166	3.5443	-0.1317
4064.0000	-0.1673	4.4850	-7.7405	-4.8525	-2.8663	1.6443	2.0586	-7.0013	13.4925	11.2600	-3.4205	4.1294	2.2937	-2.7099	1.8934	-2.0034
4072.0000	-1.9656	-2.1050	-10.9723	-6.0094	-13.6426	-17.4067	9.3036	-1.9827	8.0891	5.7005	-8.8123	7.3846	5.4746	-11.2362	12.4854	9.8078
4080.0000	5.3842	8.2759	-0.5203	1.6556	-1.3960	-0.5896	0.9022	-7.9066	13.9528	11.5954	2.8482	5.3788	2.8781	0.2848	3.0436	4.6645
4088.0000	-13.1131	-9.7832	-9.0710	-11.9632	-0.3335	6.3897	-13.7437	-22.8292	-5.1569	-0.9639	-16.1340	-13.2269	-3.1990	-2.4805	-7.4362	-5.4546
4096.0000	2.5379	8.0387	7.6733	12.0146	15.2886	24.3148	-2.1624	-2.4931	12.0006	14.6788	-0.3130	-3.1542	0.4897	12.2729	-5.0911	-0.9438
4104.0000	20.3982	29.1278	26.1137	26.5716	33.3347	42.1518	9.8086	17.7607	28.7864	29.5570	19.3255	7.5797	2.9806	27.6988	-9.6854	1.1803
4112.0000	5.0876	8.2655	10.4479	5.6787	10.4222	9.4297	2.4618	-1.8165	9.3193	10.9310	2.5870	-0.6359	-2.1941	8.0164	-9.5335	1.5389
4120.0000	9.5264	11.0815	10.5045	13.0825	6.4700	5.6180	6.7857	12.5741	13.1130	12.2014	7.0032	6.9767	2.8391	6.8224	-3.7611	7.6106
4128.0000	17.4425	26.4525	19.8724	18.7048	29.6435	34.4912	17.1105	18.1232	21.6525	21.9046	17.5490	7.4669	4.9490	22.8139	-6.2626	9.8636
4136.0000	11.2986	15.1709	6.9113	6.4178	4.9951	2.7553	5.1527	0.2176	10.9465	6.9134	15.7048	6.4925	-0.4075	5.6836	-7.3066	4.4533
4144.0000	8.3470	9.2677	3.1445	2.4027	3.9875	3.0797	9.8930	17.9544	3.8877	1.4481	10.2825	8.7462	6.9308	3.3492	3.3878	10.5566
4152.0000	13.3252	20.9771	13.0992	7.2940	24.6840	24.3016	18.7287	2.3094	11.8250	12.1036	15.6293	3.8549	3.0654	17.0538	3.2196	10.7331
4160.0000	-0.2020	-4.3590	-7.0209	4.2387	-21.2336	-25.7238	-0.6707	13.6522	0.6312	-4.4125	-0.6712	8.5759	2.7737	-12.9917	-3.4357	8.0644
4168.0000	-13.0684	-15.7049	-17.2594	-3.7134	-19.1352	-8.9020	-24.0631	-3.2356	-11.9748	-13.2465	-10.6418	-5.8475	2.4650	-11.8225	-5.0894	-2.3873
4176.0000	-16.8053	-17.5878	-17.8136	-5.4121	-11.5176	0.2047	-16.4773	-0.1891	-15.1756	-13.7196	-15.7311	-9.3191	2.6337	-8.8870	-2.4434	-2.1183
4184.0000	1.5211	-3.2927	-14.7498	10.3007	-33.2867	-32.8772	-8.3069	10.7245	7.5295	-2.0741	2.1804	14.4863	6.8563	-18.4047	3.6048	9.3749
4192.0000	-13.1741	-12.5125	-20.9694	2.7517	-21.5885	-11.8636	-11.4835	0.7307	-2.7412	-6.1912	-12.9168	-1.4126	2.3016	-14.2132	-5.0584	0.9159
4200.0000	2.9621	9.8042	5.4351	21.4662	12.7148	21.6893	7.0960	7.4183	14.7437	15.1547	1.0689	0.6147	1.2862	10.8240	-5.4895	4.2901
4208.0000	13.1449	14.6643	8.5989	23.8335	2.4868	6.7464	3.7425	20.7603	17.6903	13.6463	12.7227	12.3097	7.8215	7.0157	-0.3771	12.6830
4216.0000	-15.8570	-20.3352	-18.6279	-8.2975	-20.3555	-16.5384	-14.5123	4.5734	-22.8249	-22.9351	-13.1073	-6.7913	3.7915	-15.0490	-2.3973	7.3321
4224.0000	-17.6369	-21.4912	-22.4461	-8.1772	-22.9103	-20.6675	-9.4793	0.5946	-23.8298	-24.8332	-14.1014	-6.8982	2.5690	-17.6829	1.2015	8.1683
4232.0000	-23.9974	-25.0203	-26.2381	-11.6634	-18.8006	-10.6821	-13.1232	-6.2490	-24.5723	-23.1453	-21.9306	-13.1175	1.0573	-16.2123	-1.7084	2.4992
4240.0000	-11.9037	-13.4187	-10.6330	-2.9726	-9.0312	-6.5538	-7.9275	-8.3040	-13.0215	-11.5883	-11.1265	-8.3616	-1.6089	-7.3750	0.2198	0.1897
4248.0000	4.0982	5.0684	1.7727	4.9042	1.1910	3.9073	-4.3545	-6.9427	7.0026	5.8850	4.3195	1.7039	1.1657	2.8365	3.3608	-0.0162
4256.0000	-16.5738	-17.4726	-10.9593	-17.4485	-3.9985	1.7367	-19.4212	-22.0020	-16.3350	-11.2868	-17.3130	-15.9697	-4.5948	-5.5350	-4.0485	-11.7302
4264.0000	-14.8507	-20.8019	-7.7135	-17.1832	-8.7091	-11.1879	-13.3469	-11.7022	-22.5699	-17.8592	-15.4602	-12.6821	-5.2785	-9.1736	-0.4002	-9.6406
4272.0000	-15.9336	-16.0839	-12.9902	-19.7849	-2.5500	1.5908	-8.9395	-10.8579	-19.2500	-15.4343	-14.2305	-12.8744	-3.3045	-6.1068	-2.3867	-9.8565
4280.0000	-17.7738	-15.7408	-11.8221	-21.7701	3.6580	10.2113	-10.8787	-18.7752	-18.6790	-12.9097	-16.5449	-17.4158	-5.6074	-2.4993	-4.8059	-14.2781
4288.0000	2.3971	2.5019	3.7902	-7.5403	6.0385	7.5284	-6.2480	-8.8094	3.0877	4.7695	1.0802	-1.3370	-0.4061	4.0775	2.1915	-7.6224
4296.0000	10.9916	14.7402	9.8782	4.2014	12.9643	14.7628	3.7697	-2.4299	14.9083	13.7970	11.7362	4.9503	-0.6469	10.4910	0.1909	-6.2585
4304.0000	38.9935	47.1293	45.8020	43.0382	50.0822	48.9840	29.2264	14.0828	39.2603	38.4019	41.7593	15.4507	-0.8738	41.4105	7.8211	-0.0503
4312.0000	46.8711	55.2844	54.1920	44.5348	55.3537	55.0118	19.2541	0.4034	48.2550	47.6117	48.8287	16.1435	-0.5569	47.7844	8.9302	-1.4267
4320.0000	10.8874	12.1470	10.8834	-1.3128	9.5664	6.4864	-1.5227	-15.0887	10.2494	9.5800	12.3382	2.3322	-3.4465	8.1306	1.9316	-7.5375
4328.0000	24.5636	28.9388	27.9882	19.2337	37.0857	36.0017	24.3526	14.8721	18.3954	19.9176	25.5564	10.0048	5.6301	27.8613	16.8169	7.5378
4336.0000	51.4101	61.7102	58.1742	51.5225	68.3443	72.4604	28.5434	13.9802	48.7711	49.6691	53.4740	18.5249	8.1201	56.9056	20.8465	11.1263
4344.0000	17.4330	15.8972	13.2576	9.1898	4.9722	2.1888	-5.1926	-11.5589	14.3907	11.7500	18.3912	8.3276	3.4741	8.4175	12.5767	4.5523
4352.0000	-13.0514	-19.6776	-22.1082	-27.0826	-26.8479	-28.8846	-17.9571	-16.5508	-17.4208	-17.5896	-15.8742	-3.3626	7.5055	-20.9196	13.8779	9.5246
4360.0000	-0.8142	-1.9595	-4.3857	-7.0148	-1.8056	-2.0012	1.1470	-2.1298	-1.7770	-0.3862	-4.8996	1.2315	8.4502	-2.3530	15.1149	13.1638
4368.0000	0.1981	-0.3776	3.8823	1.2381	7.6268	8.0889	1.4466	-3.6200	-1.3581	2.3280	-3.4525	-2.8831	3.7210	4.8550	11.1157	7.2163
4376.0000	-25.1755	-28.0439	-17.6402	-27.3708	-10.6782	-4.6164	-31.8256	-37.8054	-26.8325	-19.2269	-27.2478	-24.2966	-4.9580	-11.1753	-3.0641	-9.9456
4384.0000	-18.7443	-21.5934	-13.7647	-17.2530	-13.1857	-14.8482	-11.5881	-21.0285	-17.6147	-14.0142	-20.6917	-13.8902	-8.0774	-13.0343	-4.3457	-11.0162
4392.0000	18.2082	22.7898	26.4111	29.7865	30.3097	25.9045	32.5574	18.0331	21.4873	22.6872	16.2268	8.6105	-3.1584	22.3726	6.6097	0.0719
4400.0000	22.9939	28.8089	30.2288	29.2597	35.6427	39.0036	12.4183	2.8293	25.1597	26.5630	23.7357	5.7082	-0.8848	29.5016	5.1493	-2.4019
4408.0000	12.9459	14.3130	12.2309	12.3477	11.6530	13.2053	0.3339	-5.9028	13.8350	13.0175	13.4113	4.8646	1.7431	11.5682	8.8726	0.4656
4416.0000	5.1321	4.9688	6.1893	8.4941	5.7765	4.9236	5.8776	-1.3713	7.3906	7.7383	3.1953	2.7384	-0.1141	4.9281	9.3565	-1.1410
4424.0000	-31.6243	-38.6961	-29.4667	-27.8112	-30.3846	-28.4552	-24.5011	-20.7086	-32.2547	-28.5982	-33.4380	-18.2679	-6.0688	-26.1588	-2.8367	-13.0339
4432.0000	-45.9821	-52.9375	-44.3492	-41.6520	-39.7729	-35.3185	-32.3279	-31.2361	-47.3995	-42.2129	-46.7044	-27.7659	-7.3797	-35.6454	-6.0895	-13.5315
4440.0000	-14.9465	-16.3610	-16.1690	-10.3700	-16.5711	-15.6265	-6.5121	-10.6053	-8.3922	-8.2798	-16.8720	-6.1659	-4.6291	-14.1115	-2.6883	-8.8043
4448.0000	-0.1692	-0.2817	-8.9229	1.9934	-16.0583	-18.1024	3.9378	-0.5072	9.7832	4.1947	-0.8718	8.0282	-2.1932	-10.6498	0.1829	-5.4624
4456.0000	-10.0949	-7.6588	-15.2169	-5.3076	-11.3584	-7.4166	-9.5198	-23.2758	-6.8102	-9.6016	-3.7094	-7.3574	-7.3186	-8.5246	-4.8710	-10.8259
4464.0000	-25.4866	-27.7168	-27.2513	-21.3853	-24.3434	-17.7504	-28.9228	-28.0184	-28.1104	-27.9737	-18.5386	-18.2138	-8.4802	-19.3665	-11.5888	-15.7070
4472.0000	-16.8612	-16.7074	-19.1664	-13.2009	-13.4034	-6.3040	-15.0671	-10.1178	-16.9711	-16.9963	-12.5004	-10.4229	-3.0633	-11.3948	-7.9410	-8.4561
4480.0000	9.0884	18.7064	9.2547	12.6302	22.5952	28.6289	10.7053	-5.2524	13.4400	12.3370	14.9419	-0.0670	-3.8188	16.7256	-5.5102	-4.9693
4488.0000	6.5494	8.3284	5.3238	2.5860	1.7090	-5.3364	11.9687	-1.0540	9.4863	7.0090	6.8933	5.4001	-4.8058	0.9597	-3.7258	-2.9218
4496.0000	9.7352	11.5386	16.3687	9.6498	13.9057	4.8606	20.2389	8.5145	11.1635	11.9372	7.4306	4.6852	-5.7027	9.0982	-4.5719	-1.9206
4504.0000	20.3353	33.5378	30.1674	26.8010	48.4941	58.2749	15.2802	4.6172	25.5274	28.3389	23.9651	0.2430	-2.8519	36.7578	-10.3265	-4.5802
4512.0000	5.0427	12.0911	6.0156	5.2231	17.7237	31.4525	-11.3749	-6.7911	10.4925	11.9642	6.7916	-3.4617	3.2681	14.8669	-6.7013	-1.7979
4520.0000	5.8240	5.7791	11.9250	3.7858	12.1574	12.0215	0.4725	2.0864	6.1924	9.6601	1.2677	0.0652	2.2574	9.2387	2.2378	2.9728
4528.0000	19.9629	24.4061	25.4254	20.7155	31.2680	31.3048	21.3203	16.4651	21.8612	24.1097	16.1957	9.0395	4.9012	23.7652	9.5720	7.4160
4536.0000	15.5443	20.4421	18.7531	21.4162	26.4647	32.8065	9.9763	8.3650	18.3880	19.5376	15.3246	5.2731	3.6363	21.5882	7.7074	1.6053
4544.0000	1.0116	-3.1511	12.0025	6.7686	6.9422	3.1486	-1.2874	0.5163	-2.6668	1.7276	-2.5114	-3.9502	-3.9143	5.4047	1.8937	-4.7508
4552.0000	-15.2147	-27.4845	-19.8418	-17.4006	-36.1539	-44.9498	-7.2287	5.7009	-17.5136	-18.1185	-22.3434	1.9613	3.5338	-27.7794	12.4503	3.4539
4560.0000	-25.5017	-33.8509	-33.2949	-21.3898	-34.7784	-29.2449	-17.2483	-1.8459	-23.8720	-23.6132	-29.2321	-5.8448	5.4853	-27.7332	14.8745	-3.0768
4568.0000	-25.8388	-29.0369	-10.8275	-15.1360	1.1970	9.2263	-17.9860	-17.6771	-27.2193	-16.7426	-29.5150	-24.3534	-6.7826	-4.0116	0.6734	-16.9403
4576.0000	-13.4455	-18.0139	-1.8531	-11.2846	-0.3588	-4.3949	-0.7403	-4.4415	-16.0627	-9.2500	-18.6905	-11.3610	-6.1012	-4.5937	1.8005	-9.8103
4584.0000	4.8637	3.3831	6.8080	2.9623	6.6376	1.0982	17.8269	17.7510	2.5976	3.1950	2.5810	6.1982	0.7699	3.0424	7.4995	-0.1155
4592.0000	22.3489	26.4325	21.2833	19.3386	22.1221	18.9070	23.8587	18.4248	23.8739	21.3850	22.5153	14.7631	2.6388	17.8651	6.3749	3.5197
4600.0000	23.8350	27.2456	17.5986	17.7321	14.7910	12.2787	18.1349	14.9103	26.3944	21.1615	25.4828	17.8460	3.4994	14.0534	6.7935	2.1601
4608.0000	3.5570	2.3055	7.6830	0.0528	9.0347	5.9570	6.8910	7.1536	-2.4501	-0.7841	4.3054	0.4714	-1.3351	5.4573	2.9799	-3.6398
4616.0000	5.8166	3.6326	14.0445	6.8045	11.4580	2.7916	15.2109	10.3992	-0.5829	1.9850	4.3705	1.4110	-3.4888	7.0691	3.1695	-0.3107
4624.0000	13.4528	12.6711	14.9793	12.0609	10.2482	3.0294	15.6264	12.1285	9.2937	8.3029	13.3072	8.6783	0.5091	8.5476	6.0920	4.5290
4632.0000	-2.1886	-4.6852	0.6739	-7.1685	-0.9733	-3.6245	-8.4181	-8.9750	-10.7346	-9.0641	0.0459	-5.5637	-1.5403	-0.9131	-1.0014	0.5248
4640.0000	4.3557	3.9092	10.7321	3.6190	7.0882	3.0693	-1.5557	-3.5062	0.0187	1.5700	5.1755	-2.4437	-4.1212	5.9488	-7.2090	-0.9884
4648.0000	10.1012	9.3843	17.8614	8.4171	9.2316	1.2212	4.9608	3.7955	8.6844	10.1211	7.0886	2.7443	-3.1637	8.0682	-8.3642	3.0003
4656.0000	-5.0015	-10.5491	-5.8436	-10.0644	-20.7237	-31.3606	-4.6198	-0.6439	-7.4336	-8.7188	-7.9971	1.0729	-1.3732	-15.1897	-7.4439	6.6439
4664.0000	-3.9193	-3.9378	-8.7157	-5.4010	-11.4469	-15.2517	8.1953	13.3124	-2.7320	-5.3633	-4.2912	4.3529	1.7181	-9.8467	-6.1526	6.8387
4672.0000	-1.0376	0.7995	0.0078	-7.5589	4.2957	3.9672	1.7898	5.0009	-4.9811	-4.2520	1.0523	-1.9200	0.1272	1.4081	-8.3854	1.7258
4680.0000	-2.1163	-3.1220	-4.7061	-11.6098	-4.5160	-6.1389	-2.0620	4.3091	-8.4843	-9.7285	1.7614	0.0146	-0.2884	-4.5006	-5.2140	-2.5129
4688.0000	-3.1172	0.7795	-1.8350	-7.6205	10.5685	13.2083	11.5467	11.0312	-3.5667	-2.3277	-0.8261	-1.6785	-1.7591	3.7117	-4.5454	-7.9766
4696.0000	-9.5418	-11.5590	-1.7291	-16.3865	-0.5508	-4.5538	-4.5368	-7.3812	-13.6440	-10.0810	-9.0921	-9.5717	-9.1745	-4.0153	-10.5160	-15.7087
4704.0000	-3.9972	-11.2019	-2.8062	-9.7466	-15.8165	-24.5109	-4.4941	3.0346	-8.2059	-9.0954	-5.0103	1.3295	-5.1033	-11.9319	-3.5715	-9.8700
4712.0000	1.3764	2.1554	-1.4397	-4.6825	0.2818	-0.6378	8.1482	9.0423	4.1949	3.1795	-0.0168	4.9150	1.3054	-1.2882	1.2478	-2.4942
4720.0000	-2.8029	-1.9454	-10.1645	-17.0299	-9.3308	-12.8272	5.4159	1.4150	-0.4924	-3.4557	-2.1719	4.1541	-0.5485	-9.5127	-2.9442	-4.3450
4728.0000	2.1370	0.3389	-5.5229	-10.6314	-10.3872	-20.0064	16.7354	14.9292	0.9541	-3.1838	1.9607	10.6233	0.7697	-10.0026	2.6607	0.6849
4736.0000	2.5569	0.7863	3.1365	-2.8732	0.2952	-6.4820	9.2418	5.6316	-1.1044	-1.3636	2.2543	3.1728	-1.4571	-1.0840	2.4155	-0.5874
4744.0000	-8.1967	-11.0255	-4.4354	-10.9730	-4.6902	-6.6953	-5.3582	-4.0945	-12.1869	-9.9325	-8.1977	-6.3562	-3.6972	-5.4593	-2.7990	-6.7937
4752.0000	-1.9126	-1.9568	3.3519	-5.7965	8.6417	5.7536	9.6438	5.8115	-4.2361	-0.3594	-5.2816	-2.4031	0.6350	2.9946	3.5879	1.9446
4760.0000	7.6854	8.2952	11.0723	2.7055	11.8881	7.1168	12.5439	5.5785	7.5593	9.6438	3.3884	3.8352	2.2214	7.6415	6.3225	6.0519
4768.0000	1.0420	-2.4390	-2.3214	-7.1089	-8.8426	-14.3449	3.0433	3.8235	2.1971	1.3498	-3.4967	5.8678	3.1604	-6.9885	7.3890	3.1229
4776.0000	12.7215	6.4175	4.2074	2.6036	-11.7670	-20.7390	5.9111	11.2599	12.1267	7.6107	8.3173	16.8178	7.1252	-5.7402	16.6069	7.8327
4784.0000	21.1130	15.7206	10.9932	20.7640	-6.1767	-9.7168	4.0066	18.0112	20.0199	13.1797	20.3608	21.2798	9.2361	2.3061	18.5867	8.7239
4792.0000	-4.0593	-10.4716	-12.9509	-1.5580	-21.6467	-23.9074	-1.0616	9.7736	-7.2673	-11.0119	-4.0722	6.5782	5.6664	-14.7005	13.6468	6.0262
4800.0000	3.4678	0.3470	-5.3737	4.2357	-10.4902	-14.1000	11.4338	13.9917	2.7088	-1.1429	2.3945	10.9131	6.8037	-6.9913	16.3675	9.7278
4808.0000	22.9170	28.6251	19.6040	35.6465	26.5332	37.4966	11.4434	15.2468	26.9686	24.6987	24.7163	12.6155	9.7163	24.9705	16.7252	9.0205
4816.0000	-15.1879	-18.0302	-14.8143	-4.8883	-9.2882	-0.7876	-20.7372	-17.3272	-21.9574	-19.4748	-11.0950	-13.7490	0.9977	-6.5540	7.5456	0.1616
4824.0000	-26.7284	-33.6345	-32.2323	-22.0009	-31.9845	-26.4698	-27.0273	-18.6201	-33.4043	-32.6613	-23.8195	-14.3040	1.7589	-24.8065	7.0725	0.0568
4832.0000	12.3695	16.5780	9.2098	27.1775	16.0622	30.5535	-4.2603	2.6329	15.9555	14.3158	15.8886	4.5545	6.9379	17.2342	11.5943	3.0716
4840.0000	10.0833	7.3507	8.6738	16.1416	0.2248	-2.2480	0.0014	-0.5120	6.1043	3.2553	13.2020	5.7709	-0.9115	4.1818	8.0354	-0.4732
4848.0000	-2.8561	-7.0276	-9.0784	-6.5454	-16.8994	-18.9998	-8.0767	-4.9538	-3.1542	-5.6118	-3.6008	2.7299	2.2998	-11.2154	6.0302	1.7055
4856.0000	2.9973	4.8334	1.7372	8.9790	4.2719	15.8746	-17.2957	-10.2010	8.2921	8.7074	2.5422	-1.6992	4.8729	7.0246	3.3142	1.0501
4864.0000	-15.0906	-20.7711	-13.2113	-7.0108	-19.1318	-18.3054	-18.9553	-13.1466	-18.2305	-17.1423	-14.1704	-9.9836	-4.1582	-13.6554	-2.0158	-5.9314
4872.0000	-22.9755	-23.1647	-23.9388	-17.2185	-15.6146	-9.1012	-12.4714	-14.2780	-20.0362	-17.7895	-22.8223	-13.6218	-2.0342	-14.9482	-2.1233	-4.9497
4880.0000	-7.5121	-5.3385	-8.5391	-5.2083	-2.8823	0.5706	-2.5495	-9.4915	-2.7623	-1.8665	-8.4587	-4.9850	-0.3545	-3.5770	-0.1888	-0.0669
4888.0000	-5.1360	-9.4970	-8.3869	-7.6885	-19.0867	-30.0224	5.5018	-1.3040	-5.7836	-8.4261	-6.2583	2.7539	-4.1900	-15.2224	-0.1720	-0.2639
4896.0000	-11.1688	-8.3073	-10.6304	-8.5284	-1.0634	5.0121	-8.1150	-15.9507	-9.5804	-8.3966	-7.3857	-10.4630	-5.1779	-2.7636	-5.2722	-10.2090
4904.0000	-6.4817	-4.4682	1.8966	-3.4538	10.7304	14.5935	-7.1233	-15.9316	-8.7734	-4.6782	-3.2717	-12.7059	-8.2396	6.0828	-6.3201	-14.0145
4912.0000	-1.7293	-4.3490	1.8900	-4.1827	-5.4406	-13.0646	-0.3178	-10.2802	-1.0084	-0.8060	-2.9102	-1.8618	-8.5043	-4.6639	-4.1919	-10.7548
4920.0000	-16.4107	-16.8870	-16.7173	-10.1354	-15.0846	-6.8843	-22.5664	-20.8219	-9.5864	-9.0604	-15.4464	-11.3069	-5.9255	-11.1430	-8.3639	-15.6665
4928.0000	-0.8113	-1.9740	0.3842	16.5585	-5.2276	-2.2179	-2.4522	4.2021	4.3664	2.6840	-0.4752	1.1430	-3.4617	-1.0150	-2.5276	-6.3144
4936.0000	11.6122	12.2669	9.5501	26.4068	-1.8378	-6.8625	11.8074	6.7445	15.7878	9.6542	15.4700	10.0413	-7.0343	2.9055	-4.8334	-4.6663
4944.0000	-40.2909	-41.0051	-33.4995	-27.4072	-20.2814	-10.9105	-27.3495	-30.2168	-43.3266	-38.4319	-32.8501	-31.2559	-15.1282	-20.6566	-19.4351	-24.3938
4952.0000	-27.7788	-28.1322	-14.2486	-11.8633	0.3009	7.4716	-10.2737	-13.0490	-29.8874	-21.2459	-27.6403	-24.7313	-8.8734	-5.4088	-7.0379	-13.2528
4960.0000	13.8727	16.0224	14.1179	25.7345	6.8841	5.7846	8.0261	4.7651	20.0598	16.5118	14.6861	8.6654	-3.2293	9.3833	-2.7759	-1.5281
4968.0000	-12.0545	-14.4142	-10.6457	-4.0979	-18.9302	-19.9668	-15.0803	-11.4506	-10.5531	-12.1673	-8.9725	-7.4717	-9.7706	-13.0755	-17.8089	-11.5499
4976.0000	5.5714	6.4729	15.9683	12.1989	13.9252	11.3954	2.4598	1.8704	2.8058	5.0574	6.9021	-3.1751	-7.1252	11.1487	-11.5614	-5.6549
4984.0000	15.2072	18.7784	19.4093	19.3003	18.5593	16.8263	9.6666	8.7778	11.0789	9.2470	21.4119	4.5587	-5.1483	16.1460	-10.1211	-3.7695
4992.0000	-6.7858	-8.4479	-5.1057	-0.1625	-11.0673	-18.4772	4.4587	1.3647	-11.4038	-13.3453	-2.1655	-3.1300	-8.8639	-9.1076	-12.5162	-3.8780
5000.0000	7.4705	6.4916	6.7430	11.8229	-4.8513	-13.4384	8.0891	3.4843	7.1499	3.0958	9.6986	6.5837	-5.6808	-1.3223	-6.8121	-0.3262
5008.0000	-7.6472	-8.4069	-13.2138	-6.5062	-19.1466	-18.5504	-12.6334	-9.1556	-5.6964	-9.7327	-3.3736	-2.0053	-4.6335	-12.8487	-12.3213	-6.4755
5016.0000	1.2969	1.3020	-0.0971	9.2806	-7.8610	-9.1758	-1.6637	1.7745	4.7693	1.8175	2.2094	2.7443	-2.4450	-3.3273	-8.9343	1.2788
5024.0000	13.3765	15.5769	14.9513	20.3618	9.2558	8.7217	4.3282	9.5814	13.7974	11.0323	16.4431	6.6405	-2.0042	10.6880	-9.4633	0.8203
5032.0000	-19.7945	-18.8173	-16.1176	-18.7163	-10.0943	-4.7992	-21.3954	-21.0493	-21.5438	-19.0178	-15.3078	-17.7509	-7.8373	-9.8079	-18.9110	-10.7362
5040.0000	4.6439	6.1841	13.7490	5.3751	12.0331	9.8524	-4.0027	-11.6549	5.4545	8.9193	2.2192	-5.0213	-4.1363	9.6988	-8.2561	0.5036
5048.0000	15.9326	16.2205	20.6661	15.7892	10.3350	0.7117	10.8840	5.2479	14.5435	13.4998	14.8898	7.4034	-3.0765	10.1325	-5.9774	5.5670
5056.0000	10.9623	14.9335	7.3398	15.7630	0.5388	-6.8298	15.8596	1.9099	15.6268	10.2332	13.5367	8.8580	-4.5750	2.4278	-8.5741	5.3114
5064.0000	37.8249	46.6692	39.3410	46.4580	34.7541	31.9829	26.3236	13.8607	46.1612	41.8311	37.8518	19.6470	1.1592	32.2595	-1.1473	11.1448
5072.0000	6.7346	6.8026	13.5899	8.9008	8.3282	3.6806	-0.9476	-2.8297	1.4312	2.2684	8.9824	-1.8900	-4.9536	7.8533	-10.1564	0.9415
5080.0000	-14.1132	-18.3085	-9.3869	-16.4140	-14.9204	-22.9944	-7.8991	-8.6148	-23.2013	-21.6087	-11.5830	-10.6518	-7.7333	-13.5617	-13.7119	-2.2193
5088.0000	-7.3095	-10.3536	-0.9959	-6.0911	-4.6705	-11.2871	3.9300	9.5940	-12.1543	-9.3070	-10.0678	-4.0334	-1.5309	-5.8913	-7.4686	5.4806
5096.0000	-18.1557	-23.3565	-13.4944	-11.7094	-19.8227	-26.1862	-6.9704	-1.0668	-25.4486	-23.3820	-18.0732	-10.6271	-4.2624	-16.9303	-11.1988	5.1945
5104.0000	3.9383	4.4880	7.0094	9.0777	5.2286	4.2658	0.0530	6.9014	-3.3072	-3.3215	7.6580	-0.9303	0.5314	5.4473	-7.9428	9.2808
5112.0000	14.9110	18.3872	15.9362	18.9717	16.3177	19.2090	8.1590	24.8385	11.8054	10.5121	17.1397	8.3087	6.4197	15.0261	-7.0607	13.0206
5120.0000	14.5840	16.7520	9.7571	22.1998	-1.2072	-4.3539	9.1769	21.2710	15.2145	8.5461	18.6144	13.2636	1.6199	3.9445	-13.4724	11.5603
5128.0000	16.1697	19.1833	19.0454	21.5870	13.2427	7.6984	14.5486	15.0320	13.9866	11.4791	18.9191	8.2898	-1.7522	12.5553	-10.6044	8.1734
5136.0000	-11.6802	-11.8029	-5.5598	-7.6318	-1.8498	-4.3577	5.4827	6.4070	-13.5026	-10.4145	-12.6247	-7.4661	-4.0372	-5.2524	-9.5890	-0.9403
5144.0000	-9.6464	-9.4209	-6.5123	-1.0992	-6.0894	-4.5192	-0.5080	7.8650	-6.4230	-5.5195	-10.6137	-4.2351	-2.8268	-5.8366	-11.9688	-2.5348
5152.0000	5.1577	4.2304	16.4721	16.3299	11.7519	11.3074	-4.4351	3.2798	1.1136	4.4151	4.6753	-4.0037	-2.8039	11.1967	-8.7221	2.4014
5160.0000	-12.8015	-16.9378	-4.3097	-3.8758	-6.9560	-9.2727	-8.8260	-5.2854	-19.2712	-15.3129	-12.8913	-11.7568	-4.8935	-6.3906	-6.0595	-0.7364
5168.0000	-9.9324	-11.9558	-3.7814	-3.9586	-3.9003	-5.4729	-0.3380	2.0756	-10.0402	-6.7470	-13.0165	-6.5397	-2.6857	-5.0326	-4.0760	-1.0743
5176.0000	15.2668	13.0573	24.4354	25.8061	10.1118	3.4590	1.6294	1.2851	14.7083	15.0718	13.1673	4.4333	-4.7943	12.3412	-4.0405	1.0167
5184.0000	7.2359	8.2332	11.9378	13.4856	5.8242	4.9353	-4.9115	-5.8509	7.4506	6.2413	10.7842	-0.4817	-7.7038	7.4973	-12.5005	-8.6535
5192.0000	-10.7601	-10.8856	-5.2063	-19.4263	-2.3283	-5.8198	-3.2107	-5.3482	-13.1771	-10.0158	-11.1115	-9.0431	-6.1407	-5.8544	-13.9316	-7.6528
5200.0000	0.3354	-4.7937	-3.4776	-5.1418	-21.7232	-33.7950	-2.2993	-2.4149	0.1966	-3.5378	-1.8996	5.7097	-2.2859	-14.4826	-5.9642	5.0300
5208.0000	-10.9610	-7.8963	-15.2672	-6.5772	-13.4113	-5.9174	-15.9268	-14.3457	-2.5553	-4.8644	-8.0928	-6.1829	-4.1376	-9.2726	-15.2357	-8.3174
5216.0000	-23.1599	-17.6880	-8.4404	-17.4208	10.0991	20.2168	-16.3417	-19.9256	-21.7776	-13.5544	-20.3549	-26.4232	-12.6435	1.9352	-26.7974	-20.2017
5224.0000	2.7259	6.0671	12.4684	4.5498	12.4552	12.3490	-5.6710	-5.4408	1.8451	3.9888	5.2607	-6.6896	-8.2336	9.8265	-22.6994	-6.8166
5232.0000	-3.2891	0.9799	-2.8767	-13.5288	0.1353	6.9563	-21.1569	-15.2406	1.6069	2.2816	-2.3137	-6.7852	-1.5593	0.6353	-21.6310	-5.1779
5240.0000	-7.8645	-7.6405	-12.2705	-20.4891	-15.4746	-13.6631	-16.5378	-8.6038	-1.0654	-1.7644	-11.2836	-1.9319	1.8169	-11.9204	-13.4633	-0.1521
5248.0000	15.6386	22.1333	4.8715	9.3453	4.4679	8.7981	7.8995	13.2491	28.4248	23.0709	12.7880	16.0412	9.8112	6.3281	-2.4576	12.4360
5256.0000	12.6154	23.7083	19.6617	6.3287	36.9481	48.9468	-2.0857	-5.9133	19.5158	24.0823	11.6114	-3.5187	2.7492	27.4786	-10.4140	-0.0625
5264.0000	13.2397	20.5368	26.2942	8.3200	36.7769	45.2448	-5.8070	-2.6797	16.3227	22.2758	11.6761	-4.7840	-1.3056	28.0393	-14.6028	-6.8651
5272.0000	3.0744	7.8800	4.5879	-1.9034	12.6044	20.5463	-0.9572	10.8846	9.9150	11.9383	-0.5162	1.3371	5.4203	8.7024	-8.1075	1.5129
5280.0000	-12.5191	-15.5172	-5.7093	-17.6977	-2.6795	-5.5268	1.1519	7.8365	-14.4976	-8.3851	-20.0286	-6.9174	2.8883	-6.8024	-0.6012	5.5686
5288.0000	20.4356	21.1671	24.2331	16.4302	21.3090	15.2471	24.8338	27.2737	23.3633	25.0677	11.1504	15.0902	8.9321	16.2790	11.5718	15.3063
5296.0000	31.0122	36.1359	27.6385	20.3829	29.0700	29.7838	22.4533	24.1747	38.9398	37.6388	23.7055	21.8025	13.5557	24.3580	15.2474	14.6484
5304.0000	3.8502	1.0289	4.6164	-17.4097	5.6140	3.0123	-0.5703	5.8190	0.5552	4.2386	-3.1522	3.2471	8.6209	1.9639	10.3882	5.8008
5312.0000	-2.8026	-5.8219	-9.2812	-29.7526	-7.7806	-12.3222	2.0307	5.4464	-4.7078	-3.2530	-9.8595	4.7603	10.7353	-9.8225	12.1533	9.8615
5320.0000	-6.6075	-9.9302	-13.8587	-22.9752	-11.8731	-15.5617	3.3915	2.4641	-9.4915	-9.3070	-10.1380	2.5186	7.3399	-12.4147	14.4290	6.7747
5328.0000	-0.4103	0.6717	6.1546	-9.6335	22.2636	29.3934	0.9501	5.8260	-5.4037	1.7373	-3.4061	-5.5276	6.5667	12.8402	11.9620	-1.1177
5336.0000	16.9569	20.4710	15.8257	-5.8488	28.0641	32.7320	10.1823	15.2699	16.3940	19.4892	11.9286	9.5868	13.3425	19.2184	15.9535	6.3925
5344.0000	9.6889	2.6230	-3.3469	-11.5181	-15.4854	-27.8173	14.8072	20.2155	4.3144	-0.6485	5.6650	19.2829	11.0098	-11.7206	22.1879	12.5601
5352.0000	2.2239	-0.4625	-1.7476	-8.1639	1.1493	-0.1639	8.7147	12.6477	-1.0515	-0.1425	-1.5946	6.2458	9.0609	-1.1000	18.7885	6.9337
5360.0000	1.7130	1.2608	-2.6976	-13.0615	7.0827	12.7962	-0.4373	6.2288	-0.5251	1.9572	-1.9778	2.9219	12.4564	3.3328	19.3295	6.7602
5368.0000	-9.1408	-14.8933	-22.3117	-19.3104	-20.4004	-17.7597	-2.4568	12.9629	-14.2326	-15.7359	-11.4042	5.3273	15.2232	-16.8659	23.8704	13.5055
5376.0000	-2.8444	0.0375	-14.6561	-4.5152	-0.1922	9.1989	11.4635	16.9933	0.5045	-0.8113	-4.1852	6.5529	14.6453	-2.3981	20.9197	13.1203
5384.0000	6.9918	7.4420	-6.6596	-0.6272	-1.2663	-2.0976	23.8634	24.1780	6.5742	2.1213	6.7705	15.7077	11.8919	-2.5347	23.8236	11.5549
5392.0000	6.4970	-0.9077	-6.7207	-9.4814	-14.3992	-22.7647	11.4903	17.3917	-2.5669	-6.7457	5.0017	15.5410	12.4117	-10.7990	28.6158	13.6304
5400.0000	19.5411	16.5793	14.3431	7.7968	10.7119	9.8965	3.4499	8.7488	13.5016	12.3389	17.7456	13.3284	11.9127	11.2255	24.8186	10.5591
5408.0000	24.1395	25.1520	16.8530	22.2263	18.6697	23.1476	14.3797	24.8983	21.0274	17.3330	26.1414	18.3111	12.0860	17.8781	22.3525	7.9449
5416.0000	17.0511	18.8283	-0.9894	5.3714	0.6560	8.7618	1.9213	15.1180	18.9230	11.7143	19.8745	18.9486	15.3974	4.5757	18.9057	8.6568
5424.0000	3.8294	1.6655	-10.0319	-16.4156	-13.3954	-4.5146	-30.8483	-17.4300	3.4726	-0.1863	5.4396	4.1785	10.9060	-5.6395	9.0487	1.7791
5432.0000	-16.3308	-20.0288	-14.6840	-22.5411	-9.3454	0.3443	-36.6500	-28.1413	-24.5560	-20.1587	-13.2905	-17.6127	1.0195	-7.0908	0.8428	-6.3381
5440.0000	-7.8292	-7.7099	-9.0139	-10.5010	-4.5987	-1.5513	-12.7173	-19.6849	-11.0468	-10.3245	-4.0925	-8.6652	-2.3233	-4.0597	0.2973	-4.1539
5448.0000	1.0131	2.3749	-9.1298	-10.1896	-11.4343	-13.8062	-2.7820	-14.2884	3.3843	-1.6059	4.5790	3.7447	-1.5604	-8.0516	-0.6450	-2.8851
5456.0000	-3.9531	-1.3403	-10.0241	-19.7889	-3.7228	-2.3943	-9.1996	-21.7115	-5.5307	-6.7535	0.5192	-4.6370	-1.5228	-4.4136	-2.0602	-4.6670
5464.0000	10.1932	14.4121	7.4185	-9.5167	13.7928	12.9980	-2.7912	-20.5608	5.6837	5.1829	14.9363	-0.4125	-0.7499	10.0029	1.5705	-2.0304
5472.0000	9.1775	15.6838	4.3930	-13.0193	15.8202	20.4100	-5.8885	-17.2933	6.9546	6.3846	14.3135	-0.5071	2.1366	11.2157	-1.6130	-2.1017
5480.0000	-3.2924	2.6267	-18.0152	-34.6715	-2.6499	5.9422	-11.1497	-10.5298	-3.5812	-5.9679	1.1287	0.0531	9.2872	-4.9758	-1.5874	2.5329
5488.0000	-7.1245	-5.9536	-24.2165	-42.8106	-16.0990	-18.5330	2.4648	-0.7152	-8.9878	-12.1459	-7.1141	5.1774	10.2170	-17.4813	6.4007	8.4516
5496.0000	-14.0135	-12.1754	-22.6539	-49.3018	-8.6432	-14.2909	6.8142	-9.9358	-17.6903	-15.9871	-15.8094	-4.3300	4.7509	-15.6463	4.7456	5.2353
5504.0000	1.5572	8.3106	-16.4318	-49.2991	2.3441	-3.1408	18.5228	-0.6745	-3.7574	-6.6154	4.2828	7.6391	10.4735	-6.9129	7.5911	10.4741
5512.0000	17.3524	25.9363	0.6245	-31.1079	17.4527	10.6801	29.5651	11.8501	10.0659	5.0727	23.2598	16.0919	9.3889	6.7658	7.2017	8.3369
5520.0000	4.0056	7.5364	5.8109	-19.9037	16.6983	13.0667	8.6483	-0.0159	-3.9530	-1.9710	7.5166	-1.6399	-1.9801	7.6815	-5.1511	-6.1597
5528.0000	-9.5239	-12.3095	-12.5969	-29.4432	-10.2203	-15.3135	-1.0251	0.6362	-17.1988	-16.7071	-8.1519	-2.7991	-0.2636	-12.2140	-1.7413	-4.3888
5536.0000	-6.6915	-9.6574	-12.8686	-24.1125	-11.9375	-19.9908	9.4589	5.5299	-13.2471	-14.6957	-5.4744	2.3547	0.2922	-13.4895	5.2624	-1.9509
5544.0000	9.7342	8.0128	8.0047	6.1867	5.2832	0.5776	14.2850	15.7589	6.0829	4.2782	10.2290	9.5167	1.5603	4.0857	9.3252	-0.8467
5552.0000	5.7346	3.4212	-4.3310	7.4733	-8.7875	-7.8498	3.8697	9.1725	5.4925	0.1425	8.4800	10.6569	4.3181	-3.9513	13.8231	-0.1285
5560.0000	-18.5828	-23.2818	-24.8735	-4.6802	-30.6367	-28.8679	-15.3989	-21.8928	-15.3156	-18.5328	-15.2732	-7.4154	-6.9405	-21.8236	4.6349	-11.7590
5568.0000	-5.7547	-10.5096	-5.4780	27.7873	-17.2475	-16.8289	-1.8794	-6.6817	0.9141	-2.0581	-5.4219	-0.4385	-7.3285	-8.3940	9.5040	-7.4451
5576.0000	20.8417	19.8316	20.1256	61.2047	10.1960	11.1008	20.3312	11.7282	24.4703	18.3465	25.5565	14.2972	-3.7688	15.9248	23.2910	-2.6474
5584.0000	3.5668	2.4333	12.7870	48.9384	9.8327	14.6776	-0.0331	-18.4031	2.9377	2.0818	12.4674	-7.1897	-15.5647	13.3845	11.8907	-19.2580
5592.0000	-23.9005	-29.0844	-11.5136	30.6817	-16.5564	-9.0897	-22.2057	-35.4937	-21.4592	-19.2329	-17.6000	-23.7627	-20.6480	-8.3643	0.7596	-24.2357
5600.0000	-18.9268	-26.4762	-9.9429	33.7979	-25.2500	-26.0751	-12.3333	-25.3131	-15.0332	-15.6625	-15.6298	-14.6293	-19.0941	-14.0270	2.3629	-16.7594
5608.0000	-6.8375	-11.8231	6.6010	39.3855	-7.0435	-9.7142	-3.3978	-17.5751	-2.0549	-0.3960	-7.6474	-10.0428	-15.4306	-0.5378	2.6188	-9.4706
5616.0000	-6.6723	-9.3871	3.5700	41.3564	-5.6323	-0.2612	-10.8228	-15.8603	-0.2519	0.5837	-5.5634	-10.1185	-11.1820	1.9093	0.9369	-7.3182
5624.0000	-4.7951	-6.7481	3.4070	35.8095	-3.7047	0.9217	-8.1698	-10.7912	-2.4301	-3.0262	0.2271	-8.3643	-12.1828	2.4829	-2.9142	-11.6381
5632.0000	-8.6478	-10.1728	1.1768	8.6213	2.0231	1.9785	-1.0130	-6.7051	-9.9173	-6.3960	-8.1174	-10.3146	-8.5392	0.7459	-2.3029	-8.5538
5640.0000	-21.7990	-31.0275	-20.5117	-16.2194	-30.5059	-37.0888	-9.6738	-4.2427	-25.7319	-24.6825	-23.9483	-8.3072	-5.1212	-24.8955	0.1203	-5.4363
5648.0000	-23.8663	-31.5318	-21.6625	-12.1961	-28.5410	-32.0934	-7.3892	0.7245	-25.4278	-24.2805	-25.4580	-9.2383	-5.9671	-23.7403	-3.1464	-7.5947
5656.0000	-14.5357	-9.8954	-4.5054	0.0218	12.3851	18.3931	8.1746	-1.1442	-11.1454	-5.3134	-14.7330	-14.0156	-6.5740	4.0763	-5.6544	-8.5062
5664.0000	-1.7230	1.8787	7.9867	6.5048	18.2081	17.8405	13.4134	1.3142	-3.4739	0.5963	-0.4533	-7.1425	-6.4575	10.3535	-3.3333	-5.0771
5672.0000	15.2243	18.8357	24.7987	14.9309	31.4388	29.4812	16.3812	8.1546	11.1608	15.1856	14.1145	1.8409	0.5217	22.8141	4.1756	4.5507
5680.0000	19.7981	23.3087	22.1576	17.2891	26.0773	25.4579	15.4790	9.4772	17.6432	18.0764	19.9589	8.4234	3.7628	20.7893	9.3269	5.8426
5688.0000	3.6815	-1.3983	-0.5443	11.2481	-13.1371	-19.0372	3.3854	6.0613	0.6520	-3.6365	5.5382	7.3845	-0.9803	-6.7733	7.3581	1.1128
5696.0000	-6.8037	-10.4853	-3.5557	13.1688	-7.3070	-6.6115	-2.2455	-3.5862	-7.0070	-5.9457	-7.5956	-4.5048	-2.0719	-4.0268	8.7572	0.8486
5704.0000	5.9059	6.7770	12.9687	27.5692	13.9562	16.8843	7.7611	0.4677	9.9146	11.6767	4.6199	-0.3364	-3.1101	12.6123	9.1531	-3.0482
5712.0000	18.8687	24.6119	21.6523	37.9480	20.5816	26.9630	10.1840	6.2762	33.0042	30.5369	18.0589	9.7300	-3.3794	20.4897	-0.3869	-8.9070
5720.0000	3.4779	10.1778	7.4486	24.3875	13.9070	28.2041	-4.2403	-1.4672	19.8027	19.8596	2.9403	-1.2083	-4.0571	13.5113	-8.6535	-13.9548
5728.0000	-10.1073	-13.0637	1.9331	14.7706	-3.4876	-1.5058	-6.9872	-0.7075	-5.3652	-2.0375	-12.6116	-9.2471	-9.7719	-1.5408	-9.7348	-12.9729
5736.0000	13.2149	12.5244	24.3666	39.2013	10.4322	5.6552	9.6095	8.2117	19.7421	19.4772	10.2700	5.1068	-8.5389	12.8309	-6.7445	-3.7449
5744.0000	26.8016	33.4114	32.3614	43.8923	29.1892	29.7558	21.0835	17.2913	35.4322	32.7883	27.3097	13.3364	-3.4317	26.8605	-5.4884	-1.2478
5752.0000	8.8498	14.6037	22.1881	13.1728	30.4858	32.2898	12.3349	9.7560	12.4167	17.4338	6.2064	-2.1825	-4.2575	21.2456	-11.1290	-5.4194
5760.0000	-5.3600	-1.1182	7.4496	-6.8725	20.2592	25.4254	0.7803	3.5904	-1.7490	6.0197	-10.5065	-10.0940	-1.6851	10.8744	-12.0048	-5.1351
5768.0000	-9.0603	-9.7523	-6.5209	-13.8521	-1.9355	-2.8608	6.4113	20.3179	-12.5016	-10.4831	-9.8904	-2.1177	0.7330	-5.6702	-9.0568	-1.1632
5776.0000	-3.9993	-3.0931	0.5252	-8.3419	3.9006	0.5727	9.8374	19.5864	-8.9059	-7.6020	-2.4087	-1.4774	-2.7955	-0.6945	-15.4021	-2.4242
5784.0000	-10.9622	-5.9275	-9.7463	-15.6569	3.3211	8.9478	3.0054	12.3460	-9.3760	-7.9824	-8.4993	-5.8681	-1.8545	-2.2549	-18.9505	-6.9847
5792.0000	-22.8409	-23.4736	-27.7829	-32.2718	-22.0582	-23.3059	3.1368	13.9813	-22.0384	-22.2149	-23.5624	-4.6595	0.1277	-23.1651	-13.2718	-2.0673
5800.0000	-2.9556	-3.1071	-2.9235	-4.7542	-6.1139	-10.6413	7.9379	11.7118	0.5093	0.1953	-6.6274	2.8584	0.1878	-6.2689	-7.5375	3.8787
5808.0000	3.1536	8.5752	2.7427	7.3584	10.4724	18.2977	4.1005	10.4154	10.1603	9.9442	2.9669	2.2558	2.5944	7.9575	-6.1358	-0.0766
5816.0000	-11.3459	-9.9934	-16.1828	-14.3236	-13.7895	-10.2089	-6.7301	-3.4013	-3.7207	-4.3461	-13.8687	-2.6153	1.7966	-11.9308	-6.8962	0.7371
5824.0000	-6.7586	-10.6220	-10.3831	-7.1452	-23.4162	-30.6677	-0.6436	2.6830	0.8689	-0.7856	-14.5592	4.1253	1.8755	-17.3801	-3.4269	9.0335
5832.0000	-19.4420	-19.5806	-24.3774	-15.7452	-20.8210	-19.8900	7.0546	17.5664	-12.6560	-13.1180	-23.5952	-1.2774	3.3429	-20.0269	-6.4835	5.7950
5840.0000	-32.1732	-30.5147	-37.7586	-22.5289	-27.2745	-19.9413	-2.8966	4.0094	-22.7667	-22.4808	-33.8150	-10.8883	0.2511	-26.0475	-10.8940	0.0647
5848.0000	-15.6535	-18.5531	-9.6573	12.1730	-14.1931	-15.9191	6.0971	9.6649	-11.1592	-9.4276	-19.6797	-6.0535	-3.8585	-11.4316	-3.6709	4.9490
5856.0000	-17.4366	-20.8967	-4.2412	9.2640	-7.2457	-13.7047	10.8871	7.7007	-17.8898	-13.2688	-20.9309	-11.2323	-9.5070	-8.5167	-7.3175	0.0665
5864.0000	-18.2735	-21.4400	-15.5815	-5.6428	-22.4618	-25.8204	-5.5827	-6.2741	-12.5011	-11.8161	-21.7739	-7.9452	-6.6376	-18.1127	-10.3173	-2.7797
5872.0000	1.5260	2.0518	-3.5107	11.4233	-7.6934	-4.5794	2.8849	12.7943	9.5911	6.6815	-1.3548	7.2974	5.2318	-3.3908	0.7091	8.1787
5880.0000	-4.5916	0.7507	-11.4461	-1.5653	-0.7605	7.0255	7.0492	9.3501	3.2442	1.6668	-4.7696	2.1119	5.7138	-2.2034	-0.0787	5.8772
5888.0000	-7.9243	-10.1799	-16.0783	-5.5713	-24.3994	-27.8990	-1.5283	-2.3889	-2.1373	-6.1552	-9.6982	3.1985	0.4304	-17.7253	-0.6094	4.4093
5896.0000	6.7495	2.6042	2.6937	23.2675	-17.2248	-24.7634	4.0075	7.1958	9.5416	3.4796	6.7021	10.3713	-1.7772	-7.3069	-0.2512	7.5920
5904.0000	-12.2689	-11.4531	-12.2853	9.5779	-13.2944	-9.7391	-4.0462	-4.1866	-7.5622	-9.0162	-9.7614	-6.5063	-4.9357	-8.9525	-8.8600	0.0077
5912.0000	-18.1490	-21.0477	-11.6813	-3.1246	-11.3619	-13.1096	-2.6328	-4.7571	-20.2010	-16.2366	-20.4276	-12.3469	-3.1150	-10.9212	-2.1532	5.6587
5920.0000	13.3787	12.9657	18.1369	17.2374	17.4940	12.2103	15.4145	13.5678	3.4008	4.8838	14.0069	4.7447	4.2560	14.0312	9.8356	15.6379
5928.0000	19.5635	21.3889	10.9397	15.5844	11.4491	10.8228	13.1413	14.3243	11.1482	6.3373	25.6296	13.6236	9.0663	11.7306	13.9659	15.4542
5936.0000	23.1845	20.1652	15.3943	20.8304	0.2534	-9.4723	14.4920	15.6652	17.5554	11.2615	24.3156	19.5475	6.9173	5.4410	14.3199	16.8040
5944.0000	-4.4363	-3.2353	-2.9348	-16.7031	4.2177	13.5312	-20.9802	-4.5498	-8.6688	-7.5065	1.5869	-7.4514	-2.9945	2.5939	-15.3422	-19.0243
5952.0000	-5.3405	-0.0424	-9.4157	-6.9951	-0.3147	15.4592	-19.5685	-7.0375	4.7954	3.5411	-2.3719	-4.0316	-0.4747	0.7528	-14.1601	-15.8482
5960.0000	-23.7843	-23.0668	-28.7068	-21.4726	-20.9328	-4.6475	-28.6457	-8.2162	-15.0388	-15.5281	-21.1392	-11.4112	-2.3414	-16.7688	-15.7163	-20.7423
5968.0000	1.5039	3.8455	5.3272	-7.7905	13.2116	21.6919	-7.6439	12.6826	1.3323	3.9252	1.7435	-1.4536	2.2578	8.8660	-11.4148	-9.5343
5976.0000	19.8244	23.9966	14.7201	9.0092	16.9059	22.0954	1.2952	15.4492	16.7801	13.2722	24.7759	11.5156	6.9984	15.9884	-3.2653	3.5868
5984.0000	-16.6499	-18.0481	-26.3542	-26.0018	-19.5630	-11.3415	-17.6808	-0.7433	-21.9248	-23.8306	-10.6050	-5.7849	4.1294	-16.4844	-3.5112	-3.9346
5992.0000	-15.5378	-18.3591	-18.4714	-22.5844	-13.9468	-14.0807	-0.6418	8.4266	-19.5629	-18.5240	-15.7900	-4.1589	2.2683	-14.8022	0.3302	-0.9137
6000.0000	10.6391	11.1616	5.3060	5.0244	3.7615	-0.3901	16.4868	18.6363	7.7573	3.5704	13.9977	11.6683	1.1484	2.9610	3.1165	-0.9018
6008.0000	-14.5682	-12.2905	-13.8751	-24.9640	2.2021	12.2579	-16.4043	-14.4336	-18.1501	-14.7160	-9.8735	-13.9463	-2.0238	-2.3172	-5.4596	-14.5341
6016.0000	-17.0751	-18.3240	-6.6941	-22.9428	7.7114	16.3182	-23.3892	-20.7049	-26.2996	-17.4849	-15.5724	-21.7346	-2.4882	1.7615	-1.5229	-11.3758
6024.0000	2.3334	1.1327	10.1622	-0.4787	19.3588	23.6642	-3.0491	6.8919	-12.0907	-7.7060	7.7043	-6.1958	0.0853	13.2820	3.9891	-7.1673
6032.0000	5.9477	12.7911	3.9066	-5.9294	24.1787	33.1409	8.7349	9.0515	1.8379	2.9973	11.3346	0.5110	4.7858	15.0404	3.7631	-3.4197
6040.0000	16.9034	24.8500	7.7307	-5.2951	23.2468	25.2953	24.5538	14.2533	19.5869	17.3231	17.6689	13.7554	8.6789	14.4056	12.2608	3.3710
6048.0000	-2.6789	-2.4214	-9.1190	-23.6443	0.3817	1.3311	4.7267	1.8183	-3.1281	-2.5919	-4.2871	2.5663	5.2783	-4.0216	11.9809	-4.3793
6056.0000	-21.3787	-24.1727	-29.0679	-27.6924	-23.1592	-16.1025	-17.8578	-16.7527	-16.6741	-15.8719	-23.7127	-8.2740	2.9531	-20.1924	9.0331	-7.1104
6064.0000	-12.1290	-11.8875	-14.7816	-20.5691	-0.1953	8.0555	-1.9474	3.4444	-10.7786	-7.3439	-14.9891	-4.6698	6.5048	-4.8105	11.4079	-3.9198
6072.0000	-9.3574	-9.4084	-4.9171	-24.1991	11.9340	17.6599	-0.1606	6.3690	-13.8623	-6.7279	-13.1898	-7.6330	5.9743	2.6790	8.8173	-3.6722
6080.0000	-6.1126	-6.3369	-13.7997	-10.2625	-8.8658	-1.9855	-5.0753	0.4429	-0.5123	-1.5313	-8.0482	1.7720	5.8458	-7.4199	9.5757	-2.5940
6088.0000	-20.0325	-18.8334	-27.0731	-28.4205	-6.3224	9.7159	-8.2321	5.1008	-14.1221	-10.7496	-23.6709	-6.3434	10.6011	-10.2893	13.0676	-5.5436
6096.0000	-9.6848	-11.1098	-10.9250	-16.8538	3.5297	16.4167	-7.1548	9.1446	-5.9504	-0.1323	-18.0193	-2.8504	13.8316	-0.7657	20.4764	1.5126
6104.0000	27.3583	30.2434	20.5712	31.5266	20.1804	27.6491	14.7229	23.5682	37.1348	33.2299	23.6861	21.8823	11.9319	20.5524	21.7991	4.6198
6112.0000	7.3401	11.8754	4.5748	-4.3009	19.6126	28.3561	7.1605	7.4400	11.6259	13.4589	4.9018	4.7040	8.1067	12.6117	13.4583	-2.7725
6120.0000	-10.6741	-13.4762	-11.9460	-27.9631	-4.9682	-3.3640	-7.9433	-12.8995	-7.9904	-2.5087	-20.3191	-5.2470	8.2501	-8.0296	18.1609	3.7053
6128.0000	13.0828	13.7116	17.7440	3.8626	22.7179	19.6568	14.4485	1.2072	13.7928	18.2162	5.5761	5.0134	5.5999	15.4497	20.5862	5.6441
6136.0000	26.8273	28.4930	34.4398	11.4957	38.4767	30.7900	27.9459	16.9279	22.7716	26.8516	20.5880	12.3936	5.4938	27.3483	18.7379	5.7317
6144.0000	28.6823	27.6525	24.9976	20.3424	14.0038	5.7835	26.6616	26.4216	37.8974	35.4470	17.0870	25.9525	10.8261	13.3419	21.7669	12.0880
6152.0000	17.5273	19.6865	17.8582	20.0236	16.6877	14.0567	22.9972	18.5948	25.2436	24.8052	10.7094	14.1799	5.6288	13.5352	13.0472	7.8344
6160.0000	8.6761	8.2677	8.2586	8.6206	8.2502	5.7610	15.3086	15.6631	9.3433	9.8159	4.1339	8.4850	6.6108	6.0094	13.3834	10.0013
6168.0000	7.2142	7.6625	2.1853	4.1703	4.6385	6.6045	16.3116	21.3195	17.6480	17.9306	-3.2792	13.1433	12.7479	2.7097	19.6231	11.2973
6176.0000	-6.6419	-9.7145	-0.8394	-8.0680	1.9502	-3.0411	11.6991	8.1160	-7.1033	-1.7948	-14.9929	-2.3048	2.8765	-2.9184	11.7013	5.5264
6184.0000	-13.3058	-21.6532	-8.8463	-5.9764	-17.9042	-27.9103	5.6317	10.1859	-18.9434	-16.1789	-19.0330	-3.2309	0.0484	-15.8849	6.6377	8.3963
6192.0000	-5.6019	-4.4361	-6.9926	0.3927	-2.2876	0.6922	9.4493	17.7887	-0.5721	0.1949	-9.8346	2.0688	5.8806	-3.6470	1.8632	8.6943
6200.0000	-3.6615	-5.2653	-8.7508	-1.6252	-12.1077	-14.8533	5.2442	12.5806	-5.8655	-7.9750	-3.8855	3.7235	5.0763	-9.2644	1.0241	13.3997
6208.0000	-8.8282	-16.2358	-13.0622	-2.2501	-27.2502	-34.7215	-1.6116	11.5181	-13.7452	-16.2083	-10.4829	2.7280	3.5162	-19.3028	1.5221	14.2261
6216.0000	-5.9104	-8.2806	1.8204	-8.9414	3.2236	1.6260	-3.3679	9.8133	-15.2061	-10.8837	-6.2222	-6.7285	0.4822	0.1645	-8.2517	3.2423
6224.0000	-0.5202	-6.3230	5.8037	1.2131	-3.5807	-9.9574	-3.8582	14.2204	-14.7569	-13.5092	2.0367	-1.9479	-0.7912	-1.7898	-8.3681	5.6678
6232.0000	-4.7302	-10.3662	-0.6540	14.9462	-14.7459	-21.2900	2.2998	12.6564	-7.4470	-8.2583	-6.0172	0.3765	-2.6074	-8.8343	-4.6052	7.7699
6240.0000	-12.0371	-17.7101	-4.5661	-3.3035	-13.1952	-22.9917	2.7994	4.8183	-18.0501	-15.6863	-13.9771	-6.5503	-5.8735	-11.8574	-7.1175	2.7989
6248.0000	-10.7963	-18.4602	-6.1220	-7.8390	-16.7819	-29.1362	3.9766	10.6678	-22.9815	-22.3481	-9.4796	-3.8341	-5.5723	-14.6551	-6.0258	1.3468
6256.0000	13.6992	13.2750	21.2448	15.8694	18.0322	7.4306	25.6814	24.1348	4.8171	5.4251	14.8521	7.2158	-2.7002	12.6970	-0.5263	4.2418
6264.0000	25.6135	24.3219	27.4913	15.4261	18.0029	3.9443	26.0267	26.1566	15.7006	13.8532	25.1991	16.8375	3.7412	14.8750	5.7371	13.5483
6272.0000	2.9132	-1.8680	-1.4153	1.1688	-12.5408	-20.4429	1.7800	6.2398	-5.2797	-8.7800	5.6848	5.6860	1.0090	-7.5961	2.9170	7.1991
6280.0000	-3.1550	-9.0383	1.0808	-6.2275	-2.2533	-13.9298	10.1394	7.5895	-20.9278	-19.3507	0.5622	-2.8105	-2.7231	-4.3920	5.8983	4.2599
6288.0000	-0.6483	-12.2263	5.0165	-14.4491	-7.8952	-32.0793	20.9068	19.4828	-22.1106	-18.4092	-6.0678	3.4731	3.8398	-10.3602	16.0692	20.9051
6296.0000	-4.6239	-13.6163	4.4701	1.7912	-10.0964	-26.3318	7.6206	-0.3052	-11.7425	-7.4276	-13.0071	-2.6768	-1.1348	-8.6337	10.7157	14.7661
6304.0000	10.8675	9.9245	26.1023	20.2268	25.0914	19.1219	7.6090	-5.9920	1.8272	7.2116	10.9722	-5.1026	-6.0833	19.5799	5.2370	0.4920
6312.0000	17.4883	19.9834	17.8984	3.8459	20.8373	16.7461	5.9770	-6.3157	6.0340	5.1961	24.5355	3.4677	-0.9459	16.5014	3.8896	0.7705
6320.0000	5.4512	4.6399	-3.7053	-5.8557	-10.0736	-16.6731	-2.7999	-17.9995	-0.1087	-5.8744	12.9255	3.9078	-4.0580	-5.7952	2.4510	-3.2362
6328.0000	6.4272	2.0604	15.8807	10.4062	8.2277	-2.8729	4.8496	-11.1353	-5.4594	-3.8491	10.2944	-3.5615	-10.6897	6.8904	4.5270	-8.1160
6336.0000	15.9500	15.8781	28.5332	16.7539	27.0283	17.0907	10.6311	-11.0030	1.4866	3.7465	23.2059	-3.1689	-12.3063	20.9287	0.8951	-9.9670
6344.0000	16.0278	18.4293	10.4578	7.8616	8.4752	2.2642	8.4174	-13.6169	9.5547	3.8877	26.2695	6.6592	-7.1175	8.4519	3.7038	-8.6352
6352.0000	17.6449	18.8865	21.3076	17.4552	19.9374	13.8204	15.5136	-0.9120	13.3815	12.3545	21.2402	6.2345	-5.7686	16.2500	7.3738	-7.1764
6360.0000	19.5425	22.2191	28.5149	26.3866	28.0369	20.2780	24.1067	7.5935	14.2598	14.0868	24.1618	5.5563	-9.4444	21.8112	0.4913	-8.3192
6368.0000	15.2098	21.1320	8.1570	20.4149	8.5678	7.7219	20.4507	8.5655	22.0990	15.3836	20.1552	13.0403	-3.0598	8.5144	-0.1961	-4.0286
6376.0000	28.1047	33.1423	33.6811	38.4906	30.6898	32.1946	14.5076	9.2871	36.6112	35.8656	25.3276	12.7146	0.3182	28.1718	3.7502	0.5998
6384.0000	17.5326	14.9790	30.7321	24.3443	25.2792	20.6438	3.1321	0.7794	6.4663	10.0597	19.0175	0.1295	-3.7959	22.1624	6.0524	-1.3733
6392.0000	-11.8033	-15.6376	-10.3683	-8.4831	-10.7366	-11.8734	-10.7439	-17.2915	-18.3087	-16.7346	-9.1724	-10.0776	-4.0223	-8.9050	4.5982	-3.5992
6400.0000	14.5011	15.0926	21.8206	16.7375	18.5249	16.4055	1.1734	-6.3361	13.1048	15.2106	13.0441	1.5108	-1.3623	16.5823	3.6564	1.5310
6408.0000	12.2786	12.7497	11.5200	-3.8476	18.2262	19.2119	-2.1124	3.5646	-6.9823	-7.2136	22.8241	0.8616	3.0717	14.0772	3.7189	0.3834
6416.0000	-24.2517	-28.7721	-34.2560	-41.4552	-27.5634	-19.5757	-32.0644	-16.3345	-35.3476	-35.4089	-17.6729	-12.9956	4.7705	-23.2247	-0.0788	-3.6854
6424.0000	3.5055	-4.5431	6.2535	-3.6131	-10.6425	-14.4606	-18.2428	-3.0487	5.0049	7.3705	-6.9632	3.3523	6.4206	-4.5150	6.0199	7.0262
6432.0000	16.1104	15.3020	13.2477	5.7661	10.6781	10.1053	1.7507	8.8082	10.1407	8.6571	17.3878	9.5348	6.6108	10.5440	9.0958	5.2911
6440.0000	11.7373	12.1529	5.2936	14.1570	5.8065	14.2836	-10.8251	-3.0713	6.5398	2.7919	19.5373	4.8456	4.4503	9.6202	9.6771	-1.0415
6448.0000	41.1579	36.7688	46.9728	52.4644	29.2351	32.7594	-6.6878	11.6161	38.4601	37.4087	38.7458	18.6497	8.1233	34.3840	21.5927	3.7951
6456.0000	40.9438	41.3847	42.7386	41.9108	38.1237	45.8236	2.6650	16.6785	40.6448	39.5127	39.8061	20.1430	10.4372	37.5535	23.4943	-0.2890
6464.0000	25.9200	21.7108	24.1930	23.4599	14.6583	15.8537	0.3405	8.8575	25.9937	25.1978	20.4708	16.4284	11.0515	17.3248	28.2109	5.7481
6472.0000	-5.1775	-12.8885	-3.7538	-7.8039	-3.2701	-0.1211	-12.9081	-5.7430	-12.3973	-7.8810	-9.3555	-4.1321	7.4155	-2.5186	26.1946	0.8863
6480.0000	-42.2669	-46.8128	-41.5490	-39.9530	-20.5640	-4.8537	-32.5114	-26.9175	-50.2390	-42.4571	-39.4059	-29.5304	0.8220	-22.0438	11.0585	-12.1845
6488.0000	-20.0278	-33.2995	-13.6346	-12.4594	-21.8370	-23.8358	-20.7541	-8.4809	-30.2100	-23.6834	-26.5994	-12.4683	3.7163	-17.0233	19.4970	4.7683
6496.0000	-15.2087	-25.8844	-13.4342	-20.0492	-16.5301	-18.2846	-15.0916	-0.8522	-29.5333	-25.6612	-15.9600	-8.2486	3.3182	-14.3092	14.9016	-1.3723
6504.0000	-47.3869	-51.4640	-60.9952	-66.4491	-39.8890	-22.1261	-41.8982	-22.0356	-55.9108	-53.4899	-40.7317	-24.3790	6.4975	-37.3976	2.0133	-11.4718
6512.0000	-34.4524	-41.0968	-40.4553	-47.7146	-30.8670	-17.6598	-35.2733	-10.7854	-33.6444	-27.4256	-42.8727	-15.6349	14.2779	-27.8636	11.3987	5.1922
6520.0000	-10.7720	-13.2313	-2.0424	-11.8124	3.9021	12.1371	-15.8411	1.6320	-9.3193	-1.8991	-17.8642	-9.8365	3.9088	0.8966	-0.0762	-4.4931
6528.0000	-14.3910	-17.7816	-12.0338	-18.4897	-11.1167	-4.1158	-28.4121	-7.7683	-22.1825	-20.6837	-8.4261	-12.3843	-4.2303	-8.4537	-15.1932	-15.6977
6536.0000	-12.9492	-13.0018	-12.8446	-19.6101	-8.4369	0.9559	-24.9297	-5.7594	-14.0968	-13.0984	-9.1257	-9.8436	-2.1193	-7.0038	-17.6956	-13.9544
6544.0000	7.1334	16.1418	7.9013	4.0787	16.4517	32.8283	-13.9227	3.6233	21.7840	21.1724	7.7787	1.1946	-0.3851	14.5866	-24.4187	-15.8352
6552.0000	-0.4276	8.1074	-15.4571	-10.4880	-10.2800	13.4303	-37.6735	-7.9788	15.0799	7.2323	8.0187	2.2210	1.8798	-2.3985	-31.4003	-20.0892
6560.0000	-22.9486	-11.0309	-29.7748	-36.3446	-9.6392	16.9465	-41.2204	-22.3956	-2.1923	-2.4921	-19.6947	-15.8549	-2.4818	-9.3560	-42.4854	-24.6101
6568.0000	12.6330	22.2953	28.4079	10.4305	29.1854	34.7519	-7.6143	-4.2230	33.1240	38.8968	1.5085	-2.3192	-4.0131	23.3570	-34.3435	-4.4637
6576.0000	26.2428	32.2828	27.1994	32.5558	14.7134	18.3719	-6.8839	8.7423	33.3940	27.3258	31.0454	12.1692	-3.3910	19.8860	-28.5160	-2.5455
6584.0000	6.4411	-0.9266	5.6136	-1.1869	-0.2727	-7.4803	29.6570	82.0226	-4.4622	-2.3754	-5.2346	20.4130	25.4819	-2.9755	10.8966	38.6269
6592.0000	-11.2878	-25.5928	-11.2018	-11.2764	-23.4878	-31.2506	16.4927	79.7227	-24.4345	-21.2787	-24.3100	12.9493	23.2770	-20.9775	10.7052	34.1901
6600.0000	-21.5328	-38.1782	-19.8628	-20.2751	-31.6947	-38.8451	9.4798	72.7126	-33.7473	-27.9481	-38.1876	6.8044	24.2471	-28.5405	13.8511	35.9855
6608.0000	5.3521	-5.7243	6.8986	7.4352	-2.7485	-7.3967	22.9093	80.8533	-6.1145	-3.4533	-6.4580	19.1886	23.9951	-2.8235	18.0601	31.2236
6616.0000	1.7170	-8.5520	-0.5062	5.1414	-8.3460	-10.4425	20.2078	78.4238	-9.1542	-8.4068	-6.9027	18.3569	22.9121	-6.9393	16.1631	27.7385
6624.0000	-3.6244	-15.2310	-8.5008	-0.7924	-19.7121	-21.9400	10.4604	66.0993	-12.9880	-12.8358	-12.9351	15.5461	23.0083	-14.7415	16.1106	29.9603
6632.0000	14.1615	7.4012	18.3539	22.6231	10.2558	6.8924	24.5958	70.1561	4.2156	5.5988	7.2427	18.5053	17.1906	9.0334	12.1867	24.1076
6640.0000	11.9240	4.2271	15.1996	14.4338	5.4799	1.2946	16.6291	63.0161	-0.8550	0.3995	6.3342	16.0289	16.6816	5.5295	8.6646	23.8212
6648.0000	-8.0823	-19.2929	-17.6405	-14.9904	-28.0947	-26.0758	-7.3784	56.1367	-20.6163	-22.1629	-12.4033	11.6696	23.1723	-20.2754	6.1553	26.2956
6656.0000	-20.6972	-26.7475	-24.9395	-20.2537	-20.0691	-11.7855	-3.2305	54.6870	-29.8466	-27.2764	-24.9372	0.5270	20.4686	-18.6755	-1.4584	23.8968
6664.0000	-15.5828	-18.7888	-16.3953	-16.8183	-10.0837	-5.3136	3.3103	48.1165	-24.1118	-20.5867	-20.0576	-0.2852	17.3941	-11.7766	-4.7363	25.6679
6672.0000	-13.6551	-15.1432	-20.9388	-23.6569	-12.1881	-5.7430	2.7791	47.9920	-21.5109	-20.3235	-16.3256	3.2614	20.4739	-13.4452	-4.1368	26.8408
6680.0000	1.2443	4.7676	-3.8706	-7.7086	8.2794	17.3496	8.9282	45.4170	-2.2348	-1.2442	-1.0016	7.7080	19.8258	3.8692	-3.3099	24.9460
6688.0000	30.7894	37.0597	28.0122	22.1135	31.9390	36.8248	22.6092	54.2755	29.9982	28.0398	28.5858	23.0006	18.8517	26.7229	-1.5754	24.2883
6696.0000	24.8330	33.5603	20.2471	14.5318	34.2161	41.2895	30.5784	58.5964	23.3294	22.0004	24.1858	20.6616	19.8540	25.0991	0.4439	24.3908
6704.0000	0.7450	4.0965	-9.8220	-13.3555	4.7097	15.0945	7.9914	40.2323	-3.1965	-3.9694	0.6884	9.2061	20.5845	0.9154	4.2255	20.7174
6712.0000	-11.9465	-16.0264	-21.9250	-25.9084	-14.5395	-5.5344	-5.7228	38.1311	-18.9998	-18.3163	-14.7695	4.4696	20.7376	-13.8717	7.6899	16.9686
6720.0000	-0.0259	0.4878	-3.7102	-5.5049	8.6708	15.3533	16.5608	47.5639	-5.1981	-3.5448	-2.6784	8.3694	17.0761	2.9634	9.1516	16.1925
6728.0000	11.5123	12.7974	2.9519	8.2230	6.3530	11.2929	18.5320	47.9076	11.6336	7.9892	10.7400	18.1410	14.6173	5.2264	6.6837	11.7127
6736.0000	-12.3673	-14.7795	-21.9960	-13.8364	-17.3152	-9.8080	3.7790	38.9106	-10.4787	-11.9535	-15.7835	6.8215	14.0647	-15.5193	3.7683	9.2144
6744.0000	-19.8706	-19.6084	-25.7402	-11.4614	-12.7373	-0.5863	0.6568	25.4508	-17.3606	-16.4473	-21.0891	-3.1147	10.2005	-13.2085	2.9028	6.6067
6752.0000	-14.3461	-15.5925	-17.8492	1.3437	-10.9521	1.9985	-7.9026	17.5647	-13.7464	-13.8373	-12.4649	-3.5791	6.1116	-8.2071	2.0933	0.3182
6760.0000	-8.2232	-10.9138	-4.0444	12.6344	0.9065	8.1609	2.4589	21.0086	-12.2780	-9.6922	-7.8993	-3.5989	3.9276	0.4908	7.8885	2.9652
6768.0000	10.6181	11.2313	11.2114	32.6119	12.9742	19.2187	14.1685	30.0243	8.7897	7.3139	12.9136	8.6998	6.0965	13.0298	10.3634	7.7548
6776.0000	-5.3297	-4.5525	-13.0254	13.3520	-10.6479	3.5094	-8.5725	16.3679	0.0529	-3.2028	-3.3353	2.8740	8.6449	-4.4907	1.5558	6.7346
6784.0000	-10.0913	-6.6405	-14.3301	11.9210	-6.1676	9.9636	-7.1508	10.6712	-0.3814	-1.1448	-10.3045	-2.4207	7.0997	-2.9225	-1.3788	6.7664
6792.0000	4.8312	9.2090	1.0216	24.8279	5.9968	18.3678	5.1083	23.0728	12.4167	9.7768	5.9413	6.8238	7.3462	7.7834	0.0951	7.5538
6800.0000	-13.7682	-13.5188	-22.0283	-4.2449	-16.9593	-6.5224	-10.5440	5.6834	-12.0662	-14.0423	-11.3305	-3.0817	7.0708	-12.2685	0.1638	7.8837
6808.0000	-9.9838	-6.0639	-17.4613	-1.0477	-5.4037	4.7534	-1.1634	0.6743	-8.1700	-9.5165	-6.1901	-3.7409	5.8755	-4.9197	3.8762	8.8597
6816.0000	-0.7529	4.6236	-8.7553	6.3541	1.9417	9.7168	8.0464	7.1919	1.8356	-1.2420	3.9458	2.5498	4.8144	1.2823	3.6184	6.8624
6824.0000	-16.0525	-15.3261	-27.3947	-13.4749	-20.5103	-15.3866	-4.1188	-4.4242	-16.9912	-20.8208	-9.5073	-4.0575	1.0434	-17.1402	1.4473	0.0063
6832.0000	-8.0900	-4.1072	-13.2887	-1.3379	1.0032	7.8841	8.8114	5.2349	-9.2310	-10.6687	-1.6183	-2.9382	0.3181	-1.9399	3.8610	-2.4110
6840.0000	3.9874	8.3751	3.1809	5.7400	13.6002	17.3471	12.8062	9.2580	3.6609	3.1587	7.6960	2.0200	0.0605	8.7052	2.3148	-3.2239
6848.0000	0.4944	0.9568	-4.6070	-6.5859	-3.7445	-2.1296	-1.8715	0.7828	1.2625	-1.3695	3.3831	2.9861	-0.8293	-2.8728	-1.6399	-8.6115
6856.0000	0.3286	3.0083	2.0545	-2.0798	10.3202	15.8502	-0.2896	1.7617	1.3919	2.8000	1.5877	-2.0041	-0.5489	6.5172	-1.7927	-8.1966
6864.0000	17.6674	22.3989	24.3223	21.6742	29.2964	33.7271	5.1485	0.5105	18.1753	19.0585	20.8817	2.7087	-3.7166	24.3807	-0.8494	-10.0936
6872.0000	35.7140	41.9650	33.8712	40.0124	32.1965	38.0054	11.0288	9.5544	41.5543	35.5602	42.0047	18.4755	-2.3760	31.4359	3.4993	-15.3847
6880.0000	19.4192	22.7165	14.0118	16.7534	12.7701	17.5706	4.9060	6.8342	26.9035	21.9085	21.9735	13.8443	-0.3252	13.5299	3.5707	-14.2165
6888.0000	-6.0083	-9.9538	-10.5283	-14.0675	-18.5468	-19.8512	-11.8792	-6.4501	-1.7156	-4.0934	-7.2198	1.3597	-3.3917	-13.5078	-3.3866	-14.2801
6896.0000	-2.7380	-4.7714	-5.9898	-4.9286	-8.9710	-7.4994	-3.8508	2.7010	1.8094	0.3404	-4.3474	2.9303	-0.2805	-6.4988	1.3394	-9.2261
6904.0000	5.4625	8.1994	3.4995	6.9122	10.1225	16.9139	3.0213	6.2069	8.0518	7.1711	7.4490	3.4977	1.7491	8.1936	4.5285	-6.4203
6912.0000	-11.3468	-10.7597	-12.8291	-12.9011	-5.3962	1.9918	-11.7722	-7.2894	-10.4996	-9.6561	-8.8992	-7.4388	-1.3765	-5.6586	-3.3028	-10.4447
6920.0000	-16.7614	-19.8160	-15.8623	-17.3606	-12.8705	-12.1553	-7.4236	-6.8937	-17.4391	-14.5844	-19.1059	-8.9570	-0.6095	-12.8602	2.2711	-2.8262
6928.0000	-1.2887	-3.0427	-0.9558	0.5092	-1.4791	-2.9045	3.2239	3.0051	-3.1120	-2.8380	-1.5387	0.3457	-0.0910	-1.6163	5.2388	-0.8143
6936.0000	-5.8355	-4.8824	-6.8853	-6.3155	-2.1768	1.8425	-4.5971	-2.7518	-5.1551	-5.0951	-3.7869	-3.6539	-1.4116	-2.6591	-3.0935	-6.5432
6944.0000	4.1281	5.0218	4.9758	3.6416	7.1197	6.9354	3.5016	-1.0823	2.0788	2.1151	5.9911	0.5379	-1.1354	5.3785	2.7177	-2.2166
6952.0000	23.0899	25.7207	21.3832	24.2799	20.8269	21.4132	10.1966	3.5140	20.8720	17.7187	27.6844	11.0611	0.8879	19.7248	10.9120	-1.4675
6960.0000	10.8496	11.6376	0.5180	7.3216	-1.2564	2.4119	-2.8362	-6.4412	13.0468	7.5747	15.1310	9.1340	2.4813	2.7752	11.6994	-4.6792
6968.0000	12.4547	11.0000	2.5448	9.5792	-3.4314	-5.8595	8.3464	6.8378	11.5075	5.2980	16.1125	13.5628	2.2957	0.3880	13.5375	-2.0124
6976.0000	14.1600	16.7324	12.4747	16.3854	15.8355	16.1282	13.0776	4.1772	12.2790	10.4883	17.3870	7.1764	1.3306	13.3850	11.5962	1.1892
6984.0000	0.9587	2.0572	0.5280	5.1206	2.9806	5.1137	-3.8619	-17.5580	1.8873	1.9236	2.7777	-3.2645	-2.1639	3.3078	7.4872	-2.5801
6992.0000	4.8330	5.6725	9.7272	17.9590	9.9281	10.1385	6.1435	-5.9051	7.7902	8.4311	5.1922	-0.6394	-5.7238	8.7218	5.8178	-7.6938
