Time	Fz	Fpz	C3	C4	T5	T4	O1	O2	F7	F8	F3	F4	T3	T6	P3	P4
0.0000	-54.0457	-33.0416	-26.0632	1.0281	60.8380	70.0868	-11.2751	-39.8458	-33.6638	-11.8181	-60.5592	-59.0150	-1.4579	13.2763	-4.7802	1.1131
8.0002	16.7994	31.8930	18.8890	62.0189	4.3555	7.7580	-40.7469	-105.6677	44.2701	38.9701	20.0774	-14.7684	-14.4122	18.1234	-23.3615	24.1318
16.0004	27.6176	26.7832	3.0068	14.2141	-14.6902	-17.0498	12.8969	66.4823	23.8882	10.5589	28.3982	37.7619	28.9884	-3.7285	-1.6818	45.4026
24.0006	-11.7461	-6.7582	-25.5145	33.5527	10.7194	21.1108	18.2291	127.6711	-11.7271	-11.8693	-21.3236	15.9000	60.2151	-4.8687	10.0765	93.3499
32.0008	39.9724	10.1288	-30.7177	2.6302	-103.9089	-102.8797	40.7901	296.6054	23.8340	-5.1442	12.5592	119.6843	117.2494	-58.3976	23.1073	158.8837
40.0010	-39.4428	-64.0760	-115.0703	-66.1684	-93.7778	-83.4292	65.8656	437.2089	-55.7428	-67.4882	-86.8374	100.4330	177.1127	-97.7152	33.3371	217.6569
48.0013	-27.4610	-37.5262	-74.8651	-8.5214	-44.0030	-23.0379	63.7767	382.7248	-41.8509	-45.4590	-66.1936	73.9938	154.5884	-52.8507	12.1391	218.5014
56.0015	-1.7865	-24.6189	-49.6022	-14.1630	-71.6556	-38.8499	55.8883	371.6302	-29.5847	-38.8172	-33.0048	90.5698	134.8592	-47.7585	8.2559	178.1310
64.0017	-69.9187	-82.7331	-93.4111	-30.6078	-51.7994	-14.4972	16.2611	281.7166	-76.5062	-67.7406	-103.8887	23.6002	113.2057	-60.0705	7.2227	141.9289
72.0019	-24.6980	-38.8911	-48.1134	5.3605	-49.1219	-36.7916	17.6732	214.1303	-27.3615	-31.5796	-47.1089	39.9784	76.3558	-43.6192	-0.3892	98.9764
80.0021	-57.2174	-72.2801	-77.4836	-25.6960	-57.3314	-31.7330	13.2279	204.9138	-66.9119	-65.5017	-73.0467	18.3566	67.7767	-56.2528	3.5997	72.2709
88.0023	-73.1001	-80.7635	-78.8704	-12.3301	-50.6630	-6.4143	-6.9421	136.1446	-73.3562	-63.9121	-87.1755	-12.2738	50.8854	-45.4124	-0.9163	64.2906
96.0025	5.1867	3.3404	-5.6929	41.4304	-5.8344	26.3896	32.9284	152.3888	3.9433	0.3663	-0.9673	33.2202	43.8854	4.1383	3.1517	52.9830
104.0027	-12.5808	-5.4473	-16.2159	40.0557	22.1880	58.9780	31.7694	131.5439	-13.9412	-10.9267	-13.4203	10.3123	41.0849	12.7122	7.8421	47.4386
112.0029	-5.3733	-7.8541	-13.1805	23.1040	-21.6199	16.8785	13.7515	87.0352	-8.7656	-10.1161	-6.3345	15.0151	25.4305	-1.1366	2.1370	33.8959
120.0031	-8.0449	-5.8860	-9.9095	17.9723	8.1808	38.7879	23.3927	100.6022	-5.5385	-2.9844	-12.3583	12.0072	26.2296	6.7196	3.0434	19.1977
128.0034	-18.8830	-9.7394	-12.0304	27.0581	31.7077	48.7834	10.1316	60.9081	-12.6746	-6.5527	-19.9077	-9.3719	18.5312	10.9978	-2.6517	17.6152
136.0036	15.7621	15.1020	6.9257	20.9813	1.2651	5.8284	15.6916	64.6290	10.4459	3.8197	19.1490	22.3988	15.3553	5.0810	-3.8216	17.1684
144.0038	-24.5327	-24.3742	-28.3439	-8.2453	0.0240	7.2122	3.3276	58.9368	-28.9669	-26.3285	-25.2513	-3.8710	20.8331	-12.4797	1.6432	18.6803
152.0040	-37.2907	-44.9476	-42.8595	-26.5453	-33.1244	-28.8913	-15.7836	31.5519	-43.5148	-41.1933	-39.9348	-10.3712	14.6604	-33.0824	0.8349	15.2350
160.0042	-11.3642	-14.1402	-19.7199	-1.4691	-12.0439	1.6984	3.4167	63.1219	-14.6806	-16.5280	-10.8858	8.3709	18.1678	-10.5093	0.5325	11.2440
168.0044	-9.3267	-3.4079	-6.7292	26.7010	16.4903	43.2541	-2.3061	45.1847	-6.2596	-3.0594	-7.3247	-4.4907	15.6807	12.2526	-2.4880	13.8123
176.0046	9.2177	5.6374	6.6572	16.4994	-0.8892	10.2582	6.5892	47.1987	2.9781	1.8500	8.2724	13.3322	14.5390	6.1171	6.2459	16.5642
184.0048	11.5435	18.2573	12.7147	35.3296	49.3862	40.4158	36.3216	70.4258	10.4833	11.7085	9.2292	12.6241	22.8407	20.9126	19.0418	25.8323
192.0050	17.1904	21.1425	11.6222	32.2376	31.8679	19.5591	23.8080	51.1255	15.7291	12.6978	15.9295	16.9510	21.8754	13.7189	17.5931	30.4405
200.0052	0.8724	-7.4433	-14.1649	-16.5450	-19.3172	-13.7952	4.8799	59.4601	-10.4008	-12.8873	-3.7883	19.0852	28.2603	-13.0964	19.1542	29.0607
208.0054	-22.1348	-23.0594	-28.2647	-10.2368	1.2550	7.2989	3.0007	52.1220	-28.5981	-24.6174	-26.0708	-2.9791	28.1212	-11.5952	17.1456	32.2141
216.0057	-13.6081	-17.1998	-28.3791	-14.9935	-17.0888	-28.5450	6.0151	41.2833	-20.1943	-24.1833	-14.5112	7.5682	20.6290	-23.9745	9.3499	28.6858
224.0059	-28.5435	-30.5291	-43.3037	-33.4440	-24.9216	-27.1547	3.4846	37.7529	-31.8154	-32.7923	-31.3023	-0.5019	20.6198	-31.1721	5.6710	25.9423
232.0061	-19.2136	-19.8474	-27.4984	-17.6396	-13.6086	-20.0007	3.3868	21.5482	-23.4726	-23.6315	-20.8081	-2.7877	14.4498	-20.1642	3.3870	26.6524
240.0063	-10.0106	-14.4932	-19.1306	-22.0420	-12.7315	-32.0664	9.7668	26.1230	-18.1975	-20.2262	-12.5335	5.4082	12.5489	-21.2545	7.3778	20.5759
248.0065	-23.1977	-22.5307	-23.0373	-12.8444	-2.8080	-5.7488	2.1166	6.4801	-22.0197	-17.8757	-27.0966	-11.3152	7.2945	-13.4026	6.8915	12.2676
256.0067	-9.3367	-14.0716	-10.2645	-6.5293	-20.2834	-21.2385	0.7132	-4.7613	-12.9828	-13.0511	-9.7590	-2.6833	-2.8303	-12.5844	3.5214	3.0258
264.0069	-18.6227	-25.5911	-17.9370	-20.1011	-17.2204	-28.6368	3.3800	2.9623	-24.4165	-22.2022	-21.7998	-6.0725	-0.9328	-20.1900	8.4808	-0.4618
272.0071	-18.5392	-22.1731	-17.7867	-12.7993	-14.0315	-17.8098	-0.6252	-9.0154	-17.6052	-15.0855	-21.8002	-8.8193	-2.1676	-15.5008	9.0368	-2.5410
280.0073	-3.1141	-4.0529	-7.7972	-8.5753	-12.1042	-5.1379	11.6883	0.8114	-5.4029	-7.3365	0.8131	2.4907	-5.3245	-4.9550	5.5295	-10.9129
288.0075	-3.7524	2.8263	3.3892	4.7946	23.1422	26.9847	12.8387	-7.4678	1.8465	5.9594	-3.0947	-8.4123	-6.6196	11.8158	3.3448	-13.7585
296.0078	-2.1062	-2.2786	5.3855	-4.9094	4.3204	-2.6509	-6.4674	-35.4539	7.5626	11.1113	-8.3125	-7.8181	-10.9736	0.7400	2.4082	-17.0578
304.0080	-27.9427	-31.9447	-18.6311	-33.3780	-14.6788	-21.8070	-15.8718	-51.7709	-26.4293	-19.4942	-31.1141	-24.7034	-17.5552	-17.9972	0.4524	-25.2295
312.0082	-27.8879	-26.3941	-7.4238	-16.9175	3.5646	0.1701	-17.6265	-77.8761	-25.7368	-15.2877	-26.5118	-38.1023	-29.4445	-3.3251	-7.3492	-32.9249
320.0084	-11.2250	-8.4740	3.0970	-9.6481	2.7225	0.2477	-14.5856	-84.3142	-4.6590	0.4204	-7.4724	-26.2517	-33.1599	2.5539	-7.5371	-41.7876
328.0086	-19.6008	-11.6312	-5.5774	-6.2287	18.3956	13.6231	-12.8587	-91.6832	-10.8049	-4.6799	-12.3261	-34.8719	-32.6327	4.5889	-0.7718	-44.5441
336.0088	-1.4053	6.3002	14.3469	3.8715	22.9812	12.5186	-26.7080	-128.5790	6.5520	9.8586	9.8755	-33.1831	-43.4016	14.9499	-5.0194	-55.6317
344.0090	0.5622	11.1911	16.5976	-1.0837	22.5530	14.7231	-36.2090	-167.8931	12.8557	14.7707	17.0095	-39.1930	-58.0400	17.9329	-11.2113	-78.8943
352.0092	6.8730	23.1439	29.5470	26.6012	47.9897	37.2539	-20.4571	-170.2170	23.5614	26.7231	24.7746	-41.4299	-62.5207	33.6066	-5.3170	-80.4378
360.0094	30.8986	41.0050	48.0126	39.0063	48.7367	32.8652	-8.7043	-123.0867	41.2772	40.2937	44.5142	-16.2009	-47.7142	39.5127	3.3331	-64.1007
368.0096	15.7718	21.6794	25.2717	19.8710	30.9904	20.4431	-8.9620	-83.0896	22.1749	21.9277	24.7866	-12.6676	-29.6569	22.5393	8.0006	-44.5437
376.0098	19.8499	19.2690	25.4469	13.5450	11.8419	-1.0242	0.4200	-54.2233	23.3491	22.7532	19.6132	0.5009	-17.1888	13.3974	13.0273	-18.6893
384.0101	22.4623	20.2788	29.7481	0.1625	11.5868	-0.6116	-3.7462	-50.6818	24.3910	26.6556	16.4574	2.0939	-11.3767	14.3843	11.4340	-10.3831
392.0103	5.4306	12.6573	20.2249	3.7153	27.5934	22.0079	-19.1899	-103.2638	9.4360	15.3630	10.2160	-25.8034	-27.0222	20.8954	2.9768	-27.1339
400.0105	8.1428	17.8740	25.2206	11.0068	21.4860	22.9197	-29.6649	-152.7176	15.2885	18.9601	21.5039	-34.2541	-48.0012	25.6632	-5.2931	-51.8967
408.0107	-8.7476	4.6149	20.9819	1.5321	19.2603	34.7633	-52.6554	-212.5384	10.5461	20.8205	4.0311	-59.0771	-69.4548	27.5390	-18.2538	-83.6499
416.0109	-8.6363	9.4133	31.8150	17.3411	28.2938	41.3688	-66.3612	-287.0446	17.3568	28.7955	11.1483	-78.1219	-97.1309	37.5553	-24.4649	-112.4794
424.0111	22.4768	43.2391	55.3986	41.4183	39.9959	45.0151	-65.1259	-309.1793	49.7450	52.2156	50.6237	-63.0063	-104.5698	52.9017	-20.6183	-123.6227
432.0113	27.5514	47.7185	53.8512	37.0450	36.3059	40.2851	-72.5714	-297.9304	56.4555	55.7915	54.9986	-55.0872	-97.4629	49.9002	-23.9301	-120.4397
440.0115	7.5457	18.3817	28.2722	2.5509	5.6222	-2.7591	-73.3459	-274.8484	26.4671	25.8231	31.1464	-55.0008	-90.0216	19.9648	-24.1151	-109.2669
448.0117	-7.0962	7.6280	12.6203	-7.6767	16.9452	9.9163	-53.1156	-237.6583	13.7250	17.4975	10.7148	-56.7825	-74.9541	16.3165	-15.3060	-91.3078
456.0119	15.0992	35.5407	41.8910	21.5215	48.7695	47.6163	-28.3187	-202.7053	42.1879	48.9342	25.0400	-43.8413	-64.6139	43.4198	-12.5347	-72.7993
464.0122	26.2175	39.0220	53.4489	18.9280	42.9094	32.5558	-26.9086	-184.6327	40.0185	45.5390	35.8630	-34.1125	-61.2178	42.4659	-11.4744	-65.6003
472.0124	4.2725	18.3086	22.2693	-2.2804	27.4673	29.1390	-36.9145	-186.7865	16.4676	21.7179	18.8141	-43.4280	-55.8238	27.2754	-7.1719	-65.5882
480.0126	-5.5893	5.6273	6.9222	-18.4663	-2.1573	8.7499	-42.8368	-188.5871	13.7686	18.0416	3.8708	-41.7746	-55.1575	11.4771	-12.1730	-64.2353
488.0128	-24.9659	-22.3677	-2.0765	-36.5116	-18.8733	-21.8620	-52.7980	-187.2930	-11.0555	-2.1084	-20.9035	-53.0806	-61.5171	-7.0863	-23.9753	-69.0162
496.0130	-38.5860	-30.3686	-8.6896	-25.8895	-0.6981	0.4204	-46.2909	-185.9792	-27.0822	-15.0183	-26.9693	-67.8734	-67.4566	-1.1083	-26.5605	-77.7812
504.0132	-26.2175	-13.9569	-3.8958	-15.7767	4.0780	2.2427	-40.2729	-192.3893	-9.9878	-3.5650	-10.5095	-59.1714	-68.9678	3.5943	-25.1303	-80.4292
512.0134	-12.9900	-2.6476	6.6833	-12.1053	6.7366	-13.7795	-43.2866	-198.7226	8.3941	11.6715	-2.5763	-49.3884	-67.0964	2.3056	-23.3236	-77.0031
520.0136	8.9324	23.4468	31.0843	14.2899	26.1863	20.4696	-26.1717	-182.4549	32.0911	35.1688	20.0450	-38.0538	-65.2263	27.2208	-18.0951	-75.1288
528.0138	22.2066	43.0431	45.3106	32.2915	41.7565	51.5314	-21.9931	-183.7086	45.5918	47.2262	40.8566	-35.7306	-69.4591	46.9265	-23.8328	-82.7345
536.0140	17.3214	38.0643	39.8309	29.0236	37.3290	36.3297	-33.5275	-199.8742	42.9243	42.5992	37.8834	-40.4327	-74.9459	38.8006	-33.1167	-88.9922
544.0143	7.8972	22.4422	28.1677	13.6730	14.8519	11.6523	-39.9897	-199.4687	31.7098	31.7242	24.2811	-40.8301	-73.0062	23.1129	-31.1531	-84.8326
552.0145	8.3478	21.6237	29.5640	13.9078	16.4438	10.6395	-39.9880	-198.7339	28.4905	29.2868	24.5559	-41.4153	-71.2739	23.5184	-27.4690	-80.3861
560.0147	24.3713	42.6080	46.7756	34.6238	37.5776	30.1431	-22.8436	-191.0975	46.8667	45.9547	42.7127	-33.7537	-72.6410	39.9193	-25.2918	-80.9433
568.0149	-17.1376	-26.3048	-21.9877	-39.8808	-35.8125	-41.8461	-10.1506	7.3053	-18.8313	-16.3431	-29.4172	0.3395	10.9437	-28.3567	0.9652	19.1156
576.0151	-17.4366	-21.8577	-20.4364	-35.7493	-24.0222	-26.2564	-0.1977	18.5106	-15.0609	-11.9544	-28.8082	0.1201	9.9556	-22.0806	-4.6268	14.4922
584.0153	-10.0240	-12.1854	-14.4546	-20.0337	-18.9530	-14.0985	2.2425	19.2549	-12.0722	-12.7078	-10.8949	2.0433	3.2702	-13.2365	-8.6194	2.7625
592.0155	-30.2579	-39.0493	-44.3743	-45.2733	-52.8463	-46.4401	-14.0837	16.4705	-34.7276	-37.3184	-30.9232	-1.6591	7.0465	-39.8477	-4.2271	2.1898
600.0157	-22.6034	-27.2590	-23.4085	-23.3446	-16.8921	-18.0494	8.0636	34.1002	-27.2260	-24.4739	-26.6283	-3.1582	7.0529	-19.9829	-0.7331	6.4580
608.0159	21.1147	21.9383	21.9844	18.8039	17.9981	5.8870	25.8876	36.3954	21.2345	18.8585	17.4771	18.0144	5.7395	11.9689	0.7498	10.7185
616.0161	22.1020	16.6966	5.6434	-3.9142	-20.3162	-29.5026	2.2712	22.7028	24.0022	14.5648	17.8365	28.2322	11.5841	-8.6092	2.6267	12.9493
624.0163	-20.0331	-30.7326	-29.9191	-34.9461	-41.3077	-43.5744	-10.2295	15.0260	-29.0237	-30.5135	-22.2269	1.0108	7.7409	-31.7352	4.1043	7.1223
632.0166	-29.0804	-36.3532	-33.6912	-29.1657	-31.5139	-30.7093	-3.0434	6.3688	-43.1478	-41.8357	-25.3765	-10.9870	2.0121	-27.3075	6.1500	5.5419
640.0168	3.5999	3.1289	-3.7603	-4.9123	-8.0313	-6.8228	4.1301	-2.3302	-1.6253	-4.3824	6.8002	4.6518	2.9928	-2.7308	7.0821	8.2032
648.0170	20.2853	25.0017	18.1421	11.1187	12.2031	19.4327	-2.5196	-30.5191	23.3164	21.3893	23.4992	4.3528	-4.1840	18.0746	5.6420	-4.1519
656.0172	12.8425	22.2617	3.0171	10.4738	0.3180	25.4233	-20.9332	-68.2252	19.4861	13.0925	29.0695	-5.0522	-15.9543	15.7697	0.4375	-26.9581
664.0174	5.1713	13.4052	-6.0771	7.9709	-3.5943	11.4079	-24.4697	-73.0345	10.3322	2.0938	24.7988	-8.9771	-19.9026	6.4840	-1.3457	-33.6416
672.0176	0.7417	2.5426	4.7737	7.3035	8.1547	-0.0660	-20.5606	-69.6343	1.2934	0.5747	9.6032	-15.6761	-20.0886	4.9390	4.5963	-26.4080
680.0178	9.4068	13.9368	10.9078	16.3606	7.5174	12.3330	-16.3969	-73.3210	14.0799	11.9030	19.3527	-10.6805	-20.9152	13.3919	6.3089	-26.8475
688.0180	13.1878	21.1903	2.1178	15.9975	-4.4830	11.9822	-15.9295	-72.3855	24.4954	16.3596	26.9359	-2.1423	-18.4069	10.4599	5.1985	-27.7797
696.0182	-6.3173	-0.2804	-18.7401	-4.5409	-15.0562	-2.2379	-28.8965	-77.5248	4.2477	-1.2554	4.7359	-12.4856	-13.4850	-5.3863	6.0591	-22.0964
704.0184	-11.9891	0.4866	-21.9855	-3.5984	-0.5800	9.6194	-25.9462	-81.6342	3.5687	-0.3657	-0.2304	-19.6161	-14.2840	-2.1403	-0.8397	-21.1780
712.0187	-3.9237	13.3709	-7.7173	6.2760	16.3640	15.8807	-24.7842	-103.7233	18.4014	14.2055	8.5914	-22.5311	-25.6151	7.2826	-12.1310	-32.9430
720.0189	-1.5981	12.8942	6.4942	13.4819	20.6883	22.3447	-43.3133	-137.4242	16.2701	15.4316	14.1013	-34.0468	-40.0788	16.2452	-17.3690	-52.0096
728.0191	16.4705	34.6231	32.8892	39.4413	44.8103	51.7927	-28.4495	-138.2030	30.4893	30.5842	37.0933	-31.5626	-47.9044	40.7990	-16.4793	-58.7766
736.0193	28.2271	52.2511	45.8321	45.9620	61.4480	65.4283	-11.7372	-151.3870	45.2759	44.9995	50.1187	-28.9892	-53.5455	53.5169	-14.2638	-60.9279
744.0195	15.9982	40.5518	31.2402	31.7055	46.3669	61.1288	-37.8591	-194.5619	39.5951	39.9184	39.5989	-41.5320	-60.8979	45.6221	-15.6555	-76.3151
752.0197	7.2818	29.6137	23.0559	24.2922	35.1717	47.0255	-56.9551	-221.7604	33.9169	33.7449	32.2536	-49.8076	-69.3917	36.2882	-20.3311	-91.8165
760.0199	-4.5001	15.1935	18.5538	10.8960	32.1174	30.7994	-64.5567	-247.1090	14.2629	16.2851	24.6860	-64.0218	-83.0046	28.0895	-28.6688	-105.7331
768.0201	-8.8409	10.8810	22.7824	15.3983	31.5550	38.7639	-71.1480	-265.5322	5.8290	10.5329	25.2414	-75.1331	-95.0309	33.3344	-37.3461	-117.9585
776.0203	10.5377	33.2772	45.3916	42.0327	47.5095	56.5389	-56.3677	-257.9157	30.8185	34.3705	42.8569	-64.9067	-96.4110	51.0032	-35.3342	-116.6391
784.0205	24.5613	51.0713	53.8187	55.7073	62.8416	65.1541	-43.5013	-242.0870	50.0083	50.3189	55.0895	-52.5943	-87.8392	58.8939	-27.7820	-106.2628
792.0207	27.4469	55.1388	46.1620	52.5185	56.5364	61.3207	-40.1039	-221.3868	56.0634	52.8878	56.0062	-42.1054	-75.1162	54.0692	-24.8718	-90.7457
800.0210	16.0118	40.3517	25.8567	27.6179	36.1353	40.0726	-36.5293	-205.5213	38.7067	34.6144	43.2625	-39.6316	-65.8193	36.4269	-20.4395	-76.7704
808.0212	1.7700	21.5999	5.2253	10.0291	19.1220	24.1899	-38.2524	-182.5591	17.5927	13.6639	27.9917	-39.5702	-54.5530	20.1060	-14.3836	-63.8310
816.0214	22.0409	40.5244	26.7908	33.6460	28.7213	36.3814	-24.0387	-134.7461	44.2239	40.3213	36.6962	-19.1333	-38.4034	32.7654	-11.2264	-41.0492
824.0216	32.8422	51.2962	35.2716	38.1524	33.1230	37.0704	-12.7198	-108.0620	58.1919	53.5238	40.5995	-6.2541	-27.5921	36.1173	-9.4648	-24.4902
832.0218	4.7980	19.8799	-9.4633	2.4402	-6.9416	1.7649	-29.3701	-107.9859	25.6459	16.6767	18.2490	-12.2107	-21.3920	2.5057	-11.3556	-20.6155
840.0220	-5.5294	6.0648	-23.7460	-7.7421	-26.2817	-9.1692	-29.9017	-87.7723	13.3002	4.4237	5.9342	-10.6739	-14.6371	-9.2212	-11.6025	-12.0668
848.0222	2.3785	12.1973	-7.2188	1.1276	-6.1573	2.0401	-17.5297	-61.4173	17.7163	13.1819	6.8287	-6.2554	-7.3989	1.0661	-5.8207	-1.2351
856.0224	2.7611	10.4352	-9.4890	-3.0292	-3.6422	-8.1339	-16.4158	-47.4675	16.5666	11.0396	4.6868	-1.7086	-0.7318	-4.4876	-1.8509	4.6144
864.0226	2.8630	10.2520	-13.8511	-7.0438	-8.4203	-10.5180	-9.3817	-29.7777	17.0521	10.0692	3.9436	4.4611	4.1430	-7.7892	-0.7133	8.2404
872.0228	1.8711	8.8250	-13.3219	-9.1597	-3.6928	-6.9222	-2.7301	-15.1432	11.7953	6.1084	2.8296	5.0420	7.0990	-6.6488	0.3524	11.6412
880.0231	6.3228	13.6724	-3.2177	-0.1895	8.6716	0.2693	7.5987	-7.0610	15.4533	11.7295	5.1049	5.9785	6.7008	0.4177	2.3667	14.1002
888.0233	-5.0955	0.2533	-13.7647	-9.4373	-5.8781	-4.5955	3.1534	-4.3555	6.2139	4.5128	-9.0015	1.7714	6.5643	-7.4458	-0.4900	12.3756
896.0235	-39.5282	-45.2561	-52.7370	-54.4512	-58.2912	-54.8212	-28.0951	-10.4207	-34.0572	-34.9244	-45.0915	-10.8832	5.7508	-46.9146	-13.8927	8.1399
904.0237	-43.9833	-51.3323	-49.8371	-53.0923	-53.4072	-59.7297	-23.5314	-0.6186	-46.0274	-45.6656	-46.3757	-15.7628	-0.6593	-48.1431	-24.6304	2.7219
912.0239	-39.3234	-38.4610	-41.0461	-29.4217	-21.2013	-29.4636	-5.4677	20.3930	-41.1307	-41.6285	-33.8130	-16.3739	-3.5709	-31.9673	-30.6852	-5.2746
920.0241	-50.3054	-53.1688	-55.8166	-44.1106	-35.7520	-46.8943	-11.4434	33.8277	-50.0250	-50.8932	-48.7240	-15.4361	1.5813	-47.0586	-31.9248	-4.9662
928.0243	-27.4860	-31.9369	-29.8985	-26.8605	-21.4855	-28.0234	3.5266	56.8181	-27.1043	-26.2234	-33.7844	-0.0024	11.0476	-28.5603	-18.0301	8.3077
936.0245	1.5116	3.7764	-3.1795	5.8082	6.7551	13.1477	21.3267	81.6145	2.7315	0.8572	-1.4299	16.4930	19.1184	0.8727	-11.4183	17.1260
944.0247	7.1207	7.6770	3.2163	7.6047	4.7927	12.1121	29.1329	102.5479	5.6314	3.1541	3.1155	23.6033	20.8876	2.6149	-16.4910	20.1710
952.0249	9.1278	3.0110	7.8423	4.2597	-0.0407	2.3363	35.0367	121.8622	-0.2772	-0.4515	-0.3621	28.6238	27.5343	-0.0747	-7.3179	32.1717
960.0251	-3.3925	-14.0147	-11.5068	-8.5638	-10.7640	-18.9012	30.4584	135.0486	-17.1644	-17.6454	-15.8411	28.2961	40.2463	-17.3667	5.2890	48.4849
968.0254	5.3967	-2.5053	-1.7228	5.3028	5.7215	-3.0885	46.4520	160.5308	-4.2710	-3.7677	-12.2304	36.5585	49.5628	-7.2984	11.8941	61.5478
976.0256	30.7479	25.5619	17.0230	25.7171	11.7085	21.5126	50.1885	172.5014	24.7815	21.5980	13.4485	53.8530	57.8491	11.7516	18.6298	69.2802
984.0258	11.5635	-3.2452	-9.8925	-1.6428	-27.0734	-17.7163	29.2268	169.0185	0.2553	-4.5088	-6.3981	50.3993	60.4240	-16.5680	20.3521	68.3660
992.0260	-9.6062	-29.0677	-14.7941	-10.5206	-21.2511	-23.2613	41.4004	186.5761	-25.5112	-21.2365	-34.6916	36.6870	56.2280	-23.9465	20.4324	64.4160
1000.0262	-4.3515	-20.3564	-4.5813	0.8154	-3.5094	-6.8467	56.0061	191.4062	-18.5943	-12.4251	-30.2368	36.9869	54.7691	-12.7908	23.8514	64.4355
1008.0264	-4.1035	-24.0975	-12.1483	-6.4668	-21.0221	-27.1809	51.6334	189.8934	-21.7536	-18.9201	-29.4934	42.2178	58.4060	-23.3128	29.2927	71.4574
1016.0266	-5.7915	-28.4337	-10.7504	-11.4888	-21.2830	-24.0898	50.8463	200.3761	-31.7618	-26.2990	-31.2349	40.4880	61.8057	-22.0729	30.2388	77.0660
1024.0268	-2.0353	-23.0271	-5.7855	-14.7506	-11.9300	-19.0790	54.3458	197.9414	-32.1229	-26.6242	-24.4445	39.8313	59.3010	-17.4751	27.4563	73.5946
1032.0270	8.2870	-12.8002	1.3896	-7.1870	-10.5761	-23.6260	59.0054	197.1334	-18.6417	-16.1374	-15.1079	48.0631	59.3010	-15.3562	31.0815	73.9434
1040.0272	2.6770	-18.5949	-9.7729	-11.8447	-26.0489	-27.4433	47.9041	187.2684	-19.7812	-18.2080	-21.2926	46.7306	62.0071	-21.6059	33.1944	76.6000
1048.0275	-15.0735	-38.3138	-24.2830	-28.5824	-33.0996	-41.6951	44.8872	177.8867	-41.2979	-36.9834	-38.5629	34.8088	57.1236	-34.2195	31.0642	71.6651
1056.0277	-7.7817	-33.0049	-8.8958	-19.4313	-18.9886	-38.4458	42.9963	177.7126	-38.1126	-32.0015	-32.0878	34.0076	54.0733	-26.5087	29.2035	68.2238
1064.0279	-1.0029	-26.4539	-11.2849	-22.8389	-35.5818	-46.0381	22.2173	156.0714	-27.9967	-26.5048	-22.8125	38.2504	54.8375	-29.3250	25.2071	68.1827
1072.0281	-0.9799	-22.1454	-13.2411	-17.7861	-28.0328	-40.2950	38.8511	160.4144	-23.1135	-22.5327	-22.4986	40.2149	54.2873	-27.2957	29.5346	68.7342
1080.0283	8.5022	-7.1548	4.2871	6.5483	1.2381	-3.6337	50.0444	169.9045	-9.0001	-5.2492	-13.7153	40.2290	54.4740	-5.4432	33.5985	65.5144
1088.0285	-6.0775	-28.8860	-13.0643	-20.5652	-39.0013	-29.6877	18.3307	139.0246	-25.3074	-21.3661	-27.8062	31.4199	47.4449	-24.0775	24.4528	53.9294
1096.0287	-22.9906	-50.9120	-22.3835	-37.3781	-50.5007	-53.7557	21.1908	132.2367	-46.9232	-39.2752	-47.2836	20.8539	38.3284	-38.7764	20.3344	47.2025
1104.0289	0.4212	-14.6284	9.7274	4.7122	7.0429	0.2730	43.9242	137.7735	-17.4449	-8.3270	-21.1009	23.6275	38.4182	-1.7363	24.2421	49.5990
1112.0291	18.9397	9.8250	20.2534	18.1810	13.6194	22.4153	40.3370	127.4739	5.1916	9.6316	3.2114	32.4394	40.1130	13.6733	24.7840	48.9464
1120.0293	-1.0696	-19.4740	-2.7792	-15.1909	-22.6327	-13.4910	17.8753	112.5178	-20.4245	-15.1241	-18.2920	24.3824	37.5569	-11.9336	22.7381	41.9852
1128.0295	-8.6433	-28.3907	-5.0163	-23.0680	-22.7294	-21.9496	6.5536	90.7983	-25.6230	-17.5825	-28.7445	15.0603	31.9643	-16.8518	20.0169	34.8433
1136.0298	11.6897	-0.1776	19.3672	3.7372	3.4351	1.2810	22.2672	84.3893	4.0721	10.4807	-7.9170	21.6533	25.5553	4.4283	15.3065	30.9219
1144.0300	15.9099	7.5987	21.5106	6.6651	6.2156	3.1265	18.3948	67.2481	12.0551	15.9415	-0.0040	21.0430	20.0260	7.2079	8.9233	24.1693
1152.0302	12.5622	6.2142	13.2336	1.6201	-0.3726	0.6671	6.9028	45.7484	9.5941	10.7095	3.0651	16.6652	14.5803	3.6932	4.9671	13.8135
1160.0304	8.3811	3.2967	12.4438	2.8306	-0.9099	6.9074	7.9409	39.8091	5.1336	7.5814	1.3024	11.2353	8.7360	5.8238	0.7780	7.1933
1168.0306	-2.0768	-10.4230	8.4964	-14.2177	-9.6144	-4.3042	-5.8593	13.8705	-7.5527	-0.0536	-13.5288	-0.8450	4.6569	-0.9084	-1.2193	8.1013
1176.0308	14.5141	8.9536	26.0222	2.1348	5.7530	3.2573	-2.2006	3.0541	11.4054	17.1940	3.1195	4.6081	3.3410	11.3443	0.8104	11.7338
1184.0310	16.3072	15.3767	20.4921	10.0509	5.6979	-1.0727	-2.6422	-7.3727	17.8813	17.5734	12.3890	6.2307	-1.7239	8.9603	-5.6418	4.6302
1192.0312	-22.4381	-28.8850	-20.7748	-36.2413	-31.4578	-40.1696	-27.8702	-37.7789	-22.2750	-19.9477	-26.2471	-15.2263	-8.9505	-26.1380	-12.5111	-8.6131
1200.0314	-20.2324	-25.4320	-6.2697	-25.3186	-9.8184	-18.8577	-19.6874	-30.6324	-21.0261	-13.2600	-26.5678	-20.0668	-11.8780	-12.4747	-12.5620	-12.9109
1208.0316	9.3396	14.2369	20.1729	8.0824	20.5534	11.5832	-10.2810	-39.8785	15.1054	17.3488	9.4431	-8.7770	-13.8126	14.1669	-14.5458	-12.6739
1216.0319	2.6304	8.2747	-0.9527	-14.2949	-3.5246	-12.0073	-26.1629	-71.1584	11.7279	8.5870	6.6841	-9.8317	-14.7007	-2.6936	-14.8928	-14.3198
1224.0321	-2.2589	2.6272	3.5057	-10.6739	6.3631	-5.1755	-22.4943	-64.0074	2.5993	3.4678	1.4273	-16.6166	-17.8470	0.9868	-18.1307	-17.0630
1232.0323	12.1319	22.1285	25.2811	14.8879	30.0462	20.6348	-16.1032	-70.0620	19.6065	21.6936	17.0006	-16.3416	-21.6887	21.7659	-20.3009	-16.4172
1240.0325	12.4901	25.5289	16.0993	15.1159	19.1926	26.8150	-26.9487	-87.8356	26.1999	25.7190	19.4009	-15.5605	-17.7555	21.5311	-13.8563	-12.6149
1248.0327	12.7759	29.1289	16.1251	24.6431	28.7880	42.8605	-20.8439	-83.8655	23.9496	23.4607	24.6696	-17.5298	-17.1413	28.7179	-9.7351	-11.9269
1256.0329	17.3200	35.2599	22.2445	35.0097	34.3174	49.0998	-3.1950	-88.9744	26.0534	25.7338	31.5264	-16.8999	-21.7964	35.5028	-0.2317	-10.5308
1264.0331	2.9193	15.0653	7.4890	24.5359	13.7705	33.4350	-13.1855	-100.8310	6.6432	7.9703	17.5288	-24.8726	-23.7230	22.7140	8.2394	-12.6403
1272.0333	6.5932	20.4175	23.9413	35.3832	46.9191	47.8976	-15.3388	-100.8355	5.3391	10.3197	22.7086	-32.7741	-28.0550	34.9966	1.2834	-20.0183
1280.0335	35.8046	58.5739	59.7786	64.5167	89.8121	81.3554	4.5282	-99.8629	44.6059	49.4879	48.6257	-22.1429	-29.8338	64.8500	-0.0290	-20.3413
1288.0337	31.7564	49.0033	45.3893	47.4521	53.0935	62.8513	-12.6830	-113.5962	40.4929	42.6501	44.4900	-18.7640	-27.9445	51.4841	4.4381	-20.7256
1296.0339	13.1865	22.2238	24.0023	18.1033	23.4994	34.7134	-34.4329	-126.4219	10.2855	13.3597	28.6633	-28.5500	-29.1464	30.4247	3.7874	-23.9546
1304.0342	14.9945	28.4395	28.3823	29.5073	39.7787	41.0180	-24.9129	-125.0971	19.9837	23.0652	28.3720	-28.5620	-30.4468	34.8638	2.7468	-24.6616
1312.0344	19.8831	38.1819	28.5271	43.2686	45.6669	46.8926	-21.9724	-123.1582	33.8304	32.6288	35.9903	-23.7510	-31.4911	37.8890	-1.3406	-29.7267
1320.0346	29.4836	49.7394	35.5041	51.1460	48.0588	64.7839	-22.6186	-121.4924	41.7232	39.0132	50.1936	-19.3100	-30.8857	48.7638	-0.2723	-32.5569
1328.0348	-16.8862	-11.6066	-21.5205	-14.3086	-9.6250	-8.9415	-26.6060	-72.4486	-12.2324	-12.6677	-9.6801	-21.7702	-10.9996	-10.0725	0.1411	-7.6193
1336.0350	17.1008	31.4830	18.7584	36.1588	34.7099	36.6504	6.9900	-42.3305	28.8335	26.8235	24.1737	-4.4085	-9.3108	26.7668	1.7785	-1.8014
1344.0352	8.6734	19.6017	8.3678	19.2711	18.1001	15.1371	0.2540	-43.1481	18.1512	14.6938	16.7841	-6.0068	-13.3965	12.9528	-8.2173	-9.3529
1352.0354	-30.0833	-29.1545	-29.6389	-18.3413	-21.7030	-23.9371	-17.8371	-46.8235	-27.1838	-26.1100	-25.1656	-23.6140	-14.2532	-21.6423	-8.8090	-11.7480
1360.0356	-35.1956	-35.7349	-35.3701	-19.6138	-31.9108	-16.5734	-22.3620	-43.1094	-30.9946	-27.2861	-33.7143	-25.0269	-8.0948	-21.9130	-1.1606	-4.0756
1368.0358	-29.9233	-30.8469	-35.4796	-24.4466	-36.2288	-17.8093	-18.4536	-35.5735	-28.0990	-26.6871	-26.8449	-18.2090	-5.3721	-22.0898	0.8732	-3.0128
1376.0360	-33.9744	-35.5439	-39.9203	-26.6967	-41.2060	-28.9894	-10.5459	-28.3689	-30.9574	-30.7432	-31.0815	-16.9901	-8.4482	-28.7511	-2.9338	-6.2113
1384.0363	-35.0441	-33.5494	-40.3537	-20.1873	-35.8485	-25.8604	-11.4825	-26.5703	-24.8327	-25.2202	-33.2718	-17.6014	-8.7161	-28.0984	-9.9946	-7.1980
1392.0365	-23.8258	-16.4575	-28.1464	-3.6949	-10.9493	-7.5967	1.6587	-13.4286	-14.9307	-17.6633	-16.0024	-13.3857	-10.0882	-14.6315	-15.6296	-10.0511
1400.0367	-3.8918	5.6589	-7.3681	15.3891	2.8883	9.1792	10.2898	-11.7156	1.9171	-2.9130	7.8707	-4.9827	-11.9683	2.6730	-14.1495	-9.8038
1408.0369	6.2517	12.6891	-1.1341	13.8525	-8.5469	10.9457	-1.6324	-18.4967	12.5440	7.6207	13.8822	1.9349	-5.0269	6.3196	-6.4950	-0.6370
1416.0371	4.4197	10.0590	-0.8868	10.1961	-6.9915	8.7211	7.1020	-6.9568	11.3304	7.9608	8.2568	3.4148	-3.4727	4.6721	-5.4689	1.6311
1424.0373	-10.6618	-7.8654	-9.9056	-4.1688	-7.6148	-11.9635	7.7539	-8.2699	-4.2987	-5.1645	-9.8590	-5.3329	-9.4201	-8.9782	-11.5175	-6.8467
1432.0375	-31.5153	-34.7795	-35.1823	-31.8866	-30.4213	-37.2661	-13.8424	-15.4835	-28.4780	-28.2263	-32.3728	-14.0102	-5.1937	-31.4150	-9.0094	-7.6395
1440.0377	-27.8925	-27.8342	-34.2931	-20.4697	-25.1564	-23.4039	-3.9180	-1.3360	-24.8782	-26.2478	-25.0414	-10.1337	-2.5597	-24.9168	-7.4564	-4.2946
1448.0379	-13.1335	-8.2858	-13.9722	0.0811	-2.9615	-5.1117	15.0024	10.3097	-10.5384	-12.5163	-7.6611	-4.8341	-6.9217	-7.9720	-14.3901	-4.4393
1456.0381	-16.4039	-15.4079	-19.3756	-17.0504	-19.1933	-16.3891	5.6909	8.1978	-15.8303	-16.9060	-14.2328	-4.2304	-3.8711	-15.5684	-15.6256	-0.7889
1464.0383	-11.1451	-7.6989	-15.2139	-8.7901	-13.2541	-7.9708	7.5277	13.7030	-4.2497	-5.5071	-12.4008	-0.0254	1.3417	-10.5194	-14.1989	6.5051
1472.0386	15.1222	26.6969	19.9744	32.1562	35.7464	30.9790	30.1124	34.9942	23.9848	22.8507	15.0289	8.7186	2.8425	21.2247	-15.5964	12.1333
1480.0388	20.9393	30.1091	24.3938	23.9269	28.3121	29.9883	27.9471	34.5505	23.8163	22.2415	22.3790	12.4466	2.2722	22.9312	-16.6816	10.6008
1488.0390	13.3515	19.0249	10.7650	4.7674	8.9338	4.7692	22.6721	20.8377	17.8415	14.9806	11.8561	12.3378	2.3102	7.0939	-11.6716	10.8973
1496.0392	25.6009	33.9465	26.1624	28.0729	35.1952	22.2462	42.6318	41.0364	31.3785	29.1214	21.5005	19.6248	8.2650	21.1566	0.7973	20.2516
1504.0394	23.8511	29.6268	19.7389	22.1630	17.3485	29.3524	34.2671	50.8296	26.2460	24.2656	20.6685	22.2339	14.6676	20.6128	3.9625	24.2975
1512.0396	6.4413	9.1130	-2.0589	1.6103	-3.7673	10.2443	18.6168	40.1173	7.3001	5.7515	3.2279	14.1665	16.5076	3.0359	3.5331	26.0071
1520.0398	-0.5595	0.7370	0.1721	6.6523	11.5584	8.8542	34.3198	49.8120	-7.4066	-4.8650	-4.4423	7.0759	14.5377	3.2981	10.4111	30.0233
1528.0400	-8.7950	-13.6948	-5.2618	-3.4721	-8.2368	-3.3973	28.4785	49.3186	-22.3836	-17.3577	-14.0831	3.0795	12.9496	-4.6377	10.5822	31.6050
1536.0402	2.7958	-3.6141	5.0587	5.9210	-6.9852	-2.8156	20.6997	48.6357	-7.0135	-3.1222	-6.6860	10.4361	18.0877	0.1525	14.0297	37.7724
1544.0404	12.2024	5.3791	18.5370	16.3112	7.9612	11.1093	27.5872	58.2929	-2.0097	3.3333	2.6874	13.7130	19.9119	11.5906	20.9253	38.5791
1552.0407	4.4943	-5.3544	11.0148	6.2958	-7.7874	3.6601	19.7263	52.6942	-17.2908	-11.4438	-0.9248	8.2130	16.1385	5.4186	16.0099	35.7810
1560.0409	31.3234	27.4089	38.0962	42.6560	21.2309	23.8239	33.6019	65.1533	17.2732	19.0546	25.5599	22.8484	18.9324	26.6387	15.9463	42.0098
1568.0411	29.9678	24.4829	32.4891	32.1133	18.8714	11.8011	33.4207	69.8454	15.6520	15.8029	23.1558	26.1641	21.7264	19.0718	18.3062	40.7006
1576.0413	-12.9841	-28.9626	-22.7385	-32.5735	-42.5480	-46.2060	-0.3723	44.0338	-34.8901	-34.3002	-19.5457	9.0947	22.6198	-29.4444	16.9183	37.8571
1584.0415	-4.2154	-14.8605	-14.0472	-9.5107	-29.2853	-19.2520	9.9398	51.3499	-16.5530	-15.6868	-12.8577	14.1014	26.8534	-14.6044	25.3667	42.5250
1592.0417	18.7429	13.2685	20.0593	29.5399	8.7466	26.9817	28.1368	71.3802	8.4847	11.7070	10.4832	21.0778	25.6084	18.5566	28.1118	38.0398
1600.0419	17.4676	5.4114	21.7508	17.2382	-0.9407	5.4771	11.4668	61.5050	0.0065	3.3733	8.9782	18.4603	21.5304	10.1765	20.6610	32.1477
1608.0421	10.7706	-3.3716	8.3549	1.8496	-22.8988	-18.7465	-1.6120	42.2509	1.7058	3.0413	-2.3284	18.6307	21.5153	-5.4073	19.6925	31.9483
1616.0423	11.4905	-0.1133	7.3520	6.6960	-21.6193	-11.7130	0.3671	37.4193	5.4578	6.2053	-0.3337	18.4049	21.1397	-2.4470	21.9404	31.9716
1624.0425	35.9418	29.3025	40.0703	41.6462	19.4183	20.9549	18.0246	53.7830	24.1807	24.5176	29.4887	25.2450	19.4573	26.1105	21.5299	32.2011
1632.0428	34.3040	28.8318	39.7268	39.3130	22.8326	20.6983	19.4398	53.1612	23.6808	24.1023	28.3221	23.6414	16.7950	25.5911	16.7493	27.5511
1640.0430	13.1866	3.9090	12.6066	8.3799	-6.0442	-6.1698	4.9543	38.7611	2.5508	3.1578	6.2665	15.4709	16.2662	2.3127	15.2462	24.4330
1648.0432	19.1768	13.4899	19.2578	15.6928	8.9881	9.1284	14.9305	43.0548	11.4215	12.7786	11.1629	17.9840	18.7970	11.5399	21.1533	26.7884
1656.0434	23.0331	20.1569	22.9303	17.0489	15.5261	14.3434	18.5074	37.2477	18.4324	19.3973	15.0853	18.8122	17.1324	15.6263	20.0715	24.9619
1664.0436	18.9991	11.9203	16.3977	6.4765	1.1393	-7.7606	4.6852	25.4102	10.2899	8.8345	13.9102	16.8951	12.6669	4.1952	14.0499	17.9423
1672.0438	-5.3272	-17.8510	-5.7453	-17.3037	-18.0844	-29.6130	-6.2271	23.0568	-15.4333	-13.5161	-13.5195	5.2611	10.7605	-16.2413	12.2033	11.0225
1680.0440	-31.2452	-47.1113	-31.9933	-47.1350	-40.2786	-49.4365	-17.0121	15.7234	-40.5282	-34.8386	-43.6572	-7.1068	11.3861	-37.3730	10.4169	10.5083
1688.0442	-14.0945	-22.2499	-18.2055	-26.5668	-21.5333	-25.0195	-13.4201	14.2710	-19.3792	-17.5886	-20.4517	-0.5278	11.5056	-19.9159	5.5091	10.4518
1696.0444	-1.0587	-1.9729	-2.8680	-9.1577	-2.3714	-3.0162	0.1926	16.8240	-0.4079	-0.2970	-4.2212	4.0215	5.7964	-3.7410	-3.5904	3.4932
1704.0446	-1.5079	-5.5182	1.1335	-20.5909	-3.2251	-20.8309	8.7638	15.0242	-2.3774	-1.0225	-8.9669	4.5788	0.2149	-9.6465	-6.4187	-0.6043
1712.0448	1.8600	-2.5963	2.0021	-17.7578	1.8475	-20.2039	4.0275	10.7062	-0.2789	0.1490	-4.8529	5.7845	3.6706	-8.4313	1.7527	1.2922
1720.0451	-8.3221	-14.7850	-12.8535	-24.9561	-15.4617	-21.3389	-14.2646	2.5046	-10.0869	-9.1802	-14.4245	0.7667	8.3353	-15.6718	6.4466	3.3965
1728.0453	-25.1988	-36.7797	-34.0425	-51.5498	-42.8246	-48.4605	-27.5379	-10.9915	-29.2585	-28.4080	-31.6182	-5.6869	5.9387	-36.2999	5.2337	-1.7383
1736.0455	-41.5518	-51.1811	-52.7156	-61.1713	-48.4408	-55.4184	-32.3581	-20.1580	-43.5005	-43.2310	-43.8482	-15.2505	1.5560	-47.3443	0.9009	-11.1348
1744.0457	-23.6961	-27.2232	-22.5021	-25.3882	-14.2390	-21.4129	-19.3709	-2.0687	-19.6774	-17.3181	-27.9095	-11.1474	-0.3581	-21.1394	-10.2296	-9.9294
1752.0459	4.2449	6.3572	12.3982	-0.0365	17.2710	1.7648	-3.7158	9.2639	14.5955	16.3778	-3.5877	1.3182	-1.3553	3.5931	-19.9559	-6.8138
1760.0461	-4.9630	-0.9753	-9.7624	-20.0748	-0.8298	-10.9908	-10.8122	-4.7673	9.6343	7.6424	-10.0437	0.9253	0.8888	-10.3567	-17.6164	-8.2154
1768.0463	-1.5622	2.6430	-11.4000	-18.4497	-0.6131	-8.5681	-13.6855	-5.8203	12.9587	9.1894	-5.2404	4.1849	4.9839	-9.4956	-10.0354	-6.4386
1776.0465	4.2254	8.4284	-7.0443	-14.3697	6.1187	-8.1409	-15.6373	-9.8961	16.1229	10.5135	3.6618	6.0644	4.2034	-6.6568	-7.2100	-10.0510
1784.0467	-3.9206	-4.1031	-15.3605	-19.9411	-9.7597	-15.9010	-17.1268	-9.2621	2.3760	-2.4459	-2.7987	3.0540	2.1315	-13.5446	-2.3053	-13.1260
1792.0469	2.9683	0.0703	3.9176	-4.9695	3.1387	-0.3368	-7.4219	1.7857	6.1853	6.9850	-1.4833	3.0890	1.5668	0.0667	4.2245	-10.2330
1800.0472	-2.3750	-3.7680	-3.4506	-9.4725	2.4092	-3.2514	-16.5502	-8.0833	3.8848	4.1885	-6.1550	-1.1231	1.8616	-4.2834	1.4522	-11.5436
1808.0474	-6.5728	-7.1183	-15.5670	-10.4585	-15.2215	-5.0539	-24.5361	-6.7884	-1.2602	-4.4975	-4.2757	-0.4973	3.3972	-9.5474	-4.2278	-9.2304
1816.0476	-7.9338	-8.4319	-11.5291	-7.8215	-16.6383	-0.0684	-28.3442	-16.8549	-6.8979	-8.0346	-3.2445	-6.9382	-1.7660	-5.4072	-10.5281	-8.9942
1824.0478	-16.0635	-14.3103	-18.7119	-14.3349	-12.1952	-13.7210	-37.5539	-40.7910	-11.2325	-13.4177	-9.2361	-16.0327	-9.6041	-13.5634	-19.7795	-18.7922
1832.0480	-1.8002	5.2484	0.8590	14.2948	15.3825	10.3798	-15.6913	-16.9055	7.0479	3.7434	6.7778	-8.3492	-12.1717	4.5659	-23.4284	-24.1370
1840.0482	-0.5705	8.4169	11.0619	24.5026	24.1178	37.4922	-1.9104	-5.9471	5.2032	6.7665	8.4829	-11.6572	-15.1814	19.2668	-23.1451	-24.9675
1848.0484	-1.5063	7.1412	7.0406	19.2677	16.6124	34.1328	-6.8485	-19.5293	5.9483	7.7491	5.7230	-12.4404	-13.0767	16.7773	-16.7253	-19.5807
1856.0486	18.8301	29.0329	24.5388	38.8242	33.1258	44.8521	11.5055	-4.0624	27.4880	26.6579	24.3783	2.3213	-7.0088	29.8871	-3.4018	-10.6128
1864.0488	19.0654	31.5667	27.9344	40.8321	45.1992	58.9470	22.8810	3.9282	23.8142	24.5314	27.6608	0.4569	-8.9424	36.9682	-2.1669	-14.6862
1872.0490	21.6893	38.0954	32.2645	41.9953	57.9866	68.7139	20.6642	-0.4437	30.2499	31.2816	30.5715	-1.2581	-9.9821	42.5534	-8.8512	-18.4281
1880.0492	26.6238	40.8386	31.9012	34.7905	51.0563	57.7520	15.9107	-1.8349	34.8728	34.1112	32.9876	4.8022	-4.6671	38.3310	-4.9766	-11.3095
1888.0495	17.2353	25.4809	17.1254	20.1015	29.8641	37.1939	5.8584	-4.1465	18.0408	16.3701	24.9924	3.0730	-1.6553	23.8320	1.6973	-7.9608
1896.0497	15.2702	23.5028	12.0315	22.2484	26.9641	33.2893	0.9954	-10.1139	17.0856	13.9090	24.5557	2.2579	-0.9460	20.6056	5.0705	-7.8316
1904.0499	14.2946	23.0872	6.3230	16.5131	22.3919	31.2882	-0.9969	-15.7535	18.0652	14.0573	23.0408	3.3033	2.0021	17.7000	10.3164	-5.1278
1912.0501	24.0011	31.6518	20.4392	28.3885	31.8132	37.6820	4.2533	-2.6468	28.2736	24.9661	29.5239	9.1312	3.3670	25.8039	10.6347	-3.8757
1920.0503	12.6459	13.3842	7.0389	4.4832	4.2623	2.9480	-7.6488	-12.5847	14.6551	10.8657	15.2794	6.5396	-0.0715	5.3544	4.6983	-6.9587
1928.0505	-14.8091	-17.4368	-26.7942	-38.8311	-27.3571	-23.3882	-23.9805	-29.6420	-16.3395	-18.7465	-11.1869	-6.2337	-1.1074	-20.8347	0.8485	-11.6118
1936.0507	17.9840	26.6962	22.0357	18.1491	32.6200	41.2960	0.8727	-4.2836	25.3883	25.4180	21.2614	2.7154	-3.4990	26.0906	-6.7459	-14.9596
1944.0509	34.5322	43.1501	43.0848	36.4712	35.9806	41.7721	5.7870	-7.9609	45.2092	43.4302	36.5930	10.2660	-10.6319	36.1526	-15.0899	-17.6053
1952.0511	-3.0760	-4.7405	-2.9913	-17.2111	-13.9302	-13.6399	-15.8857	-26.2046	-0.3718	-1.1540	-2.3297	-4.1724	-10.3835	-7.1220	-12.4419	-17.9669
1960.0513	1.5931	2.6808	13.5083	6.3565	19.0810	11.1722	-1.6269	-5.7964	4.0279	7.3714	0.5834	-6.2851	-9.6503	9.0134	-9.8048	-17.7648
1968.0516	23.1920	27.3384	38.9826	33.3904	37.8533	31.4196	17.5428	2.6775	23.9506	26.0679	24.4204	3.2792	-12.3363	29.7513	-7.5129	-14.3987
1976.0518	18.4030	20.0055	23.4402	17.9867	15.4326	14.1266	17.3784	0.4130	16.9462	16.7191	19.2193	7.2357	-5.8240	17.0332	2.8899	-2.7463
1984.0520	8.9532	6.7474	6.8157	1.6724	-4.2033	-7.3753	4.1931	-6.2270	8.3762	7.1972	6.5480	6.4929	0.6260	1.0198	8.4968	5.0811
1992.0522	4.0340	0.3544	-1.1326	-6.0966	-16.2746	-14.1670	-6.4940	-16.6015	0.0256	-1.9302	4.7229	2.9968	-0.1470	-4.6926	7.1113	4.6524
2000.0524	10.7578	11.8240	8.4436	13.2178	-3.0345	9.9601	-1.7979	-12.2272	10.2220	8.3869	14.1927	3.5433	-1.5730	9.4012	4.2007	2.4161
2008.0526	8.5754	9.2960	2.6692	6.9474	-12.8828	5.1437	-6.6708	-16.3859	12.2524	9.3418	10.8901	4.8304	-1.5038	4.6651	3.2498	-0.9324
2016.0528	8.3112	7.4443	1.5506	2.5774	-11.0867	3.7983	-0.0491	-6.5921	6.0503	3.5191	11.3150	6.4560	1.4233	3.6765	9.8814	2.0608
2024.0530	19.7270	20.1232	21.4118	29.5682	14.9879	19.1096	14.8448	9.3102	12.2678	10.5800	24.8751	8.7492	-0.0380	19.0175	11.9101	4.9533
2032.0532	-1.0441	-6.0851	-2.2124	6.5653	-12.0990	-12.1646	2.9757	-3.0985	-10.9095	-12.5779	4.1799	-0.1018	-3.8693	-4.3084	10.1446	-0.0706
2040.0534	-12.2247	-15.6979	-11.2577	0.3272	-9.5264	-3.7789	10.4422	8.9179	-19.1609	-17.0769	-10.6861	-4.7602	0.1237	-6.3116	13.8120	2.8671
2048.0536	22.7448	29.3139	34.1332	46.1824	43.4572	49.2921	32.4633	30.4411	21.7633	24.8978	22.9013	7.6437	3.0471	35.2371	9.6027	10.3336
2056.0539	30.0500	33.9894	37.1947	35.8098	33.1934	35.2558	24.7272	22.6435	25.6146	26.2773	30.3442	13.0743	3.4922	31.6189	5.5466	13.1325
2064.0541	1.6262	-2.1353	2.8431	-1.2323	-3.6208	-1.7253	14.5480	20.5783	-6.0179	-3.3296	-2.9389	4.7842	8.2571	0.4543	12.1097	19.0585
2072.0543	-12.9461	-15.3801	-12.8898	-7.8706	-5.9899	-7.5746	12.9452	17.7084	-16.7167	-13.0389	-18.4049	-2.6088	9.3530	-9.2057	13.6410	19.5382
2080.0545	-7.2340	-3.0977	-9.7737	10.4984	-11.6160	-3.6443	-15.6390	-10.9354	0.9750	-2.5419	-2.3708	-5.6085	-4.7342	-5.1967	-20.9659	-1.1107
2088.0547	-25.4028	-25.6655	-30.8977	-14.1711	-29.2245	-31.5414	-19.7515	-17.9291	-22.6894	-26.1894	-19.2781	-13.0463	-7.5811	-25.8489	-19.6615	-5.9169
2096.0549	-36.2894	-32.2510	-44.3486	-25.0673	-31.7235	-25.2867	-21.4558	-22.2577	-28.9059	-31.9011	-28.2505	-19.2287	-8.5568	-29.6890	-25.3445	-11.1643
2104.0551	-23.7804	-17.3135	-24.7462	-5.4337	-16.1913	2.6537	-22.6401	-16.8613	-14.8621	-15.6600	-16.1918	-17.4173	-8.5480	-10.4034	-29.6394	-11.6681
2112.0553	-8.1200	-0.8878	-2.2079	11.9483	1.5467	23.2568	-11.6083	-9.2584	-4.3139	-3.2827	0.0060	-13.0146	-9.4307	8.1738	-26.5102	-8.7930
2120.0555	0.2030	11.5263	-1.5761	9.1826	7.1664	20.3249	-4.8692	-12.4581	8.5740	4.9427	10.4196	-5.3985	-9.4044	8.4103	-27.9088	-11.2699
2128.0557	-5.4361	3.5868	-8.6059	1.3194	0.8015	11.7178	-13.1345	-9.0976	3.4863	-0.1217	3.0537	-6.2655	-6.8002	0.9652	-29.0657	-12.4723
2136.0560	4.4630	15.6274	5.4621	16.5594	13.0996	37.0778	-5.2776	2.5523	11.2172	9.9242	12.7737	-3.3707	-3.0606	17.3524	-25.5495	-4.4376
2144.0562	23.2379	40.6194	22.0968	32.1456	39.7950	47.9828	15.6538	7.0966	31.2245	26.3461	34.2378	6.4973	-2.9169	30.9465	-22.5652	-0.4031
2152.0564	6.2184	14.2333	7.4977	13.6133	25.4962	15.0579	5.3981	1.1497	6.0006	3.6711	13.7316	-1.9072	-2.9294	10.5131	-13.1795	-0.7756
2160.0566	-15.6018	-19.4351	-15.6555	-13.8719	-16.0061	-14.9255	-23.7062	-13.0362	-21.5559	-20.2728	-13.3036	-11.5605	0.2869	-13.1715	-5.6516	1.5156
2168.0568	-23.0513	-28.7815	-25.2986	-25.2607	-26.5685	-27.6997	-27.4037	-15.3235	-28.4077	-27.8187	-20.8454	-13.1887	-1.6466	-22.9906	-7.6960	-4.5001
2176.0570	-36.3582	-43.5344	-33.0689	-28.0709	-28.5615	-27.5733	-18.1476	-8.3917	-45.5777	-41.7811	-32.9763	-21.1660	-6.6729	-27.1564	-5.5415	-11.3575
2184.0572	-24.2431	-27.8472	-21.1775	-8.4506	-20.2314	-6.3843	-9.5629	-7.7750	-31.5146	-28.2120	-19.4380	-16.2058	-5.2483	-12.2283	0.6698	-5.1614
2192.0574	-2.6533	-2.1939	-1.7800	11.8335	3.4488	4.5701	-5.9850	-9.5343	-4.7068	-5.1323	2.1494	-5.5473	-2.4744	1.9676	3.9977	-2.8304
2200.0576	-12.6469	-17.4538	-11.8006	-4.9725	-11.2935	-14.9221	-20.0571	-20.8216	-15.1670	-14.9548	-9.8019	-10.2175	-5.7786	-11.2592	3.4929	-13.4653
2208.0578	-17.3735	-24.8657	-16.2180	-13.0279	-27.8669	-17.3917	-25.5676	-26.3331	-19.1095	-17.5823	-15.9360	-11.9157	-8.5481	-14.8655	2.7508	-18.9186
2216.0580	-11.6643	-18.5151	-7.1515	-3.2560	-17.3827	-4.1722	-21.9971	-19.6094	-13.9891	-10.7273	-11.7269	-10.4598	-5.6418	-5.7807	6.9736	-14.5718
2224.0583	-10.7196	-16.3361	-6.4352	-3.2031	-8.0526	-3.9544	-20.1344	-20.1475	-15.0133	-12.3196	-8.9032	-11.2150	-5.4828	-4.9795	7.8573	-15.0716
2232.0585	0.2539	-1.0514	3.2437	10.8276	6.8775	8.4508	-6.7044	-10.1277	-0.3560	-0.0229	3.6360	-3.9276	-5.2903	4.8373	8.0675	-15.9726
2240.0587	8.1966	5.7251	13.5385	24.0127	8.2837	23.3006	-2.4567	5.4383	8.0827	10.0807	8.0909	1.9738	0.1445	14.7053	14.0445	-8.4837
2248.0589	10.1947	5.0806	15.8851	17.5292	2.9348	19.7452	-2.2955	5.9189	4.2394	7.0682	9.7786	3.1777	0.9684	14.4364	16.0128	-4.7591
2256.0591	7.4956	2.1531	9.1935	4.8777	1.0126	9.6141	-1.4237	4.6135	1.3303	3.3350	6.0184	4.1432	3.5092	7.5264	18.5129	-2.7968
2264.0593	9.2548	5.7693	9.6334	5.2318	6.5366	16.5354	-5.5211	6.2287	7.4932	10.0242	4.8587	5.3456	9.2674	10.0715	19.7788	2.4663
2272.0595	32.0399	36.3591	34.5945	28.2623	36.7863	40.2906	12.1797	11.8943	31.6399	31.4364	32.0571	14.0618	6.1480	32.1026	12.4288	2.8859
2280.0597	36.1974	40.8505	32.3126	29.9606	28.0531	31.4596	15.9639	12.4951	37.2858	33.2098	37.7605	20.4942	6.6971	28.6516	12.4744	6.4906
2288.0599	15.8669	14.6707	6.9764	8.7887	-2.2570	4.5367	-0.7415	2.6516	17.2181	13.7927	14.4532	13.4140	9.4446	6.0421	16.7030	9.1345
2296.0601	-0.5010	-2.1874	-5.2493	-6.6039	-0.8308	-7.1887	2.1121	-3.4801	-2.5404	-3.4307	-0.8144	2.0093	3.3647	-4.5806	14.0191	1.1127
2304.0604	-9.0704	-10.5647	-11.3028	-9.8933	-0.9362	-4.9965	2.1889	-1.3827	-9.5347	-7.9786	-11.2291	-3.1797	3.8122	-7.2113	14.6129	0.6473
2312.0606	0.4126	-0.1966	4.7179	8.7685	9.8826	15.0494	3.3500	5.9176	1.7884	5.8752	-4.6713	-1.1142	5.8767	7.3618	14.6239	6.0043
2320.0608	-6.0429	-10.8052	-2.9085	-4.7476	-10.7270	-3.5117	-3.8853	-1.8485	-9.6002	-6.1858	-9.4129	-3.6535	1.1666	-3.3290	8.2286	2.8585
2328.0610	-21.4335	-27.7643	-25.6717	-21.6373	-35.2374	-18.3955	-16.7478	-6.9060	-24.5033	-22.6540	-22.5312	-8.3121	2.4571	-19.4807	4.7463	1.8905
2336.0612	-3.1763	-1.7527	2.6382	12.7692	13.3247	19.2929	6.9290	14.8179	-5.3627	-1.6953	-3.3866	-4.2247	3.7666	8.2708	5.7866	5.6850
2344.0614	-2.7772	-6.8988	4.6580	-0.7351	8.5228	-4.7159	9.7505	12.4981	-12.1562	-8.1781	-5.6963	-2.7580	1.8643	-0.3878	7.8439	7.3466
2352.0616	-20.5764	-31.9344	-24.0999	-35.6540	-35.0300	-42.2567	-11.3099	-3.6808	-30.7514	-28.3781	-25.9804	-5.5352	4.8770	-28.3282	10.0460	9.6120
2360.0618	-20.1434	-26.0432	-23.1453	-22.2004	-21.3664	-22.0035	-7.2238	2.8786	-27.4564	-25.1200	-22.1520	-7.4594	6.3170	-19.5844	8.3216	10.3760
2368.0620	-23.2370	-27.7645	-27.3678	-21.6833	-21.8592	-23.0662	-12.2517	1.2859	-30.5674	-29.6983	-21.5754	-9.9887	4.3232	-21.7084	1.0802	6.6316
2376.0622	-15.1849	-19.1529	-17.2332	-14.6259	-17.1138	-19.9764	-7.0274	7.0184	-21.1518	-20.9530	-14.3399	-5.2498	2.5021	-16.1126	-3.9208	5.5366
2384.0624	-3.0221	-6.7804	3.7681	-1.1330	1.8257	-8.7458	9.0480	19.6477	-12.9490	-10.6195	-3.8005	-1.3099	-0.0656	-2.5342	-4.7414	7.1524
2392.0627	-5.3022	-9.0843	0.2388	-10.3500	0.0916	-10.6025	0.4279	9.5967	-16.5318	-14.2574	-4.4433	-4.3787	-1.1826	-4.8083	-6.9009	2.5702
2400.0629	5.0779	6.8194	10.5064	4.3812	15.5393	15.0662	4.5620	10.7087	-0.0428	1.6049	7.4921	-0.6873	-0.8412	10.2118	-6.2606	-1.8496
2408.0631	18.7434	21.6934	27.7591	23.2626	28.1519	32.1279	15.5066	21.5621	14.5879	17.0038	19.0415	6.1965	1.3900	24.8176	-1.2662	4.0148
2416.0633	12.8995	13.4922	15.4378	6.6756	12.5056	10.9722	7.0917	12.2885	10.2693	11.4166	9.9713	6.6588	5.6630	11.1593	1.3108	11.4905
2424.0635	-0.1612	0.4025	-2.9377	-11.4846	-1.4799	-7.1629	5.5290	7.2360	0.8827	1.1389	-4.5379	3.4818	6.0734	-4.3853	-0.5825	11.8844
2432.0637	6.7493	12.5072	8.1662	4.3384	18.7718	14.5508	17.2519	17.6080	9.6513	10.1780	5.0338	4.5660	3.8116	9.1999	-5.2846	8.1904
2440.0639	11.9403	18.1148	11.5281	4.8386	20.6363	18.0352	11.8402	14.3740	16.5836	15.8792	10.7747	7.3259	4.1185	12.0555	-5.9442	3.6864
2448.0641	-5.7511	-7.3485	-6.7396	-18.0417	-8.2029	-6.3152	-2.7496	7.4110	-2.8156	-1.1193	-11.3688	0.8408	3.9287	-7.1876	-2.9695	0.3724
2456.0643	5.8076	11.4104	14.2736	12.3365	24.7780	30.2278	12.9166	19.2938	12.7301	16.7717	1.2170	0.9947	2.0305	16.6420	-5.7287	0.0714
2464.0645	14.6997	21.0362	14.1189	10.6771	17.3914	19.0797	12.0165	10.9313	24.8634	24.0286	10.5737	9.7086	4.1159	13.6130	-4.0009	4.8606
2472.0648	-11.8887	-18.6453	-26.8597	-39.2018	-42.2486	-43.8162	-11.6984	-8.8018	-9.4487	-11.9633	-19.7573	5.2608	9.7037	-29.4354	7.4750	14.2622
2480.0650	-3.9848	-2.7445	-13.3444	-15.5794	-9.4479	-10.4653	0.6109	-0.6304	-1.3862	-2.7593	-6.9674	2.9924	9.3476	-9.4898	5.7271	15.3582
2488.0652	-2.3755	0.2486	-12.9647	-15.9018	-10.6765	-12.8006	-7.5240	-6.1746	2.9383	-1.3129	-1.4145	3.2059	3.3571	-10.3545	-7.6001	2.2452
2496.0654	-20.6181	-23.4523	-29.0671	-35.0618	-24.1728	-37.6532	-15.5769	-10.1681	-17.6115	-19.9332	-21.9875	-5.4850	0.0825	-28.7273	-8.7369	-5.3324
2504.0656	7.2463	17.6220	12.8694	17.5033	44.1901	19.4594	26.6728	11.0041	13.2143	13.0618	8.6945	0.1076	-2.9407	13.9252	-5.1682	-1.8762
2512.0658	10.9875	17.5755	9.4407	7.7207	15.7461	2.1042	16.9819	-2.9453	17.1615	13.4787	13.0154	5.9996	-5.6990	6.3166	-8.0638	-3.3153
2520.0660	-21.1150	-24.8260	-29.8392	-32.7250	-39.9321	-40.6670	-16.5040	-21.7292	-13.2523	-15.7274	-24.0268	-5.1701	-4.7462	-29.9827	-9.2851	-7.7879
2528.0662	-19.8515	-18.2760	-17.7502	-12.6476	-9.5980	-13.0587	-2.0672	-7.8855	-8.5715	-6.9293	-23.8561	-9.7338	-6.3008	-14.5846	-10.5605	-10.2160
2536.0664	-4.4123	0.7067	-1.4673	-2.0527	7.4461	2.8258	4.5282	-5.8113	4.3724	4.5721	-4.7747	-4.2244	-7.2824	-0.1113	-13.5891	-10.5473
2544.0666	14.0236	24.3438	10.3929	10.6711	22.9814	15.4089	10.7885	-3.4006	25.3648	21.1762	16.2792	6.7781	-2.1326	11.8236	-11.0177	-3.4159
2552.0668	20.9505	27.6048	18.3332	15.2020	20.0501	12.6015	18.3397	9.5950	29.6294	25.8216	19.6117	13.9868	0.9964	13.9621	-4.3076	2.8246
2560.0671	16.1624	16.1251	21.4168	8.8056	10.8656	9.4879	18.5557	13.7998	15.3888	16.5323	12.1192	9.7195	-0.9564	13.0139	0.2887	3.0740
2568.0673	23.3696	28.3798	34.9739	23.6633	37.9451	28.0552	32.5203	15.5438	22.2668	25.0995	20.5666	8.1136	-3.0459	27.0162	1.0828	4.6302
2576.0675	10.6538	10.5342	16.8490	2.8614	13.7085	0.6061	18.3605	5.8693	10.5947	12.6110	4.9240	5.5104	-1.7142	7.5090	2.3268	3.7522
2584.0677	3.9266	0.7425	6.1511	-4.3322	-2.6522	-6.8841	3.7778	-1.0625	7.2778	9.1197	-3.9487	4.2642	0.9840	-0.8087	6.7592	1.4327
2592.0679	22.2693	24.4135	27.2509	24.8642	25.1306	18.8456	15.8918	6.8166	28.2735	28.6952	16.7649	11.1604	1.3026	19.7567	9.6204	2.1704
2600.0681	4.5756	-0.3327	1.7217	-3.8205	-9.1086	-17.6082	-0.9927	-0.6045	7.0510	5.3195	-0.3419	7.5721	0.8671	-6.5677	7.4731	-2.5919
2608.0683	-16.6348	-20.9852	-20.0661	-21.6690	-17.5700	-30.1359	-2.7918	-2.1716	-8.4063	-8.7101	-23.3717	-1.7290	-1.5425	-22.5932	3.0958	-11.1402
2616.0685	-2.7752	2.3774	6.9986	11.3780	31.1896	16.5505	20.5794	13.3475	10.0143	13.8327	-9.5398	-2.4760	-3.5173	7.6392	1.9052	-12.8044
2624.0687	0.1692	-0.6696	2.2256	-1.1788	6.3687	1.1663	0.5416	-0.0126	5.4042	6.4869	-3.8144	0.8713	-1.0419	0.3059	4.9696	-10.3943
2632.0689	-12.2103	-23.7858	-19.6078	-28.8050	-34.9796	-45.4633	-20.3687	-17.8788	-12.2926	-13.9386	-17.9463	0.5095	-0.0262	-27.6133	12.2281	-9.3587
2640.0692	-14.5490	-25.0469	-11.7116	-9.0485	-14.2642	-25.7394	-10.6486	-6.4934	-14.4349	-11.6835	-21.5914	-5.1042	-1.0297	-17.1433	19.3257	-11.8554
2648.0694	-2.1934	-4.9353	1.1786	19.5723	3.2525	10.0440	-6.5248	-4.7034	1.8947	2.4253	-1.0333	-2.9059	-4.6971	3.9193	14.1552	-19.5394
2656.0696	8.7001	7.6420	10.7700	29.5075	2.3690	11.9142	-6.4203	-13.9077	14.5364	12.1561	12.5856	1.7458	-9.3060	10.1348	8.2853	-21.2518
2664.0698	4.8196	0.9350	10.2488	26.5640	-2.1729	9.7780	-7.9269	-12.3752	8.7168	9.5321	4.3997	-0.8140	-6.3478	8.4414	12.8039	-13.5536
2672.0700	1.0484	-1.1157	3.4567	20.6868	-11.3820	10.1694	-13.5414	-15.4116	6.1064	5.8546	3.2034	-2.5033	-7.1748	5.6898	4.0013	-14.1733
2680.0702	0.0056	0.7768	6.4594	20.2535	-4.2199	11.0596	-12.1419	-18.2656	3.3258	2.8917	6.1538	-7.0478	-14.1888	7.4969	-12.0364	-19.5603
2688.0704	-7.9574	-7.7013	-2.5731	9.8545	-5.3856	4.1591	-10.0919	-15.3566	-8.1557	-7.8468	-1.3561	-10.5167	-12.3136	0.6631	-10.0150	-16.6617
2696.0706	-17.7391	-19.7449	-15.8492	-5.6523	-17.5154	-8.3316	-14.5150	-18.6249	-18.4020	-17.5940	-12.8979	-13.1933	-9.8044	-10.5261	-5.7256	-15.1102
2704.0708	-15.3499	-14.8620	-4.0644	2.1282	1.1104	8.1038	-12.1226	-21.1392	-16.8015	-12.0499	-11.3952	-18.9515	-12.6455	0.7851	-9.8788	-15.7946
2712.0710	-5.9521	-1.9826	2.1622	3.7133	3.8425	13.7853	-8.6552	-25.5585	-6.1982	-4.0281	0.9805	-14.1564	-14.5884	6.8135	-15.9480	-16.3826
2720.0713	-17.0341	-19.3914	-16.7962	-22.9104	-32.0070	-20.0416	-24.3433	-30.8901	-18.5314	-19.1913	-10.7594	-13.2923	-15.3596	-15.6357	-23.8098	-19.7927
2728.0715	-36.9154	-43.6067	-31.7559	-38.0275	-41.0064	-33.0545	-36.1539	-25.8103	-43.9267	-40.3921	-32.6459	-25.2424	-13.5060	-29.1613	-28.6152	-17.0834
2736.0717	-40.0860	-40.1209	-31.8258	-33.1346	-22.0285	-20.5922	-26.1093	-26.9506	-46.3973	-41.7613	-32.6242	-31.6788	-15.5282	-23.5803	-33.9219	-14.5128
2744.0719	-25.8245	-18.4902	-14.7544	-13.1874	0.2003	1.3535	-10.7336	-26.7457	-25.1901	-21.6299	-17.1501	-26.9422	-19.5873	-6.4285	-38.6011	-16.7835
2752.0721	0.3175	9.1135	12.9862	10.8429	18.3190	23.7383	1.3577	-11.2820	2.4009	4.8024	6.7884	-11.8722	-15.3936	15.1334	-32.7962	-11.5529
2760.0723	5.7750	10.2771	13.9882	2.5943	10.0479	12.1348	-4.3236	-10.1658	1.6219	2.2930	12.2509	-6.1003	-11.2647	11.3174	-27.9400	-7.2249
2768.0725	1.2580	8.2298	1.2241	-4.1375	4.7150	9.0635	-11.0971	-15.4998	-0.4316	-2.6858	11.0418	-6.5498	-8.0390	5.1396	-28.0387	-6.4502
2776.0727	19.1728	33.9707	12.9255	15.5032	20.3702	36.3880	1.8707	-5.7883	26.8507	21.2597	29.6377	5.7948	-2.0038	22.2809	-23.7696	-0.5653
2784.0729	17.7542	29.0359	15.7896	10.2408	17.8658	32.5343	0.5806	-4.4943	23.0561	20.6806	23.2379	4.5083	-0.2049	21.1646	-20.2905	3.9691
2792.0731	4.3513	11.8673	1.4820	-5.1914	7.5718	11.4561	-7.1609	-9.3948	6.4413	5.5743	6.9566	-1.8690	3.2750	6.1359	-16.6906	11.8120
2800.0733	11.5302	21.4004	1.8960	-0.1298	10.9601	10.2503	2.4202	-3.1562	16.5033	12.3546	13.9457	6.3886	8.6129	6.9540	-10.3644	20.7868
2808.0736	7.1521	16.2473	0.7833	-0.4077	13.3447	13.5109	10.8236	5.1984	9.4812	7.3888	9.3456	4.1526	7.5948	7.2560	-6.6925	18.8985
2816.0738	5.4500	14.6341	0.1390	1.3678	16.7918	19.4950	19.4771	11.7403	5.8636	4.8437	8.3430	3.6844	7.5082	9.2901	-0.2952	17.2837
2824.0740	16.6803	25.3053	10.2678	11.2378	21.3018	24.8119	23.9575	15.2079	19.3788	17.3178	17.3590	11.5893	9.8494	16.1437	7.8255	18.3966
2832.0742	17.6476	25.1270	11.7063	10.9500	21.7704	23.8050	21.1648	12.9330	21.0807	19.4899	16.5799	11.9935	10.6539	16.1486	10.9449	17.6671
2840.0744	29.9231	38.4011	21.1685	17.1075	29.2599	31.1311	24.9787	16.2807	32.1531	28.9680	29.2567	19.4096	14.7253	24.0495	16.2768	23.1102
2848.0746	47.5227	55.6843	41.0342	37.8605	43.5405	49.4531	28.1784	28.8611	47.6035	44.5268	45.6859	28.1588	20.5765	40.3713	23.7862	30.8203
2856.0748	47.9771	56.2457	40.0686	42.4228	41.1497	53.1931	28.0297	33.0896	47.9828	44.4372	46.9823	29.3801	22.5832	41.5874	25.6345	33.5004
2864.0750	37.6613	41.8695	27.2655	26.6583	21.2399	32.3047	24.1112	29.4125	36.4136	32.5336	35.5877	27.2663	20.4730	27.2124	24.6005	30.7720
2872.0752	20.2355	18.9202	17.3720	18.1789	13.8868	17.0633	19.3180	31.8678	15.8418	16.0833	14.9511	16.8911	16.9777	15.0262	24.1077	25.1893
2880.0754	11.1806	10.3311	7.9042	16.2822	12.7648	12.4547	21.6492	32.6378	6.4244	6.5811	7.9054	12.3043	15.3407	9.0492	24.6454	22.5738
2888.0757	10.8050	8.8274	4.8470	16.2167	7.5210	6.6312	22.5150	33.0899	4.6649	3.2996	9.0238	13.9384	15.1655	5.8213	27.3904	22.1970
2896.0759	-3.4944	-9.3952	-7.8201	7.4270	-5.5908	-4.4692	11.7306	29.9573	-12.6237	-12.0549	-5.4233	5.7396	14.3181	-5.0075	27.2060	20.0105
2904.0761	-25.6587	-35.4616	-34.7856	-21.0463	-38.4599	-28.1704	-9.9978	10.9019	-35.1010	-34.1133	-26.8823	-5.0502	11.8095	-26.9919	20.9732	14.7000
2912.0763	-23.1644	-31.5148	-30.3103	-13.5812	-34.7572	-25.3561	-10.5311	4.8055	-27.7089	-26.9400	-25.2032	-5.3060	8.5184	-23.8641	17.9661	10.8337
2920.0765	-6.7830	-10.5908	-13.0666	11.3309	-10.7390	-11.1262	4.0575	13.4040	-7.2299	-9.3181	-7.1266	3.1538	7.6014	-9.6051	19.8424	9.4670
2928.0767	-15.8382	-23.6964	-25.8804	-5.8913	-31.1814	-27.3989	-7.6005	9.4990	-20.7012	-23.8908	-13.7067	0.5726	5.7681	-22.1192	15.2688	3.4078
2936.0769	-12.3846	-17.8765	-12.4855	10.9904	-17.1604	-9.4604	-3.2137	10.8834	-17.1995	-17.6980	-8.9778	-3.8125	-0.6350	-9.3859	7.2965	-1.3635
2944.0771	14.8560	16.8863	16.5313	42.7968	15.3171	16.7843	19.5634	18.2407	16.2757	12.8802	19.2231	9.2585	-2.0400	15.4379	8.8285	0.0853
2952.0773	11.3490	8.6048	6.0547	20.4192	-4.0102	-0.1852	12.6031	16.2349	11.8781	7.9287	11.8091	13.2541	3.1918	3.5189	16.3689	1.7943
2960.0775	0.5630	-4.4319	-2.0241	10.9111	-14.9871	-2.3794	4.4624	8.7487	0.7259	0.2560	-1.5490	5.7214	2.9410	-1.7502	17.4198	2.2417
2968.0777	-15.9641	-23.8200	-20.9363	-8.1008	-37.5217	-22.2104	-9.4575	-5.7408	-16.2434	-16.4742	-17.4125	-2.8049	-0.4269	-18.3423	11.9069	-1.9100
2976.0780	-42.5838	-55.9170	-43.8817	-36.1783	-54.5436	-45.7042	-22.5219	-7.0365	-47.7118	-43.6353	-46.6545	-17.2452	-1.3464	-39.8815	6.2099	-4.9066
2984.0782	-19.6887	-23.7864	-9.5560	-2.0594	-7.4085	-6.1313	4.6718	8.6921	-23.4356	-17.7699	-22.1848	-12.1586	-4.6614	-8.3013	-0.1074	-2.3490
2992.0784	3.0214	3.8711	7.4624	12.1097	4.5671	7.0559	14.7466	10.5392	0.8348	1.0255	5.4540	1.2498	-5.4428	6.3142	-2.8936	-3.1385
3000.0786	-17.9329	-24.9710	-24.5101	-20.7832	-35.5032	-29.6413	-10.9778	0.6788	-22.6576	-24.5104	-15.7899	-3.1511	-1.3533	-23.1428	-0.7093	-5.1663
3008.0788	-26.0899	-34.1772	-36.1798	-33.4373	-47.1128	-40.7660	-19.2222	-5.4619	-30.3683	-32.8724	-23.5775	-6.1399	-1.1897	-32.9131	-3.3426	-6.7265
3016.0790	-18.7495	-21.5999	-27.9166	-28.0991	-27.8588	-26.9042	-14.0624	-6.8685	-22.9681	-26.1641	-12.8742	-5.8240	-2.3571	-23.0729	-8.0806	-8.2478
3024.0792	-9.8351	-10.7850	-17.5544	-20.6848	-13.8803	-21.5025	-15.6346	-9.8489	-14.3880	-18.4956	-2.7760	-4.0167	-2.5919	-15.8649	-11.2718	-8.0564
3032.0794	-3.3167	-4.7216	-10.5762	-19.1882	-18.1714	-25.0400	-13.9102	-16.8115	-6.6681	-11.7450	3.1372	-0.6323	-6.7555	-13.7553	-14.7578	-10.0057
3040.0796	-1.0638	0.1787	-4.4563	-9.1013	-9.2575	-14.0383	-7.5555	-18.6857	-2.6762	-6.5895	5.8356	-2.4798	-9.5784	-6.3792	-15.4738	-10.2915
3048.0798	-5.7467	-6.7048	-12.0980	-16.1764	-21.5110	-27.5020	-21.7873	-24.4953	-5.9602	-11.4592	1.1308	-3.6088	-9.5146	-15.4572	-21.2814	-12.6725
3056.0801	-27.3132	-33.4586	-35.7563	-45.6299	-48.6776	-56.9303	-31.5901	-30.5593	-28.6744	-33.0570	-22.6523	-11.5579	-12.1379	-38.9111	-26.1969	-17.9787
3064.0803	-23.3852	-23.1155	-22.0864	-25.8559	-11.8313	-31.9932	-7.6588	-22.8427	-22.6542	-23.3696	-19.4696	-15.2717	-14.3490	-22.7721	-20.0528	-17.4286
3072.0805	-3.3274	-0.5425	-2.9827	-12.1237	5.8425	-19.4519	-4.7447	-22.4952	1.0083	-2.2150	0.2278	-4.9739	-13.1408	-8.7588	-18.2928	-19.8437
3080.0807	-7.0649	-9.6622	-11.9666	-32.0141	-16.1798	-34.6398	-16.4460	-22.9781	-4.9999	-8.7077	-5.8949	-2.1653	-9.6646	-19.5816	-16.7769	-20.5044
3088.0809	-2.6084	-3.8733	-2.2535	-16.5466	-0.5978	-18.5356	-8.7079	-13.2456	-1.4848	-2.9249	-2.4053	-2.2638	-7.2814	-8.9775	-11.2146	-15.4561
3096.0811	-4.2696	-7.4774	-1.7722	-16.5770	-7.0275	-20.6720	-17.5481	-19.8210	-1.7583	-2.3287	-5.3940	-4.4485	-9.5060	-10.1322	-13.7731	-19.4371
3104.0813	-14.6895	-19.8039	-14.3122	-31.7955	-21.4313	-32.4348	-20.5501	-26.3830	-12.2399	-12.2185	-16.5270	-8.3616	-11.0807	-20.6747	-13.0282	-22.4358
3112.0815	-5.1958	-6.6555	-6.8600	-22.0542	-3.4487	-26.4744	-3.6479	-16.9977	-4.2174	-6.6497	-4.1428	-2.2702	-9.8377	-13.7762	-8.6122	-19.1042
3120.0817	-0.1056	-3.0619	0.6862	-20.4940	-1.0828	-20.7386	-6.3007	-15.3360	-4.0091	-5.1720	1.0664	-1.5024	-8.5228	-8.2086	-7.8624	-16.2892
3128.0819	14.4416	13.9943	18.2137	-5.2144	9.6342	5.3668	-7.8647	-15.8147	12.6284	12.7990	14.7033	2.7028	-6.2487	10.0532	-6.8663	-13.1324
3136.0821	29.7021	34.2014	30.1911	6.6212	25.5727	12.5131	2.3150	-9.6772	34.1789	29.9333	31.5265	13.0284	-7.2582	18.8765	-11.9553	-17.5565
3144.0824	16.7476	17.4771	20.8905	-8.1127	20.3742	-2.8451	2.6058	-4.7094	17.7653	16.1253	15.9367	7.0385	-8.6666	7.3323	-13.1118	-20.5231
3152.0826	21.9569	24.0155	28.7893	3.6335	28.4678	16.3276	3.7117	0.0075	24.2934	24.9978	19.0057	7.9076	-3.9472	18.2866	-6.7650	-13.6244
3160.0828	36.2902	43.1497	34.9199	16.9837	32.8992	24.3963	6.8076	0.8170	45.3388	40.5047	36.1627	18.6932	-1.3905	25.6498	-7.9226	-11.3240
3168.0830	18.8553	20.8486	16.3744	-3.5439	14.1507	-1.1522	-1.1650	-5.3653	24.7490	21.1058	17.0100	11.2162	-2.0761	6.6537	-7.4078	-11.3089
3176.0832	7.1464	7.0804	9.2337	-11.5352	11.9200	-2.8169	-3.5823	-8.9012	11.2470	12.3621	1.3011	2.5817	-0.1123	2.0176	-1.0653	-6.2859
3184.0834	17.3565	20.2114	20.6865	2.3229	22.5396	15.6268	5.4247	-3.8319	21.9226	23.2604	12.2609	6.7388	1.2148	15.0422	2.3306	-2.0582
3192.0836	13.8106	12.0261	18.6545	-2.3586	8.7048	9.9546	1.1955	-2.3827	12.9830	15.7516	8.3727	5.4204	0.5578	11.4831	4.0169	-1.6972
3200.0838	5.2104	1.0616	11.9549	-8.4132	4.5116	1.0099	0.2470	-4.9011	3.7419	8.4306	-2.7023	0.7844	0.3420	4.4737	8.2710	-1.3762
3208.0840	8.6437	8.3694	13.6036	3.2573	17.4545	13.4776	8.0843	-2.9226	12.5834	16.5809	0.6911	2.8757	3.0028	10.6888	16.9583	-0.4062
3216.0842	-9.8736	-12.5300	-11.3216	-12.0482	-9.4235	3.0934	-7.5016	-9.9123	-4.3935	-0.5699	-16.4361	-4.0442	4.6802	-4.9674	18.4789	-3.3260
3224.0845	-27.3976	-30.8355	-27.6751	-21.5285	-20.8645	-10.8308	-11.0124	-15.9446	-24.6947	-19.6606	-31.8765	-14.8610	1.2140	-17.7197	12.7616	-1.8996
3232.0847	-6.9245	-4.4872	-2.8171	9.8631	11.1737	8.9273	6.6539	-9.2322	-4.4472	-1.2595	-8.2326	-8.1810	-0.2129	2.8806	12.1202	4.4183
3240.0849	3.3961	5.8833	1.1998	16.6940	5.0878	9.2737	2.1091	-7.8785	7.5197	6.3593	4.6940	0.5452	1.1836	5.5384	10.6352	3.4003
3248.0851	-4.4031	-5.1701	-7.9813	7.5579	-11.2209	-2.9779	-1.3317	-5.3103	-2.5392	-3.9561	-2.6662	-0.8804	-0.2962	-3.8694	7.7722	0.9953
3256.0853	-16.8864	-19.8311	-18.1640	-0.9658	-18.0188	-12.0945	-5.2135	-6.6516	-18.0570	-17.5316	-15.0919	-8.4662	-1.8227	-12.5779	6.4234	-0.0707
3264.0855	-39.5279	-45.1652	-47.7186	-27.4935	-41.0056	-35.8543	-23.6348	-18.3004	-41.8659	-41.6263	-36.6802	-18.4575	0.8242	-35.4772	5.4663	0.2517
3272.0857	-36.0439	-38.9521	-44.0583	-23.4424	-30.5767	-26.6503	-18.9562	-14.5672	-37.5188	-36.9636	-33.3182	-17.4226	3.5305	-29.9887	6.6423	4.6225
3280.0859	-25.6068	-26.0620	-29.3863	-10.6602	-18.6655	-10.3738	-12.1876	-10.4472	-25.8911	-25.1086	-21.8331	-14.1761	-0.0013	-17.0293	2.1771	-0.1957
3288.0861	-31.3696	-32.8892	-36.6414	-15.9231	-27.7261	-13.4309	-19.4856	-10.3305	-32.7766	-32.9360	-24.3207	-16.5441	-2.7103	-21.8813	-3.3189	-8.9666
3296.0863	-10.0709	-4.9105	-8.5353	15.3690	9.5126	24.2488	-3.0538	7.7026	-8.8175	-8.5038	-1.8820	-9.0731	-1.7206	5.6681	-4.3971	-9.0457
3304.0865	17.4714	28.6466	24.4013	45.4705	44.3016	53.1480	12.8861	16.8314	22.2419	21.5023	25.5883	2.0201	-2.2150	32.5335	-6.2931	-7.3924
3312.0868	18.4542	26.8937	17.2255	35.6137	29.2258	34.7851	5.1680	11.2087	23.6460	19.8024	25.2279	7.2313	2.2400	22.6651	-2.4883	-1.3103
3320.0870	11.5760	18.5297	5.3155	23.2753	11.4928	19.4296	3.6382	10.6888	18.8356	14.2028	15.6360	8.1376	5.1998	11.2446	-2.9450	6.0948
3328.0872	-0.0132	4.9476	-2.5737	11.8372	0.9770	6.4462	0.8829	9.2552	4.4896	1.6858	3.6903	1.0295	0.8172	1.8626	-13.2487	5.0157
3336.0874	2.7847	7.1396	7.3104	21.5948	15.6440	17.6590	-0.4459	15.4962	3.6553	3.7003	5.7553	-1.6748	2.0519	10.0891	-12.1496	6.4043
3344.0876	26.3745	34.6577	33.2482	47.2596	42.0277	43.6352	16.0741	25.1255	29.4947	29.1893	27.6630	9.6827	5.9078	32.8370	-2.5338	13.5673
3352.0878	25.9780	30.7323	24.8092	31.0282	19.7752	28.9927	7.1279	14.1867	27.7387	25.3528	26.9387	13.4184	7.8395	23.8038	2.1704	14.7016
3360.0880	14.1964	15.4554	15.6339	18.3047	10.2360	27.2013	-4.1651	7.1553	12.4164	13.7702	13.8897	4.8609	8.0762	18.0356	6.0290	11.6666
3368.0882	26.8778	31.2278	40.9615	42.3935	46.5522	50.6697	26.0184	24.8105	21.8461	27.0469	24.8811	7.0334	5.1278	38.6372	12.8422	13.8025
3376.0884	25.9899	26.4274	36.5218	34.5652	36.9142	38.9447	27.9364	32.3093	17.1081	21.6887	22.3605	11.1474	9.2675	31.9392	20.4435	18.5479
3384.0886	10.9972	8.3337	17.4626	19.8511	16.4372	32.0642	13.0858	25.7883	0.7514	6.8472	6.9592	4.3915	13.5858	20.2790	26.1462	21.2147
3392.0889	10.4302	9.0588	21.0163	22.3316	27.5217	32.3146	28.7208	25.9547	-2.2692	5.2673	6.5246	2.1149	9.9041	22.4869	29.9965	21.9496
3400.0891	-1.6738	-7.3733	6.2246	-3.8359	9.4941	3.1183	23.5982	20.7990	-14.0982	-6.6058	-9.4594	-0.1390	8.5638	3.3778	26.6746	18.5747
3408.0893	2.7685	1.7587	15.8150	7.9995	24.8015	22.9085	27.4439	24.7578	-3.4727	5.8353	-6.6899	-0.9140	8.0012	14.8945	20.1920	18.0232
3416.0895	37.0394	45.6514	53.9125	52.9484	71.5191	69.3553	48.3420	39.2317	33.5856	40.9024	30.9870	12.4620	11.2102	52.0434	23.5154	25.4425
3424.0897	36.9220	39.2172	40.6394	30.1992	45.2026	38.3038	27.3926	28.0269	29.4901	31.8590	31.2731	18.7270	17.3959	34.4902	27.9065	28.8495
3432.0899	24.1509	19.8223	27.9413	9.5569	21.5080	8.8462	17.8347	15.9366	14.2531	17.5684	15.4343	13.6452	13.3037	16.4948	26.6301	25.1007
3440.0901	25.3854	21.5413	39.4527	24.3259	29.7241	22.7967	25.9577	20.4685	19.3521	26.4002	13.3367	11.0624	7.6060	26.0732	24.1272	19.4500
3448.0903	14.4231	9.2914	26.4915	14.3962	16.2431	12.4056	13.9831	15.8728	9.0283	15.2135	4.6161	5.9199	4.8309	15.6253	15.9686	11.7559
3456.0905	16.2590	15.0029	27.8783	19.3658	27.7143	12.9136	19.4097	14.7235	8.7406	12.0328	13.4584	4.6807	-0.7934	17.4965	6.8927	5.5500
3464.0907	21.3576	21.0910	34.7357	29.2143	30.9998	24.7873	19.6847	16.9483	16.0466	19.8218	18.1817	6.4508	-0.6904	25.1296	6.9666	5.0599
3472.0909	11.4675	5.7874	21.1082	16.7535	3.4280	12.3488	1.3431	8.1197	6.3454	11.0107	5.4824	3.5807	2.6547	13.5281	11.0096	7.7855
3480.0912	8.5692	2.8923	15.7264	10.2622	-5.7369	2.7395	1.7750	2.1932	3.3225	6.3690	4.5502	3.0944	-1.1186	7.7994	6.2972	4.9872
3488.0914	-3.4649	-9.8119	6.5975	-5.1964	-15.6656	-7.5941	5.7115	3.7233	-9.1452	-4.3354	-8.1638	-2.6146	-6.8948	-1.3617	-4.2388	-0.8408
3496.0916	-10.6449	-16.5170	4.6091	-5.9290	-10.0756	-3.9355	5.6924	8.4294	-18.0296	-10.3208	-15.9467	-9.1474	-6.9333	-1.5543	-8.2233	0.9147
3504.0918	-2.4778	-4.8037	8.2449	3.5798	-2.3826	4.4055	-1.6539	5.8011	-6.0426	-1.4190	-5.3070	-5.2962	-3.3131	4.1415	-10.8405	3.3261
3512.0920	-5.6403	-8.1689	-2.9200	-7.6668	-15.0501	-8.8399	-11.9319	-1.8342	-7.7161	-6.4863	-6.5011	-4.0238	-1.7684	-5.5884	-14.0904	2.7689
3520.0922	-0.2363	-0.6690	2.7668	-1.0629	-2.6780	-5.0112	-0.6699	3.6345	-3.4496	-3.1786	0.4014	-1.2067	-2.0776	-0.9013	-11.8495	3.9273
3528.0924	-2.9578	-5.8522	-2.6512	-8.5478	-14.2914	-12.6990	-2.2918	5.3352	-5.8930	-5.9865	-3.8613	0.7118	-0.9607	-6.7247	-9.2925	3.1148
3536.0926	-19.1014	-23.6441	-22.2114	-22.1386	-32.3270	-22.4145	-16.6920	-3.8473	-21.1342	-20.3868	-19.8932	-7.3681	0.7727	-19.6611	-9.1278	3.6452
3544.0928	-10.1034	-5.7168	-14.1353	-4.0784	-7.6698	-2.1261	-9.1882	-6.0349	-5.7436	-7.5190	-6.3559	-6.0578	-0.3807	-6.7614	-14.3275	2.6012
3552.0930	-15.1077	-15.0093	-21.6606	-23.3103	-22.6297	-24.8646	-10.8925	-5.1382	-13.5567	-16.5005	-12.4316	-4.4676	-2.7358	-19.7461	-18.5175	-2.7527
3560.0933	-22.2069	-26.8206	-23.1935	-24.7406	-23.9552	-29.4895	-8.1454	2.2266	-27.4683	-26.4930	-22.4116	-9.0163	-0.7671	-22.9588	-9.4902	2.7957
3568.0935	-0.5335	4.7064	-1.0830	10.4069	11.8052	6.5319	9.8784	5.2099	-0.1378	-0.9882	2.2989	-1.6436	2.0902	3.2700	-2.5314	11.1915
3576.0937	-6.6949	-5.4643	-15.7029	-16.1449	-10.7302	-20.5183	-4.6351	-8.6761	-8.7074	-12.4625	-3.0392	-1.1867	1.9281	-13.7789	-5.1936	7.3503
3584.0939	-15.3987	-19.0179	-19.0210	-24.7231	-15.9861	-26.5435	-14.4240	-7.2912	-20.0955	-20.0689	-15.6696	-7.0175	2.4600	-19.3116	-4.4977	4.6220
3592.0941	-3.0069	-0.9827	-3.8441	-2.8228	0.8342	-0.0269	-0.0651	-2.1316	0.1963	0.7439	-4.8401	-1.7115	2.3983	-1.6996	-1.4664	6.0445
3600.0943	-14.1677	-17.3656	-24.2392	-27.5318	-30.6937	-30.6945	-10.2081	-15.8782	-13.7787	-16.1034	-14.5858	-2.4453	0.7706	-22.4283	0.8472	2.5621
3608.0945	-24.3870	-31.2630	-33.3179	-35.5766	-37.2586	-42.3703	-21.2073	-17.1055	-27.2812	-28.7409	-24.4562	-8.2856	0.2811	-31.8999	-0.0755	-2.0024
3616.0947	-15.9159	-18.2992	-21.6911	-23.5204	-21.6628	-25.2344	-19.0222	-15.2404	-15.0142	-16.4503	-15.2133	-6.9087	-0.8810	-19.9515	-7.5876	-3.5172
3624.0949	-8.0645	-10.1068	-17.5795	-23.3228	-28.0057	-29.6859	-25.5050	-21.7626	-5.5150	-10.0888	-5.9267	-1.8079	-2.2012	-19.2882	-15.1873	-4.2675
3632.0951	-7.3964	-8.4447	-17.5624	-21.3630	-28.1836	-30.0482	-23.3695	-16.6520	0.2485	-5.2141	-6.8434	0.8412	-2.4585	-19.9202	-18.8916	-6.8381
3640.0953	-8.3903	-5.1141	-18.1242	-20.2461	-18.6188	-19.7675	-10.8290	-12.0574	3.4123	-1.3851	-8.1171	0.5598	-3.0593	-16.1377	-18.4990	-8.1982
3648.0956	-6.1010	-2.9459	-13.1507	-14.4905	-13.3435	-11.6473	-6.8083	-7.3915	2.1967	-1.3788	-4.8515	0.2220	-2.8434	-10.6115	-15.6046	-6.6502
3656.0958	-18.9278	-21.4116	-21.1712	-25.8276	-23.4420	-24.6658	-13.5912	-4.0080	-16.7430	-16.8810	-19.9312	-7.1100	-3.1713	-20.6543	-15.7288	-6.8020
3664.0960	-19.3352	-20.6551	-22.2830	-26.7795	-20.3451	-29.1417	-12.4603	-8.9489	-16.1526	-17.0985	-19.8976	-7.9002	-4.3173	-22.4977	-16.9034	-6.6266
3672.0962	-3.0038	-1.7945	-5.9813	-6.5016	-5.6737	-16.0689	-2.2937	-1.9553	2.6359	-0.4230	-3.1307	1.2026	-3.3173	-9.2306	-13.2030	-4.4205
3680.0964	-11.7790	-16.6820	-12.0796	-21.2316	-15.6470	-31.3040	-6.2718	1.2919	-12.5144	-12.7573	-15.3216	-2.3660	-1.9717	-19.0762	-9.1437	-3.0102
3688.0966	-6.3285	-9.1624	-8.8553	-20.6649	-9.3934	-29.1108	-8.2652	-3.4742	-5.6307	-7.1684	-9.4470	-0.2199	-0.2309	-16.2271	-9.9876	-0.6166
3696.0968	-2.6396	-3.7656	-6.1105	-12.1891	-8.0235	-17.5931	-8.3553	1.0203	1.8557	-0.1923	-5.5759	2.4959	1.2775	-10.5616	-9.7798	-1.4475
3704.0970	-31.3100	-41.0662	-30.9310	-41.9944	-36.1016	-41.4176	-19.3555	-4.6779	-35.5629	-32.0700	-36.4132	-12.8327	-1.5175	-32.7576	-5.9497	-6.1221
3712.0972	-19.6109	-27.0596	-18.4464	-30.6829	-19.9391	-33.6993	-5.6001	-3.6741	-26.4797	-24.2439	-22.3173	-8.1142	-3.1074	-22.8543	-0.6787	-4.9665
3720.0974	3.6325	-0.6572	2.1708	-7.4851	-1.2540	-16.0395	11.4281	12.6347	-2.0369	-3.4279	2.4039	7.1324	0.3157	-5.5444	6.1519	-1.4872
3728.0977	-4.5814	-11.7863	-7.4624	-16.0641	-15.6523	-21.7812	2.9240	12.1789	-9.3835	-9.7376	-7.7941	4.7909	2.0863	-12.9505	8.0717	-2.7054
3736.0979	4.0133	1.3018	3.6054	1.1583	0.7917	-7.7493	7.3986	10.1023	6.7497	5.7656	0.1999	6.9975	0.2286	-2.2148	6.0217	-5.4622
3744.0981	13.7166	11.2998	16.3615	11.8155	15.5966	-5.8977	14.8452	11.2479	16.0526	14.6871	8.9536	10.7842	-0.9526	4.5939	9.4110	-5.4449
3752.0983	8.4496	2.0233	9.7774	-3.0061	2.0150	-16.5354	6.9766	2.0205	6.7388	7.0091	1.5038	8.1529	1.0476	-2.6416	15.1591	-1.4605
3760.0985	1.2807	-6.0698	0.1095	-13.5539	-9.8981	-17.4881	0.0567	-4.2265	0.6086	1.9551	-6.5399	5.0492	2.5453	-7.6424	17.9907	-2.0321
3768.0987	-8.1086	-14.8859	-12.0383	-17.7287	-17.4566	-20.4360	-8.0617	-10.1901	-6.0252	-5.4821	-13.6477	0.2641	1.1281	-14.3484	16.0196	-8.3882
3776.0989	3.4271	2.9662	-2.0458	4.9824	-4.7336	2.7333	-7.3757	-10.0039	10.9867	8.9456	2.2484	4.0748	1.3895	0.3688	11.4986	-7.6831
3784.0991	22.6292	24.2483	18.2365	27.6707	9.9993	22.2025	-1.3690	-0.0791	26.5651	22.8521	24.7222	12.5763	3.7590	18.2139	12.0706	-0.9553
3792.0993	17.8075	16.4190	8.1101	15.6430	-1.2081	1.4101	-7.5231	-3.5114	16.1872	10.0754	22.2356	12.3528	5.1084	6.1134	12.3117	2.2229
3800.0995	0.2550	-0.3717	-13.3972	-2.3356	-12.7043	-15.9193	-11.5469	-8.7550	0.6295	-6.2329	6.0032	4.8839	3.5228	-10.5558	5.8589	-0.5303
3808.0998	-14.6594	-17.3842	-18.8529	-10.9149	-14.5255	-13.6981	-9.8849	-2.3092	-19.7085	-20.9028	-9.6910	-6.5226	-0.6632	-13.7316	0.6760	-4.8815
3816.1000	-12.5902	-13.1954	-12.3450	-3.8000	-4.1371	1.4997	-5.8165	0.3542	-18.8536	-17.9992	-6.6663	-8.8946	-1.5145	-4.8919	-0.1601	-4.7602
3824.1002	5.1925	12.6543	-2.2152	13.2153	12.8876	18.6846	1.6726	1.3338	7.2022	2.5128	14.7056	2.0827	1.3681	8.1068	-1.4970	-2.8632
3832.1004	8.2673	15.3832	-1.1960	8.3891	7.2691	18.2957	-2.6964	0.4091	9.8077	4.6875	17.2289	4.5418	3.4562	8.4216	-4.3066	0.6976
3840.1006	4.3218	9.4859	-1.1676	1.4211	4.0898	18.3688	-6.6080	-3.9732	5.0902	3.8229	8.5214	0.4629	5.3829	7.7218	-1.7827	6.2421
3848.1008	20.9766	29.2402	17.0435	21.7425	27.1093	33.6941	5.7249	-0.9248	26.9299	24.7262	23.0979	8.6935	6.5104	22.4913	7.4881	6.0093
3856.1010	24.2163	31.8297	20.4936	24.9738	27.4649	34.0756	5.2601	-4.9503	30.3428	27.6195	26.7859	9.9559	4.5291	24.3897	9.6863	2.0601
3864.1012	-11.7423	-11.8364	-17.2613	-17.6508	-14.6139	-8.1740	-16.5868	-22.2080	-11.7234	-11.8207	-9.5963	-7.9787	0.3152	-10.4013	1.0813	-1.2621
3872.1014	-47.9819	-55.1095	-54.0317	-57.2422	-53.0875	-47.5408	-31.4792	-30.4820	-53.0598	-49.9719	-47.4386	-24.8530	-3.0009	-43.9463	-7.2145	-2.9511
3880.1016	-49.5220	-51.3225	-46.5308	-42.5151	-37.8027	-20.4545	-23.9450	-25.3956	-51.1686	-43.8260	-49.1694	-31.5174	-5.4612	-30.4542	-13.8843	-1.8168
3888.1018	-16.5903	-7.6876	-4.1360	7.0293	13.1204	27.7839	-4.6535	-15.5851	-11.0502	-4.8724	-13.2606	-21.7295	-9.5346	8.5753	-20.8172	-5.0230
3896.1021	8.0797	16.6276	18.9996	22.9902	21.4362	28.6892	-2.3880	-15.1370	15.6333	16.9506	12.0612	-6.9812	-12.4730	20.0092	-23.8441	-11.0999
3904.1023	-0.5205	2.7307	8.5335	5.8262	-1.7784	10.8714	-10.4289	-21.0926	4.7126	6.7790	1.1966	-8.8717	-13.2752	7.7205	-23.0997	-12.0772
3912.1025	-3.1500	1.4728	9.7067	7.7875	11.5174	16.0464	3.5071	-7.7224	-1.1368	2.7739	-1.2703	-10.7264	-12.6907	10.0276	-20.8063	-9.8583
3920.1027	9.5359	18.4227	24.4606	20.5641	38.6819	34.3334	20.4333	6.9191	12.4196	16.2920	11.0749	-4.2885	-9.7506	24.0118	-16.1134	-8.0546
3928.1029	9.8781	17.0704	21.1601	15.5729	32.0113	27.5392	15.7942	-1.1942	14.6683	17.7085	9.6636	-2.3982	-8.2447	20.0458	-9.1083	-8.7973
3936.1031	-1.1261	-0.3861	2.9260	-1.0258	6.5156	0.4362	6.5245	-6.4637	-1.4819	-0.1834	-0.8612	-3.3313	-5.8782	1.5233	-0.3660	-6.7137
3944.1033	4.2107	6.4998	6.0504	9.1954	14.2802	16.3728	7.8334	2.2591	0.6073	1.3635	7.7740	-0.7704	-0.3319	9.8531	6.8092	-1.4696
3952.1035	17.8944	23.4327	18.5150	26.7039	27.1506	29.2680	12.5299	6.5393	16.6152	14.5846	24.1178	6.2314	-0.1679	21.3502	6.0725	-2.2089
3960.1037	-1.2617	-3.5879	-4.5381	-4.5265	-7.5191	-17.3121	8.8818	1.8311	-5.1509	-7.6300	0.6835	2.9634	-2.7737	-8.0841	3.3961	-1.1619
3968.1039	-6.2822	-9.4022	-4.0849	-4.2854	-4.7520	-10.6047	10.2125	4.9244	-11.3739	-9.5501	-7.9711	-2.0180	-0.3869	-5.9774	7.3431	5.1213
3976.1042	19.3716	23.1171	23.8082	30.0190	27.7788	27.4844	18.0080	12.6859	17.2466	17.1620	21.5349	7.3771	1.2792	22.6201	8.3482	4.9619
3984.1044	7.5524	8.9250	4.7657	4.2685	6.8174	3.5386	14.1217	7.5430	3.7061	1.6389	10.8456	5.8748	0.2394	4.6286	5.4581	1.5054
3992.1046	4.4890	6.5567	4.2942	6.3387	12.2897	16.5603	11.2405	8.5564	1.4059	2.0454	6.7458	2.0012	2.5989	8.9510	10.0085	0.9471
4000.1048	18.2957	19.9867	20.5755	27.1324	22.4138	31.4594	8.5862	12.9746	17.7279	18.0510	19.1621	8.2902	4.6391	21.9961	14.7648	0.2725
4008.1050	2.9561	-1.7187	4.9764	2.9858	-2.1171	-1.9049	6.2105	6.4618	0.2647	1.6184	-0.1945	3.8090	0.6533	1.0209	13.3942	-1.9715
4016.1052	15.9932	15.6114	22.1014	25.1333	18.3795	22.8739	14.3172	13.9743	13.2757	14.3617	16.3278	7.0647	-0.8970	18.9873	11.0356	-3.6281
4024.1054	22.3721	22.4923	21.0513	29.5103	10.4428	25.2891	4.4703	15.2402	18.7561	15.5876	27.7911	12.6715	2.0753	20.3368	7.7699	-2.7052
4032.1056	-3.3904	-7.6330	-11.2865	-6.8951	-21.2941	-12.1718	-3.9503	2.3954	-7.0330	-10.0731	-0.2331	3.9007	1.1312	-9.4162	7.1908	-3.4173
4040.1058	-3.1890	-3.9092	-12.6174	-4.2211	-13.4625	-5.1738	1.3860	3.1188	-1.2918	-5.0014	-0.0277	4.6359	1.2187	-7.2054	8.4149	-6.9010
4048.1060	-11.4239	-13.5185	-28.8100	-19.6812	-32.6939	-20.2260	-11.8132	-4.1452	-8.3010	-14.4620	-6.9787	3.7178	3.3060	-20.2888	5.5574	-7.3681
4056.1062	-0.2109	2.8908	-6.7790	3.0918	-1.7748	8.2951	4.5131	3.6744	0.7614	-2.1843	5.4239	2.3381	0.4840	1.1564	2.9228	-3.9132
4064.1065	31.6869	42.1065	38.2085	46.3888	47.6338	60.3609	29.1171	24.8246	30.3550	29.8062	39.0552	11.3383	-0.1737	42.3495	2.1304	0.0739
4072.1067	10.5807	11.7386	6.5032	3.4115	5.8198	12.6752	3.4740	6.7992	6.4884	4.9232	13.7049	6.6748	4.5487	8.6952	6.0819	3.0620
4080.1069	5.6878	6.5622	0.0515	0.3754	11.4614	6.6661	2.5987	5.2435	2.4157	1.3458	6.5986	4.5240	9.2670	3.4877	15.3574	7.8385
4088.1071	13.3361	17.1374	7.9901	12.3191	21.1399	20.6833	6.6489	11.5831	10.5232	8.6016	16.4641	7.6513	10.2666	12.9918	13.4876	9.5806
4096.1073	-23.1653	-29.2061	-38.6200	-41.7493	-43.1366	-39.8012	-28.7112	-20.3803	-25.4209	-28.4669	-21.9342	-5.9692	5.1241	-32.8398	2.3865	0.7918
4104.1075	-28.9294	-33.8519	-37.7202	-34.7222	-30.7803	-31.8433	-18.6153	-7.3080	-30.1927	-30.5528	-28.7188	-10.1655	3.1457	-30.3557	1.9915	-3.6573
4112.1077	-2.3758	-0.0752	-5.7325	3.7234	13.4303	9.9026	8.9684	24.1906	-3.8982	-4.7328	-0.0603	2.3457	7.7554	1.0493	6.8724	2.5200
4120.1079	15.7514	21.3250	7.4154	12.7019	22.0219	13.6551	6.2284	13.7189	16.7960	11.1339	21.2251	11.2183	6.9399	9.9719	2.7886	1.7294
4128.1081	27.0754	36.4803	24.6090	30.0143	44.9047	27.6954	20.6421	21.0923	26.9442	21.0521	35.1197	13.7470	2.4838	23.7100	-2.3925	-0.4292
4136.1083	27.2789	35.6455	26.0331	32.1456	43.9254	27.5672	31.5690	32.0924	26.5797	22.2189	31.6168	16.3744	5.9514	24.1128	3.8752	8.9213
4144.1086	29.2294	37.2689	18.6272	23.2431	27.9127	26.5143	19.2013	23.2029	36.3844	30.7111	28.8218	21.9462	14.6678	20.4267	11.7844	16.1922
4152.1088	11.5721	16.0007	-3.2365	-0.3134	5.3935	6.1680	2.8524	13.1616	19.3451	14.2679	9.5521	14.7721	15.9032	1.7782	10.4748	13.9847
4160.1090	-9.7190	-13.6251	-19.5153	-20.5292	-19.6209	-25.8738	-7.3416	-2.4577	-7.0585	-8.3458	-15.4611	2.2612	9.6324	-19.0809	11.4615	11.1073
4168.1092	-0.3557	-3.4735	-3.0610	-6.2901	-9.8561	-8.0154	-3.1865	-3.4963	5.6272	6.9333	-9.1085	3.8157	6.6874	-5.1556	12.6248	7.6911
4176.1094	-14.7783	-17.7899	-22.1086	-24.1605	-23.3226	-24.6699	-9.8765	-6.6202	-3.2552	-3.2960	-24.0173	-0.1564	5.1786	-21.0955	5.0125	0.0542
4184.1096	-33.0284	-38.3061	-42.3302	-42.6799	-35.0816	-47.4498	-15.3437	-13.6906	-21.5467	-21.2373	-42.8770	-8.3431	3.6010	-39.5997	4.7265	-3.4746
4192.1098	-6.9089	-8.0777	-4.9170	-5.1070	2.5965	0.5637	0.6919	5.3741	0.1903	3.5937	-15.2950	-1.4030	5.1600	-3.6878	9.4861	0.4345
4200.1100	6.0452	4.6149	12.6928	8.6584	9.3861	11.0344	2.4670	8.0604	8.8363	12.1584	-0.2326	2.3833	2.0516	8.6938	4.3789	0.3925
4208.1102	-2.7550	-7.9877	4.4924	-5.2222	-2.9169	-11.9370	-4.9191	-5.5853	-2.7282	0.8108	-9.7100	-2.9962	-2.4730	-4.0782	1.3875	-2.4058
4216.1104	-3.2799	-10.2629	4.0793	-5.6531	-4.1417	-15.3724	-7.9427	-3.5419	-4.1100	-0.3911	-11.3058	-2.6234	-0.8535	-5.9108	3.4827	-1.6166
4224.1106	-9.9099	-16.7397	-2.9549	-6.9518	-10.9410	-15.8729	-9.6781	-4.6842	-8.6716	-4.5086	-17.8131	-5.6969	-1.6782	-9.4641	2.7092	-3.0241
4232.1109	-10.2900	-13.8811	4.1386	1.9388	-0.5415	4.6372	-3.9619	-5.4576	-7.0544	1.0095	-19.0311	-10.9894	-4.5520	1.4208	0.4273	-3.6143
4240.1111	2.9306	-0.8381	16.7284	7.1943	1.8106	2.2808	-7.1684	-7.6661	8.5777	14.4946	-7.6089	-3.3808	-4.4855	6.3019	-5.0361	-2.1324
4248.1113	5.9243	3.1240	16.4617	1.2053	6.6129	-11.1226	-0.8548	-10.2601	12.7613	15.7541	-4.1582	0.3726	-6.6068	1.4298	-6.9228	-5.3374
4256.1115	-1.5369	-2.0328	14.0882	2.2102	18.4563	1.3303	11.9145	-3.7830	1.0987	7.1450	-8.6949	-6.7685	-9.5466	5.1779	-3.9914	-9.0692
4264.1117	-14.6402	-20.1364	-2.2684	-13.5705	-7.2481	-14.5348	-5.3244	-8.9337	-14.6134	-8.6114	-20.9786	-11.6095	-9.7426	-9.1166	-6.9404	-12.9865
4272.1119	-17.0131	-20.9279	-3.6066	-15.8092	0.7364	-10.6211	-6.0734	-8.9845	-14.8584	-7.9902	-24.0441	-13.9652	-9.1748	-8.6460	-7.3801	-16.0484
4280.1121	-2.2338	-2.0842	13.0120	2.4239	23.3425	7.3387	9.5504	0.1363	-1.1487	4.8439	-7.2481	-7.7171	-8.3254	6.8792	-3.7378	-12.1839
4288.1123	-11.5241	-18.8060	-3.7898	-20.6674	-15.5322	-27.0680	-2.2823	-7.2210	-14.5254	-10.7499	-17.6307	-6.3072	-8.2085	-14.1252	-5.6296	-8.2039
4296.1125	-12.0794	-17.5533	7.9298	-6.5591	2.9101	-2.9618	8.7197	3.7255	-14.2073	-3.8729	-22.8298	-11.7427	-7.8486	-0.5887	-2.9268	-3.8619
4304.1127	23.9908	26.3205	50.7689	44.3217	51.6602	48.3292	29.1972	26.4916	22.7471	32.2548	15.8026	2.4876	-3.4815	39.9966	2.2346	3.3806
4312.1130	5.6057	-0.3129	10.9842	-8.9376	-4.9686	-9.2326	0.7764	7.4944	-1.8358	0.8469	0.5041	3.5906	0.8387	0.2157	-1.7177	5.3899
4320.1132	-29.0692	-39.6169	-27.2878	-52.4085	-38.6179	-46.9645	-15.9606	-11.0321	-37.7712	-32.2016	-37.2797	-13.1466	0.3245	-32.8406	-5.6975	6.9291
4328.1134	0.4821	-0.9856	12.3568	-0.4509	9.9625	-0.2525	5.7230	6.9767	-3.2353	1.8714	-5.1740	-3.8592	-1.6422	4.1585	-8.7262	7.4304
4336.1136	6.5556	7.6846	14.1563	3.3966	12.4473	6.8967	7.0241	10.7609	2.0868	3.6336	7.1427	0.4261	-3.6267	8.4571	-13.9150	-0.0049
4344.1138	-12.3714	-11.5708	-7.0094	-6.4568	-1.4630	0.1471	-3.7261	2.5045	-16.9758	-14.5948	-9.0159	-10.4534	-4.2667	-3.7608	-14.5822	-2.1351
4352.1140	4.7074	11.5204	13.8304	28.9983	24.4992	31.4670	5.9382	15.2520	3.2939	4.8300	10.5589	-4.7157	-2.0080	18.7744	-15.0745	4.0496
4360.1142	16.5044	24.6878	24.9148	33.5244	29.2923	39.4642	15.6188	20.6240	15.2182	15.9143	21.7641	2.8861	-1.2365	27.3079	-14.1739	6.9555
4368.1144	5.2263	7.2530	6.3647	10.6795	-0.8684	9.2096	1.6771	3.3026	2.3683	1.3884	9.6627	0.8571	-2.2516	7.2652	-9.3932	3.9848
4376.1146	-25.4830	-29.5166	-31.4155	-25.8467	-35.7765	-29.7447	-27.0533	-18.8227	-31.4919	-33.0914	-18.6820	-13.9143	-4.2819	-25.5823	-13.4172	-4.2872
4384.1148	-42.6859	-43.7053	-45.9307	-37.9105	-33.5889	-26.3840	-31.8079	-24.2324	-46.7882	-45.2290	-35.1784	-26.6619	-5.8090	-31.5786	-19.9850	-8.0408
4392.1150	-10.5965	-0.0071	-13.2977	3.4647	8.8569	21.7217	-10.1655	-9.0468	-6.6006	-7.8163	-0.4849	-12.0794	-1.5818	3.5940	-18.3961	-1.6759
4400.1153	6.9946	18.2496	-3.0108	6.6799	12.9823	16.1885	-5.3581	-8.3938	10.7758	4.5291	17.9243	1.0706	1.7344	7.4260	-15.4526	3.6154
4408.1155	-7.1220	-5.0819	-16.9273	-18.6005	-12.5277	-16.8979	-15.1874	-16.5368	-9.5121	-13.5497	-1.1376	-3.8056	1.3250	-12.7987	-10.3379	4.8071
4416.1157	-5.8659	-3.3482	-10.5923	-6.9036	-2.8372	5.9680	-15.9189	-6.4513	-10.4489	-11.5914	1.2564	-6.1673	3.0894	-1.6675	-6.8476	2.4856
4424.1159	-1.4008	3.8699	-5.1271	-1.8167	9.7668	17.1765	-9.2365	-0.9058	-6.4275	-8.0154	8.4101	-4.8659	1.6677	5.3040	-8.2278	-2.6516
4432.1161	-5.0078	-4.6846	-10.1856	-11.6826	-5.6516	-6.4680	-7.6127	-2.2890	-9.2677	-11.4150	0.2025	-2.1188	0.4935	-6.6841	-4.9636	-2.3912
4440.1163	-15.4907	-20.8799	-22.5397	-22.2297	-28.4750	-19.6932	-22.2352	-4.2045	-20.4347	-21.4180	-13.2650	-4.9545	3.4907	-18.3851	-1.6339	-0.9407
4448.1165	-29.4768	-36.2767	-33.8739	-33.2943	-35.2069	-28.5771	-27.4306	-14.4188	-35.8906	-34.4059	-27.4643	-14.9193	0.1183	-27.3528	-2.5398	-4.0739
4456.1167	-19.2199	-20.9539	-21.3750	-15.1648	-19.0037	-14.3784	-11.2597	-13.1987	-20.5309	-19.9409	-16.6071	-10.9052	-3.3326	-15.2587	-2.3247	-4.4279
4464.1169	1.7249	4.6113	-4.8270	8.5414	-6.3053	6.4508	-4.1794	-6.3085	4.2739	0.5617	7.7660	1.4987	-0.8647	1.7477	-0.4951	-2.4361
4472.1171	-4.8778	-6.8897	-14.4324	-2.4754	-20.2233	-18.8778	-12.3235	-16.8084	-6.4065	-11.7612	1.9301	-0.5466	-2.9618	-12.1608	2.2735	-4.7143
4480.1174	-18.8846	-26.5247	-25.9011	-16.2688	-36.5649	-41.5106	-21.7682	-25.6498	-22.0841	-25.5347	-15.0011	-7.8832	-6.5286	-27.1571	1.5988	-8.7905
4488.1176	-16.1867	-21.7557	-15.7180	-7.6420	-23.8744	-21.3910	-17.7221	-21.3303	-18.5490	-18.4089	-13.6291	-10.6520	-7.9117	-15.4297	-0.5436	-10.6018
4496.1178	-19.4273	-25.4949	-13.9194	-5.9686	-22.3254	-17.7896	-16.0822	-22.0510	-24.6739	-22.3848	-16.0249	-15.3537	-11.6379	-13.4533	-2.6629	-13.2469
4504.1180	-19.6227	-27.0781	-17.1195	-4.0153	-36.2590	-21.2580	-25.8600	-23.7678	-23.7738	-23.3496	-14.6905	-13.8725	-11.8675	-16.1825	-7.3360	-14.0918
4512.1182	2.3712	3.9616	4.3815	23.8096	-6.7097	13.8885	-8.8815	-16.0044	5.1938	3.9158	8.5462	-3.9204	-8.3021	8.6515	-3.9530	-7.7898
4520.1184	13.8904	18.7037	17.0617	35.6148	9.9001	25.7500	5.4881	-13.3679	18.5707	17.1398	18.9842	1.4467	-7.4031	19.7984	2.2912	-3.4590
4528.1186	11.2536	8.5646	12.9740	21.0454	-11.9928	2.1476	-6.9127	-12.9620	12.1988	10.2589	13.2098	3.9900	-6.9249	7.6679	-0.7291	-4.2160
4536.1188	12.8496	10.5107	16.2678	15.4759	-4.4617	-0.3251	-1.5060	-6.7115	12.3846	10.9472	13.4793	5.1939	-6.6717	7.7077	-4.1848	-3.9116
4544.1190	17.3191	20.1647	19.7026	19.2802	12.8685	11.0421	6.4708	-4.3713	18.6535	16.3678	19.9919	6.2831	-5.4755	14.3072	-4.7606	-3.3064
4552.1192	34.3696	42.2502	31.4993	35.3601	28.4137	27.6808	11.3098	0.0573	39.5790	33.2284	40.0957	16.3460	-1.8498	27.3660	-2.8580	-1.7181
4560.1194	37.4538	46.3223	31.6998	37.1534	28.0339	23.7013	18.3134	1.7628	46.6734	38.3783	42.2071	21.0629	-2.1572	26.1971	-1.3073	-2.2207
4568.1197	14.2062	16.6661	6.0182	11.3969	-5.5727	-2.9043	0.8120	-4.5181	24.2149	17.8498	14.8627	12.5085	-1.3844	2.6417	-3.3933	-3.4290
4576.1199	9.5775	13.1767	-0.1637	7.9601	-4.0640	2.3854	-5.1984	-2.1498	19.3691	13.7362	10.7882	9.5752	3.2666	1.7162	-2.8700	0.0927
4584.1201	15.1202	22.0141	9.3419	16.4046	13.2427	10.8691	9.2323	1.4289	23.4307	18.3452	17.6068	9.8772	0.6912	9.9215	-3.6728	1.6838
4592.1203	12.5726	15.8679	12.6713	14.6911	3.8695	7.3139	9.1553	-1.5009	16.0737	13.9357	13.5251	6.3214	-3.2148	9.6664	-5.4006	3.3141
4600.1205	14.2372	16.5547	16.8664	17.3873	1.8840	14.2276	1.2669	-7.2013	16.4833	15.9946	14.8073	4.2705	-3.1269	14.1313	-5.5226	4.2649
4608.1207	4.1928	3.8539	9.5055	7.8981	-5.2269	-0.4510	-8.0127	-15.3011	8.6981	9.8292	1.2389	-1.8146	-5.4018	4.0371	-9.2898	0.6796
4616.1209	-6.9392	-8.3263	-3.4950	-2.9686	-15.3065	-9.7817	-7.9987	-12.4538	-4.1716	-2.4717	-9.7773	-5.7368	-4.1573	-5.6898	-9.4635	3.5652
4624.1211	7.8466	14.0341	8.1795	16.4512	4.8383	23.7260	2.9560	-1.3996	10.0623	9.4518	12.1660	0.5969	-0.8640	14.2192	-8.4582	6.4445
4632.1213	32.0601	43.4593	39.0936	46.6127	40.4800	55.7055	14.1706	5.7728	37.1902	36.7588	36.3620	8.4893	-0.9795	41.0639	-7.2280	5.4731
4640.1215	31.0961	39.4429	34.0066	34.2671	33.8317	38.0794	18.9366	6.1775	34.5256	33.1600	32.4469	12.4081	1.7405	31.9980	1.2500	9.2716
4648.1218	5.0735	7.0074	-1.2496	-4.0222	-4.6857	1.4689	6.1231	-1.2559	7.0700	5.4738	4.3181	5.8695	4.1390	0.9659	4.9970	8.3069
4656.1220	-6.0177	-5.3432	-6.9145	-5.6235	-4.9452	1.4895	-2.4078	-6.4379	-0.3144	1.4640	-9.9426	-2.7487	2.1669	-2.9309	4.5833	1.7749
4664.1222	-9.5832	-7.5309	-16.1603	-10.7118	-10.0183	-0.9826	-2.2043	-7.8506	-3.4285	-4.3270	-9.0799	-2.4620	0.7131	-7.5142	4.3087	-4.9622
4672.1224	-15.8473	-13.3797	-29.5361	-25.6456	-24.5290	-7.5975	-4.3038	-5.6146	-10.0441	-13.0086	-12.6949	-1.6503	1.9884	-16.0268	0.3772	-6.2911
4680.1226	5.0025	11.7199	-1.2759	1.5561	6.1099	17.1428	5.6409	1.1544	12.1553	10.3239	6.2623	4.3140	3.9817	6.8635	-0.0669	2.6410
4688.1228	20.8118	29.5154	17.3296	17.3986	26.8131	24.8913	13.8693	5.6669	23.0110	19.2377	25.9120	9.6910	2.0224	19.3398	-2.8885	3.8562
4696.1230	19.5613	27.6697	21.6236	16.1613	32.6005	27.9509	15.1945	10.0157	18.3845	16.4817	25.3114	6.6008	-1.5360	21.6992	-8.7090	-1.8361
4704.1232	22.1829	28.5292	26.0800	19.6085	25.1843	28.4200	12.3821	5.1572	24.1510	23.4764	23.9668	7.9979	-1.8401	23.5823	-6.9202	0.2940
4712.1234	6.9391	8.1756	4.4130	-2.1593	-0.9556	0.8220	8.7192	0.4630	8.2216	7.2797	5.6281	5.8347	0.7501	2.8322	1.3838	4.1017
4720.1236	1.1368	1.7779	-2.7391	-7.6118	6.2754	-0.2836	14.5677	10.2759	0.2709	0.7247	-2.0580	4.7719	7.3692	-1.1183	13.7672	9.2514
4728.1238	7.9714	6.1110	-2.0517	-1.4717	-3.7893	-1.9219	1.9618	7.9914	4.9588	2.4446	6.8895	10.2723	12.4428	-0.6105	19.0701	14.4324
4736.1241	-7.1558	-13.7285	-18.1911	-15.0408	-25.8454	-24.8025	-6.2446	2.6951	-13.9629	-16.0634	-8.1284	3.7361	10.5064	-17.0896	16.8700	15.6170
4744.1243	-12.6164	-17.4243	-18.4899	-14.8797	-13.8124	-24.9914	7.7350	5.9609	-18.1446	-17.9703	-15.5082	-0.5204	7.3071	-17.6446	18.1100	13.9043
4752.1245	-2.9442	-7.6137	-8.8796	-7.0390	-10.8815	-17.2139	5.8795	2.4932	-7.6335	-8.5662	-4.8245	3.7585	5.7307	-9.9804	19.0214	9.1589
4760.1247	8.7086	5.8327	7.9756	5.8367	6.6275	2.1463	15.8194	11.5010	1.7561	2.0139	7.7345	7.3351	4.4894	5.1431	19.7711	6.7556
4768.1249	19.2721	18.4841	18.1738	16.3093	15.3833	11.1196	25.6820	20.3600	14.6251	13.2865	18.5623	14.5670	4.4251	13.4835	19.6609	5.7600
4776.1251	17.4059	14.4279	10.6683	10.1761	0.3982	-1.5593	12.2478	15.6950	16.3190	12.7134	15.1879	17.0161	7.3279	4.9253	17.8888	6.6579
4784.1253	12.0225	9.4763	3.0390	-0.8140	-3.3175	-11.0354	6.2522	14.7281	11.8440	7.3315	10.0061	15.1634	7.8644	-2.5914	9.9001	6.1004
4792.1255	-12.0488	-20.7610	-22.4587	-29.1356	-41.3582	-45.8010	-11.0823	6.6550	-16.2226	-20.7531	-12.5344	4.7836	1.0479	-28.8058	-7.0491	-0.7653
4800.1257	-21.2637	-32.2466	-21.3517	-25.6778	-39.0166	-42.7630	-9.1371	9.6945	-29.5545	-28.5238	-24.4967	-4.6471	-0.9263	-28.0579	-6.6663	3.1386
4808.1259	20.2943	21.1921	25.0781	24.7716	22.8280	15.0699	17.0672	22.2755	17.7691	17.3939	18.8230	11.1835	3.4296	17.4169	3.4684	8.7133
4816.1262	38.3565	42.2420	35.9306	36.8430	30.4420	19.1278	13.7511	17.9218	40.7953	34.0970	40.6701	22.6390	3.2191	25.1089	0.9348	2.5287
4824.1264	22.0519	22.1565	19.9099	16.9944	19.9752	-1.5573	18.2710	22.9694	21.0455	16.4792	21.3444	17.1709	3.7876	8.8762	4.7425	3.8759
4832.1266	7.0562	2.7036	6.2807	-3.6395	0.1844	-13.5393	20.5851	25.8783	0.7746	0.1448	2.9934	11.3031	4.6685	-2.8487	8.2164	9.1083
4840.1268	-10.9382	-21.4668	-6.8981	-20.0817	-22.7361	-30.2948	9.3597	18.4078	-22.8991	-18.7368	-18.5038	-0.0005	3.6448	-16.3610	6.7787	14.9842
4848.1270	-9.9620	-15.9243	2.0613	-9.8794	4.7364	-11.4181	22.5169	25.7799	-21.9333	-13.7695	-19.2813	-4.6311	5.2661	-5.1120	8.9902	21.2697
4856.1272	-4.6919	-7.3748	9.6258	-2.3777	16.3852	0.8672	19.0973	24.3242	-12.8381	-5.0435	-12.6518	-4.7014	2.9261	2.8307	0.8454	14.4065
4864.1274	-8.3655	-13.4166	5.0493	-5.4064	10.6416	-11.4155	10.9534	19.9157	-14.9931	-8.1924	-17.1357	-5.6527	1.7831	-4.4356	-0.1579	9.7424
4872.1276	-2.8695	-4.0822	2.9155	-2.1503	15.5321	-2.4228	19.5251	26.0665	-5.2377	-1.3415	-10.1672	1.3399	6.6383	-1.0182	7.4727	11.5739
4880.1278	-4.2169	-5.5078	-3.5282	-9.0631	2.9583	-4.8063	12.4158	22.9983	-5.0941	-2.7814	-10.4422	2.8673	7.9277	-4.7440	4.6862	11.1281
4888.1280	-10.8183	-16.2355	-12.8559	-24.1014	-7.5972	-23.9282	8.0582	21.0653	-14.8229	-12.5149	-19.2212	2.1192	10.3286	-16.7316	9.3186	13.6089
4896.1283	-14.4331	-21.5621	-21.8133	-34.8421	-19.8864	-27.2720	3.4340	21.1925	-18.5321	-16.8752	-22.9013	3.6524	13.3521	-22.2633	14.4421	11.9916
4904.1285	-18.4901	-27.8095	-21.4213	-36.1302	-23.8360	-31.7988	-0.0116	21.5149	-23.7972	-20.2398	-28.7794	0.1994	11.3608	-24.6141	10.0062	11.7452
4912.1287	-19.2795	-28.5621	-18.8995	-36.2320	-14.9049	-38.5204	8.0959	25.4681	-27.0105	-22.5606	-30.9779	-1.0559	11.0393	-26.0879	9.2915	16.8222
4920.1289	-12.6228	-20.0749	-14.8131	-30.1834	-14.9264	-29.1693	7.9216	25.3083	-19.8623	-16.8618	-22.0820	2.5285	12.0999	-19.8990	8.8183	18.5942
4928.1291	8.2467	3.6073	4.8971	-8.3745	4.7719	-17.3486	14.5498	34.0798	2.4683	1.9129	0.2089	13.9828	14.7201	-5.4604	9.6036	21.8725
4936.1293	17.2502	14.8391	10.9922	-3.9447	18.4266	-12.5353	15.2371	40.9702	11.8677	8.7638	10.8948	19.7136	18.1645	-0.5751	8.7003	21.6463
4944.1295	4.2243	0.8593	-1.4938	-15.5707	1.5595	-7.9463	1.2962	31.6549	-1.8087	-1.9822	-1.2676	10.4556	17.3633	-5.0347	5.3299	18.9846
4952.1297	1.5381	-0.2826	-5.7164	-11.1864	-0.4309	-2.6590	2.7509	31.0293	-1.1939	-1.4398	-3.6635	9.5572	18.1837	-4.5959	8.6285	19.8924
4960.1299	13.5765	16.4139	4.2817	6.6388	17.3398	14.5658	11.7630	41.7251	16.4312	13.6343	9.7318	17.3374	20.5733	7.0862	11.0275	18.1024
4968.1301	12.8580	14.6947	4.1344	6.9315	13.3548	15.2264	13.2906	41.8578	14.5677	12.3131	9.0841	17.1301	19.6443	7.2906	13.1968	17.4873
4976.1303	-15.9418	-21.2188	-29.5826	-22.1180	-23.6919	-18.6345	-5.2664	28.1914	-18.7551	-20.1561	-19.1465	4.5608	18.6890	-21.6528	15.4886	15.4280
4984.1306	-17.4273	-19.6684	-26.7483	-10.1143	-14.0506	-6.6019	-11.9115	22.9820	-16.3311	-16.7035	-19.3262	-1.1415	16.3649	-15.8129	9.1078	12.1930
4992.1308	17.6315	26.8152	10.7110	27.1582	27.5317	25.8909	13.4706	26.2497	27.1415	22.2767	18.9524	13.8527	11.4048	15.8426	0.8472	11.5703
5000.1310	5.3004	12.3478	-11.9650	-0.6040	2.9243	0.2494	9.7153	18.5663	11.9083	3.6918	10.2147	12.8663	9.9462	-3.8666	-0.3589	6.8752
5008.1312	-15.2697	-12.5858	-26.5738	-15.9976	-6.2861	1.2584	-3.8975	14.3667	-15.3836	-16.9225	-11.8439	-2.4193	11.5817	-11.5185	5.1135	6.2872
5016.1314	9.8167	17.5293	7.5304	18.8385	27.3225	36.6832	5.7530	15.4038	12.2420	11.5988	13.8972	3.6204	8.5048	18.3553	5.3692	4.1986
5024.1316	20.3273	26.7005	14.9795	25.8813	24.4560	35.0273	2.9838	16.4880	22.9671	18.5888	27.0651	11.4452	6.0304	21.3743	3.5597	-4.0493
5032.1318	11.0196	11.4649	7.4990	14.1885	14.1420	26.5975	-6.2886	21.8411	8.5571	7.2336	14.4451	7.6380	10.1212	13.3284	9.5475	-2.5954
5040.1320	-2.0558	-5.4699	-5.5606	-3.0151	-5.6811	11.6010	-20.2561	11.0767	-5.1898	-4.6880	-0.7474	0.6182	8.9131	0.7451	6.1749	-4.0759
5048.1322	-11.8234	-14.6604	-16.7712	-7.3649	-20.2792	3.0048	-22.1973	2.9552	-11.3689	-11.8397	-8.6203	-3.8758	2.8882	-7.5353	-1.1848	-10.1066
5056.1324	0.2128	2.0718	-1.4256	16.5101	1.9294	21.4206	-2.4244	14.4295	2.2460	1.0910	5.0585	1.2508	1.8132	7.4936	1.6321	-7.3551
5064.1327	6.5141	8.9851	4.5128	22.3553	10.5675	22.5177	-3.5149	12.7469	7.4460	4.9235	12.8181	3.3824	2.2178	11.1152	2.3143	-7.1881
5072.1329	0.5191	4.6845	-7.0878	10.9567	5.9562	10.5386	-11.6889	-2.1627	6.4455	1.4876	7.9254	0.8559	0.6779	1.5704	-0.9594	-12.8514
5080.1331	-19.2455	-18.2348	-34.2979	-20.5750	-27.0184	-24.0085	-23.4981	-21.9287	-10.0128	-16.9530	-11.9841	-5.3277	-5.0267	-24.4710	-7.7177	-22.2707
5088.1333	-47.0863	-54.9519	-61.1485	-50.6780	-63.5774	-56.5741	-41.0736	-34.2449	-43.1602	-46.3647	-42.9605	-19.0001	-7.5671	-50.7162	-8.0451	-23.8531
5096.1335	-28.8483	-28.5865	-34.6542	-11.5368	-21.3583	-9.0489	-25.0596	-19.8698	-21.7250	-22.1094	-24.7886	-16.0449	-2.1971	-19.5107	-0.4328	-13.4969
5104.1337	9.2244	19.4666	5.6054	32.0161	16.1611	41.7696	-7.6028	-5.8283	22.3892	18.5944	17.8311	0.9441	-2.4833	19.9331	-5.1145	-15.0109
5112.1339	11.8561	17.0428	6.3881	20.9007	-0.0823	29.2461	-7.6087	-2.4567	20.9480	16.5773	18.7910	6.4652	-3.1115	14.9453	-4.3490	-16.4570
5120.1341	2.2913	3.2674	-5.4045	6.5792	-9.3730	9.0538	-8.0296	-1.3331	7.4046	4.2536	5.2960	4.3567	2.5460	1.5758	5.2171	-5.5193
5128.1343	0.7116	1.1723	-7.8471	5.5380	-10.8514	2.6532	-15.5434	-7.8738	6.2806	2.5296	3.6594	2.6585	3.1017	-1.8704	3.9270	-4.0402
5136.1345	8.7291	13.8589	1.4897	15.3392	10.0412	16.1578	-1.9679	-6.8362	19.4947	15.4427	11.1939	5.8455	1.7404	7.9772	8.2973	-8.5142
5144.1347	9.3808	18.1582	3.2998	15.2369	21.0205	17.6951	10.9722	-14.8494	23.9071	19.4352	12.7808	4.7618	-4.9430	9.9298	8.6497	-17.4822
5152.1350	-9.6229	-7.6315	-9.3257	-7.1874	-6.5784	-8.2714	-8.6922	-47.1567	1.1825	0.0212	-6.3199	-10.8053	-19.2211	-6.7751	-0.9933	-33.6160
5160.1352	-5.9915	-4.1739	3.1436	1.8315	5.5930	5.1855	-8.3813	-58.9513	4.2499	7.0609	-4.4223	-15.7751	-23.9567	3.9423	3.9962	-38.6762
5168.1354	17.7730	24.8751	28.4003	28.8952	32.2149	29.6097	6.5439	-53.8941	28.2457	28.9331	22.2534	-5.9282	-23.7869	26.4931	7.0933	-34.6450
5176.1356	6.3049	8.6437	11.6239	9.0433	4.1782	2.3461	-5.2754	-64.5623	10.3876	9.5575	13.0538	-9.8494	-24.9722	8.7749	2.8712	-30.8364
5184.1358	-17.6411	-18.4951	-18.8479	-19.6229	-18.9050	-21.0393	-18.0043	-67.9449	-16.5395	-16.4371	-11.6185	-19.1186	-19.0229	-14.5854	5.0868	-23.7477
5192.1360	-15.9361	-14.0228	-21.2521	-18.5528	-15.9728	-21.3112	-17.8415	-62.1497	-13.5551	-15.6365	-8.5817	-16.5350	-14.7442	-15.2867	0.3800	-16.1085
5200.1362	-22.0692	-22.9546	-27.6216	-28.7419	-31.4587	-38.7639	-21.9349	-61.9846	-22.4472	-25.1301	-14.5209	-18.0992	-17.4783	-25.3169	-9.6133	-15.1671
5208.1364	-31.0968	-33.0877	-30.5578	-31.1585	-33.0138	-37.6666	-22.9797	-53.5303	-31.6956	-31.2577	-25.3502	-23.9256	-19.3391	-27.6993	-16.7764	-18.0947
5216.1366	-7.6862	-1.0831	-1.2502	4.6201	1.5539	3.0523	-8.6336	-42.7727	-1.8375	-1.2866	-1.4829	-16.2779	-18.0995	2.1359	-20.1362	-13.0025
5224.1368	13.9130	25.0531	20.5147	25.5543	20.3235	26.7171	4.2558	-33.4017	20.5214	19.4195	21.5134	-5.5523	-15.6284	22.3035	-18.8209	-6.5754
5232.1371	8.2948	14.6654	15.0726	14.9939	8.0212	14.0681	-1.0672	-24.1081	9.7765	9.2006	14.9894	-5.7634	-14.2806	13.8782	-21.8410	-6.3572
5240.1373	-0.7465	3.0287	4.7642	1.1349	-2.9674	0.6513	-8.0235	-26.8084	-0.6430	-0.0433	3.3160	-9.3384	-11.3689	3.4982	-21.6284	-0.8866
5248.1375	6.0629	13.4499	14.2280	9.2603	15.8045	17.5104	6.1382	-18.5361	8.2558	10.5157	7.9991	-6.6232	-8.6478	14.3998	-15.5923	3.0667
5256.1377	17.7373	27.5601	29.6674	28.3300	33.8918	30.4533	20.9221	-2.2917	23.5013	25.1601	18.4755	0.5145	-9.2517	26.1507	-15.9545	1.2920
5264.1379	6.9693	14.2426	11.6517	11.8211	14.3459	9.9048	12.0871	-8.9917	11.8254	11.7857	7.9652	-1.4971	-6.4927	10.2971	-13.9676	5.1426
5272.1381	0.8764	9.0207	5.7519	6.7572	14.4981	17.1548	9.3111	-11.5893	2.0582	3.6627	4.5547	-7.2051	-5.7044	10.6441	-12.2515	5.3961
5280.1383	13.1709	22.5569	21.4710	25.2228	26.4547	29.1451	15.1476	-3.7007	14.7771	15.3862	18.1721	-1.8266	-7.8888	22.5660	-15.0664	2.7277
5288.1385	12.3862	18.3957	14.6294	13.2253	16.3873	10.5723	12.8503	-0.7049	12.7862	11.4963	14.7996	3.1454	-2.5961	12.1708	-9.7185	8.4516
5296.1387	17.4818	25.8541	24.6705	17.3799	33.8320	24.9353	21.4273	8.9788	18.4518	19.4454	17.8123	4.0814	-1.4051	21.6239	-10.4680	8.6971
5304.1389	13.2224	18.8784	24.2888	14.6613	21.5630	19.8332	12.2552	6.0698	15.7018	17.8008	12.2490	1.1741	-6.6517	18.2865	-20.7006	0.8124
5312.1391	-6.6379	-8.9136	3.9995	-5.4875	-10.7113	-2.0406	-7.7346	0.2496	-8.3402	-3.6538	-10.0854	-7.6459	-5.6183	-0.7241	-20.4391	1.3859
5320.1394	8.4544	11.5603	25.6813	21.8613	19.8640	27.9848	9.3223	15.7968	8.5129	14.7555	4.3953	-3.0109	-3.0981	21.1042	-17.6067	8.2367
5328.1396	11.6143	15.6012	20.9724	15.0948	16.1064	14.1928	12.4828	17.7106	13.8806	15.9388	7.8600	3.8492	-0.4537	14.2558	-18.6376	11.5451
5336.1398	-6.7667	-8.0027	-4.2443	-12.8854	-12.1047	-14.1884	-1.3105	9.8689	-9.5363	-8.0123	-9.8738	-2.1835	1.5754	-8.3942	-17.6585	13.3594
5344.1400	1.8670	4.3821	8.7796	7.3452	2.6553	9.0237	6.9012	14.9525	0.2942	2.6076	0.7927	-1.0203	-0.0156	7.0064	-17.8713	13.2933
5352.1402	-1.5998	-0.2269	3.5445	2.3973	-1.2838	2.8215	3.9358	15.5479	-0.5658	1.1574	-3.9085	-0.6111	0.1740	1.6491	-16.8173	8.1768
5360.1404	-6.0056	-8.2843	1.9148	-5.1943	-3.0103	-6.7143	-2.8881	8.5993	-8.0036	-4.4866	-10.2609	-4.6348	-0.8710	-3.3880	-13.5011	5.1560
5368.1406	6.6384	3.7037	12.5672	0.5446	-4.3607	-7.6632	-5.2130	-1.3903	3.0211	4.1116	4.0631	1.2468	-2.8012	2.1833	-12.8273	5.4739
5376.1408	12.1587	11.1432	16.6516	5.3266	4.2451	-3.4619	2.7654	5.8783	10.1873	9.5830	10.5842	5.9223	-2.7668	5.8298	-12.1755	2.4264
5384.1410	33.1319	41.0959	47.8646	45.1769	57.7504	44.4954	30.8482	25.4630	34.0551	35.4977	33.1116	10.8344	-2.9469	39.1118	-4.7190	0.3235
5392.1412	39.7633	44.9193	47.9775	42.4052	45.8557	44.0061	21.2423	13.7006	38.1693	37.7135	41.2649	15.5904	-0.2859	39.9504	6.5812	0.1230
5400.1415	19.7057	14.8157	22.8650	6.8787	4.0371	5.7310	1.8809	-2.1218	13.1540	13.8322	17.5469	9.3577	-0.2858	12.7547	11.0776	-1.0563
5408.1417	18.0906	15.9769	27.3798	12.9578	20.2393	9.9217	13.3531	1.0864	15.0999	18.1496	12.6891	6.1867	-1.8552	16.0419	10.2281	0.8649
5416.1419	10.9113	9.6122	12.0526	2.0369	8.3942	-2.0003	1.0074	-8.8797	13.0737	13.4976	5.7353	5.0683	1.4308	4.7751	8.7838	2.1451
5424.1421	-8.5112	-12.7374	-10.6645	-17.7679	-15.5636	-22.2058	-13.0765	-20.7320	-6.4673	-5.6052	-13.3930	-4.1198	0.0037	-13.7682	5.2406	0.0605
5432.1423	-8.2203	-11.3270	-9.3506	-11.4516	-15.3040	-20.5203	-12.8569	-22.4693	-6.0757	-5.9431	-10.6838	-5.3688	-3.1199	-12.1281	0.3525	-1.4195
5440.1425	6.9339	4.4927	2.6600	1.0281	-12.0221	-11.6808	-17.9419	-16.3040	8.8326	5.5282	7.2345	3.7687	-0.6334	-2.7760	-3.6689	-0.7576
5448.1427	19.3447	21.8047	19.5838	15.4478	14.2963	11.3014	-3.5381	-5.6433	20.6836	18.3459	20.5302	7.2726	0.2699	14.1559	-3.8315	1.8968
5456.1429	15.0408	20.6976	14.2573	7.8961	17.5457	7.0283	1.1719	-16.2418	17.9271	14.9301	18.3078	3.4250	-4.2890	10.7375	-7.8788	-2.0422
5464.1431	3.9535	4.7805	3.2268	-8.2728	-3.0989	-16.3250	-13.2312	-32.4408	4.9777	2.0027	7.2557	-2.9185	-10.4427	-3.8343	-14.2251	-10.0133
5472.1433	7.0312	6.5606	10.1087	-3.5389	2.9349	-6.2297	-16.0813	-34.0373	5.2442	4.5772	9.6810	-4.3669	-9.6486	2.9872	-8.1547	-10.7687
5480.1435	17.5061	20.0184	13.7983	2.5042	3.7833	7.8588	-18.0696	-36.3580	18.1555	14.2480	23.9622	2.4810	-7.3872	11.1947	-5.1707	-13.1807
5488.1438	8.1374	8.7413	3.4922	-10.3425	-10.5284	-6.4394	-18.3508	-36.7647	9.9780	6.0835	13.3950	0.3294	-10.4907	0.2779	-10.0879	-17.6409
5496.1440	-19.0007	-25.7199	-20.8373	-39.1111	-30.0673	-39.5148	-26.9713	-37.7519	-19.4348	-19.0899	-20.3528	-11.6247	-10.0390	-25.7563	-8.3214	-18.2059
5504.1442	-27.7087	-37.5630	-30.6006	-48.9343	-41.6140	-50.6386	-38.3952	-40.4980	-30.1187	-29.6656	-28.5958	-15.5824	-10.2352	-35.1179	-10.5532	-21.8540
5512.1444	-18.1019	-22.5882	-16.7130	-30.5612	-23.4008	-25.9116	-26.0587	-37.3479	-19.0815	-18.1531	-15.9033	-14.4466	-13.7703	-18.4833	-12.6283	-24.1227
5520.1446	-16.8194	-21.7332	-17.0897	-28.1744	-27.7404	-30.6820	-26.6274	-43.8444	-14.8114	-15.0414	-15.3717	-12.8590	-15.1413	-20.1573	-10.0952	-25.4234
5528.1448	-24.9555	-36.1831	-25.3490	-41.5460	-49.8794	-50.6350	-38.4996	-50.9730	-26.3268	-26.0978	-24.7949	-15.7180	-17.9377	-32.3895	-11.8098	-29.5538
5536.1450	-14.0504	-19.5193	-2.3860	-15.3776	-13.8212	-8.6851	-17.4547	-33.1891	-14.5713	-9.1358	-15.3318	-15.9876	-17.4297	-6.1231	-7.1001	-27.7981
5544.1452	11.1378	11.1940	23.0893	17.6031	12.1878	18.7081	-3.5322	-19.0215	17.8431	20.3440	9.8439	-1.9335	-14.7806	16.7986	-4.2222	-26.3018
5552.1454	-2.5651	-10.4282	0.6357	-12.1509	-25.0822	-25.5913	-20.2605	-33.2728	0.2187	-0.3796	-4.1462	-3.2710	-16.1540	-10.6590	-6.2490	-27.9341
5560.1456	-17.7413	-27.7509	-9.0792	-25.2628	-21.6340	-32.7363	-15.3348	-35.1965	-19.1270	-14.2944	-23.5705	-13.7254	-14.6243	-18.5422	3.6726	-22.6863
5568.1459	9.0053	2.9934	24.1165	8.5848	13.5726	1.0819	3.2947	-17.4195	9.4377	15.0310	0.8870	-1.8833	-10.7053	9.9874	12.0963	-16.6457
5576.1461	12.5441	5.6440	20.3028	1.4990	3.2437	-2.4344	-5.1331	-19.4489	10.6533	13.1735	7.6358	2.6574	-7.9727	7.4655	11.8081	-16.9506
5584.1463	-2.9618	-8.7989	-1.9070	-12.2613	-8.0001	-11.6748	-14.6245	-25.6838	-5.1678	-4.1067	-3.5853	-4.4750	-6.3999	-5.7465	10.3691	-17.9340
5592.1465	-1.6343	-5.7635	0.3273	-2.1555	-4.8932	-2.0236	-10.8407	-19.1539	-5.3134	-4.3446	0.4448	-4.6921	-6.0630	-0.5190	8.9114	-14.4786
5600.1467	1.7058	0.2970	6.7495	10.6385	6.5135	17.0050	-4.9229	-15.8049	-3.3239	-0.6499	5.4117	-6.2396	-4.8197	10.3447	13.1291	-10.1184
5608.1469	13.9691	16.6513	20.9690	34.0079	31.1124	31.3040	5.0655	-13.8081	10.5674	11.8821	19.5894	-2.6358	-4.5217	23.5358	18.5091	-7.5883
5616.1471	14.3104	13.8796	18.5677	26.2810	21.1019	22.1869	1.7082	-15.3775	5.2108	5.7723	21.0093	-1.0577	-3.2943	19.2569	21.1161	-4.6080
5624.1473	5.1606	4.0948	9.3421	15.3749	7.7950	24.8347	-4.1060	-16.8745	-3.6129	-0.7976	11.0222	-5.7715	-2.7765	15.4201	18.5922	-4.9048
5632.1475	16.7219	21.9581	22.8709	36.2605	25.3168	40.8640	3.8493	-15.7703	15.6580	16.7437	23.4564	-1.7885	-5.1951	28.4398	10.8972	-4.7703
5640.1477	16.1375	20.8947	16.0259	28.0974	16.7946	30.8678	-1.2849	-21.8777	13.2135	12.1616	24.2136	-0.3255	-1.9327	22.3350	12.6204	1.6428
5648.1479	-6.8580	-9.2991	-9.3116	-0.4065	-11.5969	-2.1587	-11.3595	-26.1568	-14.1420	-13.2536	-2.2615	-8.7130	-0.4676	-3.0328	15.6128	4.6602
5656.1482	-18.0125	-21.8091	-12.9286	-9.5359	-9.9427	-15.6025	-3.4461	-23.2912	-27.7410	-23.6968	-16.0121	-16.2242	-5.8750	-10.9172	8.1272	3.6553
5664.1484	-5.9506	-3.0196	3.9892	4.8853	16.6498	18.9759	5.7221	-13.1439	-15.0026	-9.0864	-2.1796	-14.5401	-4.0399	10.2878	3.9585	5.5401
5672.1486	-1.4493	0.9558	6.7335	10.5628	12.8687	27.8772	-1.6035	-7.3326	-8.5507	-2.7589	0.9424	-10.7218	1.3382	14.6450	5.3966	9.7481
5680.1488	-16.0277	-17.9706	-10.7913	-9.2979	-10.2061	1.8769	-5.1482	-13.0599	-25.0587	-18.7455	-16.1589	-15.0344	1.3685	-3.6588	6.5115	14.2959
5688.1490	-10.1683	-6.3772	-4.3248	-0.6654	6.5546	16.3298	8.4603	-10.9658	-14.6131	-8.8146	-9.2343	-13.0315	-0.2692	5.4771	6.0433	12.4109
5696.1492	-0.3622	3.8798	2.6514	9.5638	10.4612	17.8140	2.8102	-12.2036	-1.2001	1.1533	2.0566	-6.8025	-0.6548	9.4687	4.5256	6.3871
5704.1494	-6.4628	-5.2113	-7.0793	-0.7273	-0.7501	4.0192	-5.6126	-11.9561	-10.5758	-9.3912	-2.9820	-7.7658	1.1667	-0.4743	4.1078	6.5494
5712.1496	-4.1136	1.7399	-2.0025	7.9815	17.6541	16.0529	9.1242	2.2837	-5.6615	-3.9022	-0.9208	-6.6589	2.3297	6.3740	1.6634	9.3166
5720.1498	-7.7695	-2.0198	-8.6806	4.7831	10.9607	9.7545	4.3154	-0.4641	-7.7657	-7.2126	-4.0939	-7.2873	3.0829	1.0295	0.1664	9.9485
5728.1500	-5.3403	1.0832	-11.1865	9.0442	6.7272	13.6651	2.8406	0.6106	-4.3778	-5.7634	0.2244	-3.9937	6.1029	2.0999	4.6790	12.2415
5736.1503	1.6675	5.6819	-5.5587	13.3068	9.3949	7.7164	11.7791	12.2936	3.0771	0.6066	3.5853	4.3934	9.7357	2.1114	13.8182	15.5208
5744.1505	-18.8358	-26.9193	-27.6511	-20.9278	-23.8302	-25.4219	-9.3901	6.1046	-25.7677	-24.9796	-21.9536	-2.8440	13.0075	-22.6704	23.3945	13.3033
5752.1507	-23.9668	-30.9558	-27.4528	-16.3271	-16.2758	-4.9984	-9.1436	14.0869	-31.0773	-26.6340	-26.5300	-8.3922	12.9313	-15.6671	25.1139	6.8854
5760.1509	-18.6647	-22.7890	-22.8894	-7.1466	-9.8791	-2.5315	4.5438	24.9234	-23.3648	-21.5499	-18.8705	-3.1343	9.6652	-12.2847	19.8464	3.2203
5768.1511	-41.2915	-55.8396	-48.6530	-41.4015	-48.6962	-49.1321	-11.9779	17.6490	-55.7905	-53.7718	-42.2158	-10.9520	7.5789	-43.0041	15.8969	3.0250
5776.1513	-45.2429	-59.6968	-42.6678	-33.8052	-29.6902	-43.1499	-3.1925	29.3181	-60.0344	-53.2336	-51.2128	-16.1506	9.1723	-39.1781	18.5306	8.0659
5784.1515	-24.6101	-31.0871	-23.4797	-10.8849	2.0170	-18.6483	19.4368	47.4431	-31.7144	-27.4981	-31.4459	-3.1705	14.1043	-20.1850	21.8542	13.5863
5792.1517	-15.8399	-23.0990	-21.2487	-15.3119	-9.5251	-21.9088	16.6981	53.6542	-26.4440	-26.4540	-18.2848	5.5647	14.2201	-19.9803	13.9475	11.6344
5800.1519	-17.3172	-28.1021	-16.7230	-19.0069	-13.0742	-30.2470	15.4035	59.3836	-32.9470	-31.1428	-21.1992	3.8000	11.1196	-22.1933	5.2528	11.2532
5808.1521	-15.3447	-24.2229	-14.3201	-16.6384	-7.0029	-23.0647	16.2055	66.2795	-27.5229	-25.2507	-21.2373	5.4080	14.2950	-18.8246	2.7925	13.9965
5816.1523	11.0205	11.4585	12.0229	16.3800	24.9872	18.8424	30.6850	83.8580	6.4440	6.0598	7.6386	18.5767	17.8786	10.2101	-0.0807	15.3612
5824.1526	29.9458	34.9480	29.6431	34.1175	42.5677	33.4832	47.9808	94.0438	30.7870	27.9890	25.2541	30.7503	20.0202	24.6828	2.5953	20.0415
5832.1528	4.1861	2.5798	-6.9278	-2.6627	-0.0090	-2.7760	23.3335	80.0395	6.3635	3.1335	-3.8841	23.6430	25.5184	-6.8118	5.8256	22.9137
5840.1530	-0.6921	-2.0560	-13.6398	-3.7151	-2.1924	1.1387	10.5216	72.3805	1.0197	-1.7562	-7.1363	18.8129	28.6939	-8.0849	8.2946	24.8433
5848.1532	18.9912	20.2299	9.6572	16.3266	18.9482	15.8326	31.1340	73.6908	16.9468	13.3620	14.7686	26.3647	25.1824	9.8221	15.0377	27.3510
5856.1534	-3.8344	-11.9903	-10.1576	-10.7407	-14.1038	-19.7450	20.8987	65.6406	-10.7671	-11.0162	-12.5676	16.3423	20.1800	-14.6150	13.0073	23.7924
5864.1536	-13.7864	-19.5046	-13.1447	-9.9587	-5.0958	-7.1848	12.7436	63.1483	-17.5293	-13.3416	-24.3794	5.4617	20.3635	-12.2385	6.6827	23.1982
5872.1538	9.8451	16.4031	10.7230	18.1574	32.4421	38.0657	28.4101	66.1817	12.3999	14.5770	4.6118	12.9319	20.7120	17.9397	3.7304	23.2273
5880.1540	2.2081	3.8358	0.7830	0.5148	11.8282	15.1379	21.1185	58.3486	3.1453	4.6634	-4.1966	11.7379	17.2410	3.9832	1.4210	17.3684
5888.1542	-9.4985	-13.2842	-12.6925	-21.4215	-7.3392	-9.9573	11.3255	46.2551	-11.2249	-8.8791	-18.5197	7.0842	16.0398	-12.4158	3.5101	15.6405
5896.1544	-12.2354	-16.7101	-16.3441	-26.7397	-13.2693	-14.9580	7.5044	38.1518	-16.0003	-14.0318	-19.2796	4.6412	13.4534	-15.6589	2.0539	13.0219
5904.1547	-17.1842	-23.2821	-10.7541	-18.5594	-4.7205	-11.0723	3.1595	35.9751	-22.8624	-17.3404	-24.4984	-3.9515	7.2714	-12.6553	-2.6345	4.8487
5912.1549	3.1852	8.4169	11.3852	13.1832	28.7036	30.1805	14.8813	31.2857	8.4927	11.8286	0.4929	1.3439	2.6320	14.8124	-6.1700	-4.7774
5920.1551	18.3218	29.1200	17.1042	22.8720	26.9603	40.7151	19.1294	20.9618	32.2899	29.6363	19.9039	12.0372	-0.0511	23.3435	-7.3062	-10.9284
5928.1553	18.3450	23.3258	20.0279	16.9844	21.4077	28.4809	16.0206	13.6500	24.9866	24.1259	17.9694	10.7023	-1.0905	19.8605	0.9492	-9.5879
5936.1555	18.3418	22.8199	17.1553	11.6484	16.2065	21.2003	9.4128	-4.4173	24.7405	22.6634	19.4486	9.1685	-3.5550	16.6148	3.7178	-12.3896
5944.1557	13.0898	15.0865	7.4256	8.1303	-4.5779	4.5480	-2.3760	-16.1933	23.2395	18.8308	14.0064	8.7376	-5.5251	5.9531	1.0522	-14.0589
5952.1559	26.5022	29.0692	32.1078	32.1579	15.2750	26.0556	5.9345	-9.8203	30.9770	29.5976	28.1410	9.0947	-8.6045	25.6853	-0.1768	-10.4638
5960.1561	20.8684	23.0764	27.2953	19.5150	5.2756	13.6206	3.6358	-27.1341	22.0050	20.5436	25.4283	3.2357	-16.8942	19.2690	-9.0551	-15.3390
5968.1563	-13.8829	-19.0057	-10.9188	-21.4319	-29.4345	-29.5366	-11.2643	-40.9581	-15.3392	-14.1568	-13.2988	-11.7084	-16.9428	-16.0970	-6.6680	-15.5185
5976.1565	-11.7573	-14.2551	-6.5237	-14.9223	-13.8433	-9.9255	-9.4883	-34.0862	-14.9861	-11.8201	-10.0572	-13.4823	-12.7870	-6.5196	-2.4236	-12.8585
5984.1568	0.9656	2.7555	0.1769	-5.5226	-13.1668	-8.5153	-13.6543	-45.7068	3.2790	0.6655	7.4794	-6.7058	-16.6373	-1.4275	-12.9393	-17.1251
5992.1570	-0.9442	1.7253	-1.0708	0.4983	-11.0995	-13.6622	-14.2798	-50.5636	4.7237	1.0447	6.0050	-8.4870	-19.6397	-3.7681	-15.5971	-19.6922
6000.1572	2.9643	9.5686	5.6723	7.5486	-0.7844	8.3914	-15.1092	-51.2596	11.5069	8.5005	12.9392	-9.9421	-23.4019	7.5897	-21.7285	-30.8062
6008.1574	11.1668	20.4773	12.8654	7.3929	2.0315	14.0074	-14.5949	-56.5298	25.5436	21.3381	20.0339	-5.4847	-25.5193	12.9954	-28.0033	-35.3282
6016.1576	24.4453	36.8261	31.6305	23.0692	32.5895	31.3396	3.2968	-46.2025	36.9591	34.7647	30.8611	-1.3278	-21.4729	28.7011	-18.3726	-25.6948
6024.1578	20.4788	28.8798	22.2513	12.0723	16.0696	17.2483	-10.8305	-53.9030	30.0874	26.2804	27.9384	-1.4066	-19.5022	19.1007	-15.6530	-26.3396
6032.1580	13.9134	18.1360	7.3083	6.8995	-12.0282	-1.4298	-28.1219	-55.6398	28.4558	21.7962	18.9130	1.5444	-14.0775	4.7618	-14.7481	-21.4674
6040.1582	22.1102	30.3822	15.0875	22.9737	1.4744	14.6859	-11.8038	-38.0639	37.7888	30.4550	27.6989	7.5409	-9.5645	15.2142	-11.3026	-11.8043
6048.1584	18.0413	25.1377	6.3403	6.4296	-5.4881	-2.4664	-6.6726	-42.7570	30.3480	21.6017	24.3203	8.0993	-10.1275	5.1770	-8.0999	-10.9818
6056.1586	21.2659	28.3928	9.6721	14.5239	8.1238	2.6932	-2.7345	-32.3274	34.1349	25.9565	24.8387	10.8811	-3.0797	8.5198	2.9919	-4.5387
6064.1588	17.9736	22.7644	6.1576	13.7994	-0.5357	6.1617	-7.7640	-14.1265	29.4690	22.1989	20.3041	12.4399	2.3601	7.0392	0.6285	-1.0472
6072.1591	-11.0703	-16.1818	-23.8081	-27.8832	-45.2062	-36.6283	-19.2094	-11.3484	-6.4720	-10.6017	-13.8125	3.1287	2.2890	-25.2992	-7.3105	3.1143
6080.1593	-22.4453	-28.1346	-27.8923	-27.3292	-31.3530	-35.4474	-5.8557	9.6269	-25.3535	-24.7908	-26.9430	-4.2708	6.8761	-27.4321	-2.4561	15.0545
6088.1595	-15.0489	-19.9943	-21.8274	-18.6923	-22.7996	-28.3510	-2.8547	23.0523	-20.0995	-20.6653	-18.6979	1.0216	12.3845	-21.7049	-0.4999	21.9725
6096.1597	-7.9322	-16.2769	-18.8769	-27.9163	-34.7395	-41.1343	-6.2230	28.5939	-10.5913	-12.4252	-17.9029	10.7456	18.2049	-26.0772	-0.6378	29.5771
6104.1599	-22.1975	-32.4011	-29.9146	-42.2447	-37.9155	-45.3870	-4.6914	44.7607	-27.8847	-26.0752	-35.0248	4.8634	21.5765	-34.4686	-3.4162	32.1455
6112.1601	-35.9024	-45.4185	-37.0237	-44.9865	-32.3894	-38.6244	1.6227	57.9553	-44.0772	-38.1092	-48.7025	-4.2398	20.6406	-36.2668	-6.5667	30.5522
6120.1603	-4.7888	-7.0803	-0.8979	-5.7557	8.6229	-0.0313	28.2803	78.6045	-9.2105	-3.8961	-18.5948	10.4554	24.4692	-3.8842	-0.3017	39.3654
6128.1605	9.5904	5.7939	2.4719	-6.7252	2.5094	-6.6139	29.7575	85.7794	1.8478	1.8702	-2.5646	24.7480	32.1932	-3.6337	7.9209	48.0047
6136.1607	-10.5025	-24.5973	-23.8150	-40.1721	-34.4748	-44.0436	13.1623	82.1451	-25.5520	-24.9336	-25.5103	20.3399	36.0574	-31.1685	15.1870	49.5305
6144.1609	-15.8953	-31.3776	-17.1437	-32.9741	-26.7331	-28.9379	13.9122	90.4864	-31.5505	-25.0216	-34.0144	12.9649	32.8376	-24.1422	12.9883	43.4173
6152.1612	-8.6002	-18.9855	-3.1099	-16.8841	-8.5613	-10.0748	24.2031	90.3512	-19.9049	-12.5309	-25.3945	12.2996	25.9582	-10.3639	4.9621	36.3018
6160.1614	6.8565	0.1981	18.2304	1.6370	19.9938	-3.1611	47.7242	91.7971	-3.2538	3.6243	-10.6894	17.7188	20.8114	2.9680	7.8576	36.2528
6168.1616	-3.7973	-17.2074	9.4139	-14.2807	2.1595	-21.7395	38.0924	81.4322	-22.4804	-13.4351	-21.4920	10.8902	17.9777	-8.5915	11.2239	34.4778
6176.1618	-26.5810	-44.3168	-22.4972	-47.5930	-39.2393	-46.8377	7.5129	50.6270	-45.5584	-36.8366	-42.6981	-0.4843	17.3661	-32.6852	9.1886	31.2027
6184.1620	-16.0100	-25.4961	-12.0969	-31.2314	-17.6305	-26.0333	10.6121	40.8275	-23.1379	-16.2574	-31.1524	1.7257	14.7386	-19.1574	4.8893	24.5374
6192.1622	-17.3428	-26.6858	-7.2381	-25.3646	-10.4043	-24.4147	10.0231	35.4963	-24.5950	-16.7054	-30.9598	-3.1183	7.3004	-16.6639	-0.8436	14.1499
6200.1624	-23.5992	-33.2839	-6.9681	-23.8604	-5.5132	-27.5055	8.8900	23.0812	-34.7866	-25.2746	-33.8666	-12.5138	-1.7144	-17.5222	-5.0509	5.2842
6208.1626	-7.2905	-10.9228	15.9440	3.8469	19.6409	8.2460	13.0269	16.5135	-16.4903	-6.7747	-11.9384	-12.0630	-8.9298	7.6777	-8.6991	-6.0256
6216.1628	5.2017	1.5978	26.0949	17.3507	12.0615	25.4326	6.3364	5.9048	-4.6566	3.7659	4.0411	-7.3793	-9.8479	20.2295	-3.9135	-6.8947
6224.1630	12.9883	11.4652	32.0465	26.8960	18.3526	25.8616	10.7041	-1.2798	6.1976	12.5428	12.1622	-3.6729	-10.5396	24.2381	-0.7551	-4.2787
6232.1632	7.0796	6.7127	29.2391	25.6213	25.9714	24.6609	5.3801	-8.2271	3.1533	10.1590	6.8077	-9.8458	-14.7361	21.9194	-5.6951	-14.3633
6240.1635	1.3375	-1.2181	18.4635	20.0784	13.7840	19.8814	-6.9470	-13.4644	-2.4195	3.5640	2.2256	-11.1786	-12.0681	15.1929	-0.2364	-16.9743
6248.1637	-0.4413	-3.3829	7.2125	16.7789	-0.9214	10.2124	-13.0076	-15.5060	-0.1990	1.9988	1.2429	-6.8057	-8.1457	6.9520	3.3627	-14.8233
6256.1639	-14.3011	-20.3702	-5.0805	2.5960	-17.2715	-2.7162	-19.9503	-22.3486	-16.1525	-11.7563	-13.7044	-14.6165	-10.7566	-4.2920	0.2467	-15.9437
6264.1641	-6.7109	-10.6955	9.0990	11.9762	4.4755	8.5535	-7.8983	-18.2943	-13.0284	-6.7165	-5.5235	-15.0754	-12.2460	6.8824	1.1848	-12.9128
6272.1643	1.2904	1.6407	13.3221	16.6462	18.5484	13.6315	-1.6867	-14.9853	-3.9536	-0.8453	5.9369	-10.3148	-11.1999	11.6942	-1.1795	-13.0651
6280.1645	-1.8596	1.2118	1.7561	12.2635	14.9975	14.1784	0.7245	-10.7042	-5.9418	-5.2952	5.3557	-8.2575	-5.4159	7.5759	3.1148	-6.8509
6288.1647	12.3475	23.6649	5.9462	29.6713	32.9456	33.8594	9.2586	1.2754	14.6638	9.8945	23.5473	2.7339	3.7437	18.8726	6.5771	2.5424
6296.1649	3.5575	14.9849	-9.3857	17.9772	15.3001	19.8537	-5.2450	-8.3633	11.0956	3.7326	15.5673	0.6267	3.6421	6.3957	-1.9312	-0.1707
6304.1651	-11.1962	-5.0625	-15.0648	4.7901	4.7473	3.2269	-1.5240	-11.7770	-8.3043	-10.2754	-4.0755	-9.1526	-2.1531	-3.9227	-2.3762	-0.5429
6312.1653	-4.0042	3.8093	-7.7833	11.7468	14.9313	9.0462	3.9826	-6.0826	-1.6589	-4.7925	4.5090	-5.4136	-1.8121	1.9633	-3.0795	-0.4155
6320.1656	-19.4327	-13.6715	-38.1551	-12.7331	-17.2219	-15.7808	-22.7883	-20.0350	-14.2943	-22.4974	-6.9844	-7.9053	1.7023	-21.1775	-7.3502	-4.8272
6328.1658	-29.4566	-26.0406	-46.3288	-22.0130	-20.1379	-25.4890	-20.3964	-17.5910	-25.1931	-31.0009	-20.5142	-12.1810	2.9485	-29.4287	-2.2040	-3.0697
6336.1660	-10.1465	-4.8580	-21.6786	-1.4234	-1.9039	-6.7355	-11.9011	-12.0721	-2.1812	-7.5494	-4.2446	-3.7839	2.4497	-11.0795	-1.5160	-2.8651
6344.1662	-7.2049	-4.1192	-22.6836	-1.4784	-17.3682	-12.2037	-24.1509	-21.4044	3.6775	-3.7337	-1.5328	-0.5506	1.9941	-13.5312	-2.4590	-5.5288
6352.1664	-16.0805	-13.7119	-26.7508	-4.1795	-12.8221	-10.5133	-15.8549	-13.7826	-9.8374	-13.8992	-10.7529	-6.6830	1.7445	-15.1675	1.5453	-3.7737
6360.1666	-12.3804	-7.7862	-21.3008	0.9120	-2.9328	-1.4309	-6.1417	-8.4780	-10.9429	-14.8085	-3.5613	-6.7079	0.7235	-8.4386	0.7928	-1.2221
6368.1668	-4.3803	-0.4430	-16.5035	3.8742	-6.1050	-4.1719	-1.8715	-7.7009	-6.7922	-12.9120	6.5975	-0.9399	1.2888	-6.2557	3.1005	3.6424
6376.1670	10.5877	17.9653	4.6296	19.2865	18.3354	22.9986	13.9377	3.3263	8.6484	5.3391	18.7261	4.2657	3.9289	13.8240	8.9792	8.8124
6384.1672	25.4425	38.1965	20.7003	30.3484	39.5803	43.1638	19.1554	-1.6016	29.6200	25.6824	33.3025	9.2221	2.8361	29.3451	8.3894	3.9953
6392.1674	17.7979	25.5415	11.1024	16.8123	24.6052	19.4978	7.5223	-11.5885	20.6355	15.4400	25.4604	6.8391	-0.8271	15.2757	7.1147	-5.0537
6400.1676	10.6107	12.8271	8.2250	9.3522	14.8821	11.6318	3.4946	-5.6310	8.8119	6.6603	15.2259	3.6235	-0.7328	9.5560	8.9473	-5.9774
6408.1679	18.4715	21.8302	12.2984	14.0702	17.8678	10.0775	7.9595	-3.6240	19.8947	15.1326	22.4364	10.5582	1.1384	11.3232	11.2512	-3.8174
6416.1681	13.0878	12.3972	4.4503	7.1010	3.3070	-5.9366	-1.0118	-8.9547	14.8573	9.6924	14.6228	10.0506	2.5815	1.2566	14.6567	-2.2593
6424.1683	2.0191	-1.9572	1.6163	0.7470	-5.3989	-1.7922	-8.2408	-11.6392	1.2078	2.3427	-0.7102	0.2746	2.0942	0.1768	14.3029	0.3711
6432.1685	-2.2282	-3.6074	-1.6825	-1.9721	-4.5278	-1.3683	-3.7837	-18.5072	0.0400	1.5364	-4.3312	-3.3661	-2.3797	-0.9563	10.1592	-3.5457
6440.1687	-7.7820	-11.1838	-6.8295	-6.9335	-14.2072	-6.5135	-10.6456	-25.6334	-4.7743	-2.8820	-9.7415	-6.5762	-5.9016	-5.7213	9.1055	-11.3077
6448.1689	-5.7318	-10.5662	1.0115	-7.8908	-15.3437	0.0887	-21.0577	-32.9984	-2.9549	1.6091	-9.4827	-9.6280	-8.9163	-0.5361	2.4664	-16.1167
6456.1691	-6.4063	-8.7232	-5.7024	-18.5056	-22.4478	-10.7519	-27.3795	-48.1713	0.6174	1.5717	-7.4946	-9.2798	-12.7487	-7.0762	-7.4486	-21.7821
6464.1693	-19.1205	-21.2392	-21.6087	-24.2269	-27.6110	-15.9192	-27.2343	-44.8833	-12.5516	-12.2474	-17.0950	-14.1388	-12.7839	-16.2834	-4.9100	-26.2707
6472.1695	-14.9296	-13.9018	-4.3051	1.5838	5.7228	9.1799	-7.9524	-23.1285	-9.7876	-5.0812	-13.9889	-16.9342	-13.6270	0.5748	-3.1178	-24.6196
6480.1697	2.2695	8.2755	14.2768	19.6948	19.9014	21.4895	3.6289	-23.2693	11.8845	15.0385	2.4209	-9.3618	-14.2307	14.9321	-8.0847	-15.8423
6488.1700	-7.6122	-6.1346	-4.7367	-4.8330	-12.2850	-4.9229	-9.3412	-35.1498	-2.6790	-1.3563	-6.9171	-10.4705	-11.1977	-3.2955	-7.7929	-7.2444
6496.1702	-23.7799	-29.9978	-12.6351	-21.7160	-22.4107	-19.9430	-15.9203	-31.3054	-32.1244	-25.3353	-24.2569	-21.8411	-12.8286	-14.2100	-7.8981	-6.7184
6504.1704	-10.6417	-13.5851	8.9672	2.7619	-0.9347	11.0853	-4.4682	-19.8691	-18.3992	-9.0979	-11.0761	-19.1745	-14.1683	7.4798	-7.6455	-7.3260
6512.1706	6.9612	12.8999	20.5349	28.0189	20.6292	35.4696	10.2157	-10.5883	11.7105	16.2051	8.1380	-6.8737	-10.8979	23.4459	-4.8325	-7.5863
6520.1708	25.3105	38.2534	36.6258	48.7935	46.6732	53.4665	24.9450	-4.5376	38.9729	39.8142	27.1606	3.8096	-10.2706	38.6445	-3.2999	-10.3082
6528.1710	36.2811	51.5195	41.6173	53.5696	46.0502	64.4718	28.4876	-5.5007	52.4808	50.7949	39.6303	11.8832	-7.7836	46.1975	1.9929	-9.2205
6536.1712	7.5102	13.4530	0.1871	5.8514	-4.1972	11.7403	4.3660	-19.8290	18.8462	15.5905	9.1846	4.6811	-3.5760	6.3763	3.5035	-5.2787
6544.1714	-17.2632	-19.2185	-24.9481	-28.2790	-31.6151	-25.6813	-19.4823	-34.8349	-12.0673	-12.7545	-18.5573	-8.5087	-3.2845	-20.8687	-0.7834	-3.7816
6552.1716	-6.8116	-2.9971	-9.6922	-5.2321	-5.2818	4.1303	-14.6944	-30.1587	-0.2145	-0.5825	-3.9612	-8.5265	-4.6548	-1.8935	-3.1120	-7.9803
6560.1718	8.8437	17.4322	8.9332	16.8987	21.1653	19.0842	-2.8019	-20.8000	18.0675	15.0976	14.8475	-1.9507	-8.1680	12.8347	-8.6642	-14.4459
6568.1720	14.1502	18.9647	15.0258	11.6551	17.3873	5.9707	-5.0925	-24.5279	21.6433	18.4735	16.7278	1.8785	-8.6548	10.1758	-7.8675	-13.6214
6576.1723	6.3830	7.4297	0.9281	-2.9852	-3.7862	-3.8437	-12.3270	-24.7711	13.8281	10.8075	6.3507	2.7302	-2.8509	-0.3738	1.0695	-9.4337
6584.1725	5.8319	9.4757	-2.5186	-4.0326	-6.7712	3.9552	-11.9273	-18.8905	16.6045	12.5345	7.3525	4.3657	-2.1025	0.9258	-4.4224	-11.8326
6592.1727	2.8924	7.3131	-4.9778	-10.8072	-10.1274	0.9262	-17.8187	-25.5606	13.9793	9.4244	6.5947	1.2141	-6.7700	-1.5858	-15.0794	-19.1567
6600.1729	-12.8496	-11.6453	-19.3137	-24.4559	-20.9835	-14.6394	-25.9728	-31.6337	-1.9558	-4.2730	-11.7272	-7.2334	-7.4339	-15.0554	-14.4909	-20.7565
6608.1731	-0.6111	7.0737	-0.6284	-4.1765	8.5589	7.6038	-12.2028	-29.6479	13.6850	12.4479	0.4605	-6.0628	-9.0959	2.6799	-17.1986	-17.5456
6616.1733	11.3819	21.5536	9.5560	3.2231	19.7518	7.5686	-7.6611	-37.8846	24.3223	19.5415	16.9424	-1.5190	-13.3045	8.7666	-19.5384	-21.0924
6624.1735	6.3282	8.3156	1.4842	-5.9167	0.4287	-13.3728	-16.1134	-36.7353	14.6659	9.4839	9.5358	0.4107	-10.7548	-3.6173	-8.4071	-21.9902
6632.1737	23.4337	28.0832	25.1388	20.1727	25.4132	14.8142	0.5711	-22.7190	30.7495	27.6179	25.2608	6.6717	-7.9919	18.4466	0.3875	-14.7893
6640.1739	28.9394	35.0353	27.4905	21.9893	26.9648	11.7970	5.8826	-30.2778	34.5347	29.0522	33.7635	9.3010	-9.8350	19.7957	2.2736	-12.8031
6648.1741	14.1533	10.5976	5.1706	-3.6739	-13.6061	-25.1566	-14.1195	-42.6134	15.3167	8.4374	17.5899	7.1043	-9.0746	-5.0820	7.0802	-13.9469
6656.1744	12.2772	5.9642	10.5906	4.2501	-12.8020	-18.4578	-11.0630	-37.1295	7.3040	3.5804	16.3721	3.1176	-12.0344	-0.4251	9.6153	-15.1742
6664.1746	22.3860	21.9201	29.8710	32.1204	15.1584	13.1488	5.9118	-29.6975	18.5169	17.0631	28.6923	2.2788	-16.0316	21.1271	9.3242	-16.1240
6672.1748	32.3263	36.1473	36.6114	42.3973	21.3756	28.2807	2.6179	-29.3250	35.4788	31.9701	38.9534	7.8393	-13.0591	30.3928	5.4674	-14.9680
6680.1750	14.8952	15.1838	14.3855	11.7280	-4.3337	3.9530	-11.4237	-35.9892	15.1728	11.7232	21.4990	1.4274	-12.8424	10.0922	-2.7260	-15.8312
6688.1752	7.7132	8.8717	11.1574	2.8730	-1.0806	3.9252	-7.8473	-37.8608	6.3837	6.3324	12.0783	-4.9369	-12.6648	8.2673	-4.3318	-10.4202
6696.1754	36.0240	44.4462	40.7657	35.2849	36.5201	32.0092	2.2100	-34.0224	37.5429	34.6180	42.7630	5.8797	-9.6703	34.2756	-3.2158	-3.8526
6704.1756	28.8414	32.4427	27.2456	17.5402	21.7292	3.5168	-7.7535	-41.4968	25.8295	19.9873	37.2637	5.4931	-9.8906	17.2469	-1.2072	-7.7740
6712.1758	14.0504	15.9465	13.1983	0.2101	14.4264	-6.6355	-6.1355	-46.5512	13.3796	10.6792	17.8301	-1.1676	-9.9832	5.9844	5.5357	-10.2500
6720.1760	35.8054	46.5172	41.0249	30.4976	50.2496	28.7603	14.7895	-40.1181	41.1583	37.9859	41.5437	5.6850	-14.2545	33.2212	2.0703	-14.2480
6728.1762	40.0630	50.9375	43.8552	29.4977	44.5401	29.4273	14.7611	-39.1239	45.3175	40.5864	47.6478	9.1244	-16.8903	34.8243	-4.4032	-18.3582
6736.1764	37.0783	45.6986	39.3734	20.4155	35.2309	26.7599	7.6744	-38.4775	44.0746	41.1091	39.5318	9.6331	-10.8184	30.9427	-0.1289	-11.6599
6744.1767	34.6742	39.9467	39.7380	14.7488	29.2857	18.2769	2.6883	-40.8148	39.3681	37.8928	34.7594	7.8197	-11.7522	27.1485	-1.5036	-11.5296
6752.1769	12.7565	12.3945	16.2609	-12.3981	-2.6814	-6.6796	-13.0544	-52.9389	16.0937	16.4819	11.0730	-2.0567	-14.6343	5.6844	-5.7094	-16.1889
6760.1771	10.5654	13.3823	8.9977	-9.8551	0.3859	-3.6740	-16.7331	-54.4202	18.9823	17.6120	9.7422	-2.1697	-10.2334	4.0664	-3.5952	-13.0539
6768.1773	12.3882	18.3908	0.5716	-11.0672	-1.3812	-12.1142	-18.6862	-55.9242	21.9824	14.3409	18.1194	2.1634	-9.3510	-1.5592	-8.1948	-14.2424
6776.1775	-2.4950	2.6053	-19.8661	-33.1522	-23.7598	-28.0416	-27.0500	-65.0825	6.4036	-2.1567	5.6917	-3.5993	-11.5617	-16.9988	-14.8172	-17.6974
6784.1777	-1.4295	2.7398	-4.2611	-20.3146	-10.5940	-13.6673	-21.4967	-61.3192	4.6837	1.8895	4.0347	-9.8514	-17.3435	-5.4908	-18.6569	-20.1208
6792.1779	-8.6501	-8.5474	-1.0102	-21.6839	-15.1560	-20.4888	-24.5324	-63.1894	-5.8109	-4.5534	-5.6801	-17.5148	-24.6087	-8.0503	-26.6508	-25.4383
6800.1781	-21.6686	-21.4354	-14.7343	-34.1437	-21.4220	-30.0846	-27.0139	-66.3302	-17.3044	-14.9934	-19.6824	-23.9099	-24.7730	-18.4555	-29.0974	-25.6289
6808.1783	60.8236	69.5948	71.9832	56.7848	52.7351	55.6658	17.4388	-5.6595	64.1733	63.5890	58.9758	21.1655	-1.0914	56.6124	-1.9691	13.2924
6816.1785	56.0113	58.2947	66.2139	46.7876	33.4823	29.6772	6.0731	-14.0835	55.6055	54.1312	52.8668	20.2789	-3.3341	43.6253	-3.2991	12.5934
6824.1788	37.2799	32.8656	46.0236	25.7286	17.6652	-1.3958	0.9887	-12.6195	31.3265	31.7679	29.8196	13.8326	1.5852	21.6218	5.3305	21.3811
6832.1790	19.8869	13.6875	21.6576	0.6223	0.5474	-18.1495	-5.1062	-14.2899	10.4868	11.1101	12.9751	8.0745	6.6817	4.0379	9.1708	26.7424
6840.1792	3.6366	-7.1993	1.5414	-21.3657	-29.2057	-35.7280	-18.5101	-22.5025	-8.4158	-7.1698	-2.8962	1.8939	5.6688	-12.4576	7.4507	23.8247
6848.1794	-0.6952	-12.9025	8.4815	-18.1952	-13.0032	-33.8820	-12.0286	-21.7047	-13.4656	-7.1489	-11.9773	-5.0230	2.1083	-9.8540	10.7814	19.9907
6856.1796	1.6649	-5.2521	19.5014	-7.7787	16.1567	-18.8388	2.2269	-21.3311	-10.1826	-1.5221	-8.5632	-10.0091	-3.5915	1.0338	7.0265	14.6060
6864.1798	6.8012	3.1150	22.5534	-3.4628	13.1999	-5.2671	4.1800	-25.7765	-5.3173	2.0597	1.4378	-8.6671	-6.5494	8.7340	2.5606	12.5652
6872.1800	19.6442	18.6458	35.6749	7.5874	23.4691	7.2281	0.1736	-32.2460	11.5735	17.4402	15.1199	-4.2757	-7.9055	19.8986	-1.0820	8.2470
6880.1802	9.7134	3.1157	25.2415	-13.0249	5.4587	-23.1403	-13.3610	-42.3088	-0.0432	5.1787	3.5288	-7.9490	-12.4856	2.3320	-9.4867	0.3512
