Time	Fz	Fpz	C3	C4	T5	T4	O1	O2	F7	F8	F3	F4	T3	T6	P3	P4
0.0000	-0.3340	30.4666	9.2283	15.3755	8.5724	11.1159	-56.9544	7.8638	-2.3744	9.8813	29.0527	15.4027	8.3116	18.1259	18.9709	32.9888
8.0000	3.7862	-3.6791	3.1646	-2.5365	-2.4484	-3.1439	-13.0398	-1.5684	15.3665	-6.5611	-11.3814	-5.7884	-4.7643	-4.9112	-7.8645	-10.7879
16.0000	-1.0706	-2.6154	1.1911	-3.6889	-1.7595	-2.8767	-0.1945	-1.8645	-1.2282	-5.3709	-12.6656	-10.3250	-1.4765	-3.5979	-2.0151	-5.2758
24.0000	-0.9950	15.3443	2.2577	-4.2067	-2.2151	-2.8874	2.0692	-1.5855	3.3205	-2.8508	-14.9925	-12.7069	-0.3902	-3.7234	1.6190	-4.1843
32.0000	-0.9985	22.1939	4.1452	0.3031	-1.5438	1.4279	-13.4373	1.3903	10.7807	3.9509	-10.0012	-7.3623	-2.7859	0.2222	-2.3576	-1.7670
40.0000	2.5210	20.1875	4.7978	3.8401	-0.6187	4.9413	-14.0476	2.6146	7.4428	11.4036	-5.2751	-0.8603	-3.9906	1.8656	-4.8130	-2.0037
48.0000	6.0960	18.4874	7.9086	3.7107	0.2775	4.1395	1.3857	1.1617	-4.3140	10.3494	-5.5917	-2.6998	-3.3399	-0.0277	-2.7074	-3.3865
56.0000	2.5245	13.9012	10.1051	2.3374	1.1367	1.1093	-14.6291	-0.5084	-17.2460	-2.9352	-14.0165	-7.1717	-5.0761	-1.5601	-5.3198	-6.3776
64.0000	12.7726	17.2644	10.4819	4.0423	2.7714	1.0396	-8.9420	-1.1714	-7.5412	-2.1814	-9.4616	-0.7804	0.6419	-0.4612	2.5490	0.2851
72.0000	9.3408	8.7468	1.9364	-2.5883	-1.2751	-1.7382	6.0804	-3.3696	-5.9966	-0.8537	-5.1758	-9.8761	0.7332	-4.6227	0.4716	-4.4907
80.0000	-2.5093	-4.6852	-5.9250	-11.0572	-6.2595	-6.8542	-8.3176	-7.0595	-21.2177	-16.1864	-19.2831	-26.9714	-9.0284	-11.4708	-21.6629	-21.8629
88.0000	7.3219	1.3756	5.1458	-0.9689	-0.0239	-2.0686	-13.8713	-4.0032	-18.1476	-14.9145	-14.3890	-14.2192	-5.0698	-3.6589	-14.7055	-7.1726
96.0000	11.0158	7.0718	14.5608	4.7315	2.5284	2.1228	-13.0342	-1.2127	-18.0678	-5.2255	-4.1392	-11.1410	-3.7745	0.0157	-6.3712	-0.3219
104.0000	10.5697	5.0463	9.7843	-1.1027	-0.7256	-0.8406	6.8869	-3.7570	-19.4983	-3.7534	-5.7097	-19.3128	-3.7377	-5.2598	-6.5547	-7.0692
112.0000	14.5195	5.4426	6.0612	0.0221	1.4712	-1.5046	4.2485	-3.8622	-13.6008	-4.3637	-2.2125	-7.2571	3.5655	-3.1272	5.4544	0.7654
120.0000	12.8206	6.3342	7.0728	-0.9956	0.0818	-2.8007	-17.2600	-5.0069	-20.7338	-10.0656	-10.7192	-8.0211	-4.3427	-7.4458	-7.0565	-13.9516
128.0000	14.8451	3.3491	12.0163	-0.0581	0.2288	-1.5569	7.4148	-4.1806	-18.6611	-3.7820	-10.2401	-11.5974	-3.8019	-7.1622	-4.1564	-11.6915
136.0000	19.2307	6.0204	16.4103	4.7557	3.8046	1.6559	6.4044	-1.8190	-13.2083	3.0845	3.4735	-7.5436	5.3722	-0.3421	14.4942	7.4125
144.0000	20.7319	16.7447	16.5292	3.5958	2.3107	0.3582	-0.3299	-3.4153	-18.2033	-1.1033	0.5005	-7.7595	-1.5388	-4.9150	1.7222	-6.1005
152.0000	17.2147	7.9749	12.2485	2.0593	1.2977	-0.6670	15.5400	-3.1328	-15.0016	2.3962	2.4646	0.6624	-2.8890	-7.1930	1.0140	-12.7242
160.0000	12.1435	-9.4318	8.6929	-3.1410	-1.7733	-3.9104	-6.6882	-5.3751	-19.3941	-4.8843	-1.2944	-10.7568	-6.2143	-11.3155	-4.6197	-20.7501
168.0000	16.1683	-1.0562	20.8242	0.7998	-0.7199	-1.6345	-8.0801	-4.4313	-21.7208	-7.0534	-11.0124	-19.0066	-12.1487	-10.4590	-14.9103	-22.6445
176.0000	21.2671	9.8367	30.6285	13.0837	6.2605	7.1749	0.9998	2.5936	-8.7847	11.5166	-0.0644	-0.3771	-1.5998	2.6940	8.7592	4.2879
184.0000	20.6264	9.4056	19.9867	5.1278	2.6879	2.5155	-1.1251	-1.5452	-9.2762	4.3134	-3.1763	-13.0295	1.6563	-1.2938	8.5371	3.1539
192.0000	24.0730	20.4439	13.1467	-3.3000	-1.9576	-3.4448	14.5821	-7.2780	-11.5061	-9.0382	-13.1380	-29.6605	-2.7498	-9.3430	-9.0774	-9.4021
200.0000	24.7641	27.1424	11.2170	-0.3678	-1.4435	-0.0164	-11.4198	-4.8248	0.9532	-1.4029	-6.2330	-24.6381	0.6161	-4.5806	-2.4957	-0.8474
208.0000	15.7497	16.3451	5.1155	-2.2803	-3.0846	0.5085	-34.0851	-3.2523	10.2096	0.2649	-7.2881	-28.6823	2.6009	-1.5618	0.7707	5.0227
216.0000	14.2319	12.8689	2.6422	-0.8074	-2.8705	2.0591	-20.3462	-2.0010	12.1135	3.6694	-8.3378	-20.9255	0.6394	-0.4792	-5.1125	3.2371
224.0000	13.8537	9.1808	-5.2848	-0.9730	-4.6139	3.7607	-26.2123	-1.4081	18.5917	9.9239	-6.6396	-13.2129	-1.5938	-0.6842	-12.3375	-1.8838
232.0000	6.8774	-4.3971	-13.4109	-3.1430	-5.8699	4.2395	-11.7411	-0.2572	27.6204	12.1682	-8.7938	-16.1850	1.9748	2.9104	-11.7759	7.1491
240.0000	6.7084	-5.3106	-9.5914	1.1934	-2.7557	6.5401	-2.4991	1.8062	23.4449	15.2141	-1.3979	-7.7561	4.1115	6.7720	-6.0009	14.2122
248.0000	0.2214	-1.9085	-8.8636	0.3097	-2.7994	3.8178	-30.0684	1.5711	17.8427	7.7603	5.3442	-1.7661	-0.6462	3.6035	-7.7572	3.7707
256.0000	-6.0258	-0.8807	-9.5099	0.3394	-1.8378	3.0880	-12.7760	3.1929	23.7130	7.4048	8.6106	2.9683	1.7991	5.8110	-2.0684	9.3103
264.0000	2.0128	7.6457	-1.3174	7.9646	2.4498	8.5042	22.4893	6.7831	30.8383	21.0638	17.1710	13.0908	8.0124	12.5047	10.3056	24.8320
272.0000	0.0340	4.7859	-5.9901	8.3654	2.7851	9.3403	15.5061	7.5297	34.5907	21.2854	16.4356	16.6232	10.3937	15.2911	11.4028	30.1046
280.0000	-12.4035	-3.9459	-21.0171	-0.6970	-1.5046	4.7831	7.5568	4.0723	21.4682	9.7359	-0.4065	4.2873	7.9787	11.4428	-0.8267	22.3415
288.0000	-20.0830	2.7346	-14.3706	-3.8781	-3.4146	1.9846	13.0692	3.0357	7.8365	3.8238	-7.6467	-7.8759	-0.5699	5.7804	-9.7657	8.2734
296.0000	-19.6506	5.7683	-3.6579	3.8140	-0.7297	6.6202	16.2500	8.1119	20.9497	14.9490	4.2848	6.1329	-3.4141	9.7068	-6.3984	9.9093
304.0000	-18.5217	-3.7137	-11.0611	4.1218	-2.0524	9.1485	4.2568	8.9112	29.2978	22.2859	4.7227	10.1259	-2.4416	11.5589	-8.7008	11.4178
312.0000	-24.5646	-7.2710	-16.1377	-6.4158	-6.6847	0.4370	-12.5088	3.4932	24.1243	3.2025	-5.1109	-9.3966	-5.9049	2.7698	-15.8355	-1.5808
320.0000	-21.5923	-2.8282	-12.3873	-8.1466	-6.3897	-3.7862	6.7353	1.3543	24.3312	-6.9731	-6.2164	-9.5786	-7.7985	-1.3704	-19.2501	-7.7504
328.0000	-9.5820	4.0630	-1.5829	2.1228	-1.7208	3.0955	20.9338	4.9425	28.2329	5.5594	-5.5006	5.1267	-6.8810	4.2564	-16.5621	-0.5442
336.0000	-3.3094	11.2303	7.8786	9.9152	2.2087	7.6274	0.8475	8.6978	39.5440	14.9129	4.5889	16.5877	-2.4509	10.0697	-1.4750	10.5504
344.0000	-3.6735	3.9838	-0.6304	7.5607	1.6329	6.5020	-1.3109	7.5341	39.4263	14.7172	14.5543	19.0757	2.0495	10.3317	3.4793	14.5701
352.0000	-3.3616	-12.8491	-10.7896	5.8632	1.2393	6.1856	2.5701	5.5449	27.3510	11.5843	11.4479	22.8971	2.4048	9.8539	-4.3038	12.6252
360.0000	0.4340	-15.9875	-11.1306	9.7225	3.3292	8.6530	0.3905	6.9015	27.9680	17.5029	15.9600	36.5546	4.2964	12.0336	-0.0823	14.7558
368.0000	-4.7463	-16.0419	-12.7969	8.1664	3.3810	8.5128	0.2231	6.7739	16.9885	18.7066	18.4876	31.4359	7.2165	12.8586	7.1801	19.2380
376.0000	-7.7355	-18.8331	-15.6785	3.3509	2.2382	4.9243	-15.2326	2.7287	-10.2830	7.9709	8.4191	20.5628	5.2083	7.8864	3.0683	10.7302
384.0000	-3.3648	-10.2635	-13.1621	2.8698	0.4319	5.0594	-14.7459	1.4945	-16.6546	12.5736	6.5039	21.1610	-1.6289	2.0168	-5.4408	-5.4150
392.0000	-6.8818	-7.0514	-4.3558	4.0786	0.4174	5.3018	5.5508	4.5605	4.0888	16.8638	14.9128	17.1634	-1.5273	3.9756	0.9196	0.3817
400.0000	-10.0928	-17.7911	0.0091	3.3810	2.4728	0.6649	10.8085	5.0252	20.6018	4.7918	17.1390	19.8855	3.4763	5.3712	12.8105	8.8952
408.0000	-20.4345	-25.2049	-3.6624	-0.5916	0.4812	-2.1574	-0.1331	4.2068	13.1634	-2.0328	4.8840	16.6166	-1.4380	2.0322	5.5125	-1.4485
416.0000	-31.8708	-31.7135	-11.8107	-7.7082	-3.6278	-5.6030	-15.8486	2.5048	11.1157	-9.6333	-5.6962	2.2529	-4.2359	-0.7966	-1.9390	-7.0246
424.0000	-22.3382	-34.0895	-14.3519	-11.0198	-5.2059	-9.6847	-22.7688	-1.5458	13.5869	-16.9989	-7.6456	2.8967	-5.4533	-7.2996	-6.4846	-17.9803
432.0000	-8.7913	-19.8578	-1.4477	-3.7880	-2.2995	-5.1479	-21.3670	-1.0233	0.3772	-8.8302	-7.5110	8.8566	-9.5947	-8.0592	-9.3938	-23.9577
440.0000	-4.4743	-8.2670	1.0096	0.4450	1.1071	-1.2485	-16.4445	1.0642	3.4387	-1.7878	-1.2527	7.7398	1.3728	0.2619	8.4804	-0.3264
448.0000	-2.7289	-0.9871	1.0111	0.5631	1.4791	-0.8199	-21.1612	1.3780	12.1242	-2.5159	0.9185	1.5560	6.4264	3.6719	14.7983	11.2726
456.0000	9.0443	17.7360	21.9462	12.4340	6.4934	6.0526	-22.2988	5.1127	8.5173	5.8847	6.6249	9.0598	1.3396	7.6355	12.4966	12.6881
464.0000	16.2892	21.4222	23.4650	17.4523	9.4168	9.7632	0.9952	7.3317	14.7299	18.8911	18.8135	23.4081	7.7038	11.6621	25.2660	22.6447
472.0000	8.2755	11.9510	14.2912	8.9293	3.7285	6.4540	3.9856	4.5523	8.1844	18.6890	11.5100	9.5269	3.0244	4.8405	16.1262	8.8352
480.0000	8.3748	12.0341	18.9427	6.0296	2.9751	2.1052	-6.8609	1.4339	-5.0361	5.7163	6.8918	1.5778	-2.5441	-1.2433	8.8137	-3.4984
488.0000	-1.9352	3.3972	5.7490	-0.2967	2.1263	-3.9976	-11.9064	-0.2391	1.1341	-7.1228	9.7638	5.6552	3.4719	-1.5534	16.1352	1.0180
496.0000	-17.0375	-4.1879	-8.5949	-9.1058	-4.8878	-6.2076	-24.3110	-1.6685	1.0253	-10.3408	-3.7716	-9.9402	-4.6993	-5.7342	-4.6489	-12.4501
504.0000	-10.4337	-3.2001	-8.5343	-7.8811	-4.9074	-4.9071	-10.0813	-2.7756	-5.9312	-8.9964	-6.0614	-8.5457	-7.8830	-7.2266	-14.9547	-17.7744
512.0000	-8.5956	-7.0064	-6.8641	-2.7229	-0.2099	-2.8651	-5.4648	-0.7794	-6.6627	-8.9146	1.7430	3.8363	-0.6948	-0.6735	-2.9787	-2.4302
520.0000	-7.0793	-4.6806	0.1863	2.8076	2.1573	1.2923	-18.1468	2.1330	-4.6851	-2.9976	-0.0785	7.1233	-0.3066	3.9316	0.8134	3.9723
528.0000	-6.0339	-10.2226	-2.2844	2.1985	3.1974	0.4357	7.5926	1.6454	-8.7711	0.4809	-1.2491	14.7573	4.0661	3.1875	9.5382	5.3635
536.0000	-13.4540	-19.2427	-4.0366	-4.3999	0.7286	-3.8580	27.1812	-0.8911	-20.1740	-6.2092	-6.8000	-1.3101	3.3547	-1.0034	8.5346	1.6487
544.0000	-8.4723	-9.3872	3.3966	-6.3268	-1.6436	-5.3729	24.7757	-2.2242	-11.0930	-8.6312	-7.7235	-17.1027	-0.4902	-4.6761	3.4004	-3.4971
552.0000	-2.7713	-0.2381	0.6379	-2.7896	-0.2410	-3.4025	15.0378	-0.2223	8.9543	-1.0508	2.5682	0.6008	3.9331	-1.7394	12.0454	1.6409
560.0000	-1.3871	2.6271	1.9056	2.1920	0.8830	1.2604	-0.6431	2.6557	13.0485	8.7895	2.5530	11.2299	2.2913	1.4074	11.0790	1.6193
568.0000	-7.8505	-5.0382	1.4786	-0.3708	0.0101	-0.9038	1.1782	2.1301	8.5821	3.3957	-5.8845	6.6759	0.1591	-0.3074	8.1795	-2.3988
576.0000	-21.7716	-16.3683	-4.8371	-6.7795	-0.8458	-6.2806	0.5061	0.0944	-4.9637	-11.7308	-8.4920	-3.9920	2.1615	-1.1574	10.1011	0.5075
584.0000	-18.3491	-6.5529	5.6509	-4.5863	-0.4977	-4.4289	-2.8226	0.3637	-13.1266	-9.3435	-6.1612	-14.3901	-1.2956	-1.7080	8.3132	-0.9698
592.0000	-10.7354	3.2948	9.8842	-1.4136	-0.0318	-2.4101	-4.9505	1.0611	-7.1864	-2.8034	-4.6796	-7.1024	-3.4802	-2.7053	6.9376	-6.0242
600.0000	-10.6413	5.6859	5.2824	0.0836	0.5888	-0.4778	-11.2527	2.0142	-3.1520	-1.3281	-2.2308	-3.2147	-1.0560	1.0917	6.4374	1.0162
608.0000	-9.1219	11.6300	14.3393	4.4658	2.2535	3.3527	-9.0542	4.7187	-1.3923	7.0614	3.6416	-6.3381	-0.0532	4.9382	12.9651	8.9482
616.0000	-3.1712	12.2930	14.5152	6.0319	3.1958	3.4683	-11.7465	3.8580	-6.8445	8.7309	5.9261	4.2589	-1.1369	2.5314	12.6667	1.9620
624.0000	-0.6147	10.8353	0.3707	3.2080	2.3476	2.3281	7.4893	1.3533	-9.7192	4.6958	2.6157	9.5041	1.4517	2.4300	3.9368	2.9879
632.0000	-12.3527	6.9403	-7.4611	-1.5278	-0.2953	1.2310	28.3578	1.9472	-4.8089	4.9432	-2.5649	0.3284	2.5151	3.7206	1.7518	7.3368
640.0000	-17.7664	3.3835	-7.6933	-4.1813	-3.1732	-0.0726	3.3504	1.3013	-8.2512	2.5698	-4.5462	-5.2477	-5.1763	-0.7056	-8.0870	-6.5638
648.0000	-15.1975	2.3219	-5.4714	-3.7069	-3.3483	-0.5726	-3.2021	0.8611	-4.6461	-1.8594	-2.7289	-7.0157	-7.8225	-1.3862	-14.2984	-8.9568
656.0000	-7.3949	7.5337	1.8509	1.2483	-0.2827	1.6227	16.5404	2.4951	4.1478	1.2799	2.7582	-1.8070	-4.2121	2.4869	-8.3714	1.1229
664.0000	10.8311	23.4537	9.3358	10.5386	3.8053	7.9039	24.9911	4.1754	5.4521	14.7064	13.4782	14.6305	-2.0501	5.9061	-4.6483	5.9088
672.0000	7.9870	16.5856	0.2601	7.9057	2.9012	7.3455	28.0401	3.4026	4.1231	15.0417	8.9681	15.1883	1.4888	6.6261	-3.0349	9.1244
680.0000	-1.8585	-0.3239	-5.6341	1.2397	-0.0066	3.1853	13.2726	0.3905	-12.6196	3.0391	-6.8885	1.3849	-2.5639	2.2350	-12.5051	-0.1690
688.0000	4.1067	11.0601	9.7991	9.9742	4.1309	8.3743	4.9194	3.4391	-19.6215	9.0333	-1.6037	5.8085	-5.0028	6.1297	-10.1947	3.4908
696.0000	5.7278	15.5004	10.7348	12.0573	6.6825	9.0654	16.7763	5.6016	-1.8055	13.2409	8.6037	10.6725	5.9755	12.2062	10.3980	23.3300
704.0000	7.9789	9.3488	2.0203	3.9623	3.6134	1.9645	20.8468	0.0529	-4.7809	-0.4050	6.3821	3.9123	6.0524	4.6660	5.1039	13.6465
712.0000	14.3830	20.1087	11.4299	7.0381	4.8907	1.9200	25.2065	-0.5681	-14.7729	-1.5530	10.2550	10.5154	-1.2123	0.2156	-2.5011	-0.1482
720.0000	14.6640	21.2282	11.6117	9.7874	5.9040	4.8857	29.0588	2.5955	1.0122	11.6399	18.2362	19.0402	4.7528	4.3982	12.5872	9.7866
728.0000	2.4282	5.5121	-1.4852	2.8539	1.4085	3.1848	14.8690	1.7352	2.2044	10.1136	8.7401	7.6634	4.2201	3.5382	7.0835	7.9209
736.0000	-2.5762	4.6613	-1.0971	-0.9726	-1.3360	0.7709	2.4867	-1.1264	-18.4729	-1.2557	-10.2125	-5.6710	-6.9033	-2.5608	-15.0335	-10.2755
744.0000	12.4003	16.8770	7.4174	4.5282	0.8939	3.7834	5.3495	-0.9156	-16.8352	6.2995	-3.6195	1.8678	-6.7183	-2.7533	-12.2992	-11.0963
752.0000	8.6636	12.4328	4.3195	4.6715	1.4697	4.1040	5.2241	0.7081	-7.2708	9.6431	6.0580	6.1118	-1.4589	0.5724	-1.6176	-1.7057
760.0000	-2.4156	2.8401	-5.9129	-3.6415	-1.6703	-1.9437	-0.2588	-2.4620	-13.2001	-5.3017	-9.3402	-4.1540	-2.6433	-3.3660	-8.6218	-7.7876
768.0000	4.7888	12.2960	-1.8431	1.9680	0.2597	2.2993	-8.3628	-0.5047	-9.8120	3.7551	-6.4222	6.1626	-2.7837	-0.9076	-7.1090	-6.5559
776.0000	3.4918	18.5536	3.7094	6.5522	1.8042	7.0208	-6.5494	3.3094	-5.8416	17.8890	1.6572	10.1672	-0.6963	3.5445	3.3402	1.0948
784.0000	1.1139	10.9633	-1.0476	-4.0069	-2.2578	-0.7609	13.2720	-2.5574	-17.4742	5.6396	-16.2332	-9.5805	-0.9009	-5.5036	0.7490	-9.4523
792.0000	5.7107	5.0594	1.7958	-4.6837	-0.7163	-4.4277	13.7638	-5.0525	-25.2978	-4.0402	-16.1002	-5.7111	-0.2558	-8.9998	3.5327	-13.9213
800.0000	4.0555	4.7389	1.3476	-2.3853	1.2566	-3.7466	2.7838	-3.9156	-26.5055	-5.3138	-0.4009	1.5799	1.9495	-5.9754	8.6404	-7.7876
808.0000	2.9713	9.3583	-1.5314	-2.2194	-0.1995	-1.4177	6.3708	-2.9715	-20.5163	-2.1813	3.0095	-4.6709	0.3873	-3.4302	0.1041	-3.9854
816.0000	4.2934	10.5307	8.9414	3.6257	1.7001	2.1727	7.5800	0.3755	-12.5373	2.1402	4.5175	-1.6212	-3.3028	-0.0801	-3.0830	-1.9719
824.0000	7.8381	7.1631	12.8128	2.0749	2.2410	-1.2132	4.1021	-1.6912	-16.6893	-3.1879	7.0049	-2.1983	-1.8614	-3.8948	4.4803	-5.6806
832.0000	12.5088	5.4376	7.1636	-0.6253	1.2902	-2.9289	-10.6494	-4.6131	-21.7292	-7.8655	7.0186	-6.1287	0.4946	-5.7616	4.2150	-6.0705
840.0000	7.5278	3.6613	1.0436	-5.3354	-1.2183	-5.3061	-11.5964	-6.3126	-23.4499	-13.4823	-1.2537	-15.2817	-0.6159	-7.6858	-1.9907	-8.9192
848.0000	1.6558	4.6750	-2.1195	-11.4685	-2.6583	-10.6245	8.4303	-8.4398	-24.6625	-20.0819	-2.1032	-22.2056	2.5943	-11.1723	5.4029	-9.2511
856.0000	8.7241	2.4842	3.8978	-6.2651	1.2588	-9.6204	8.3507	-7.7463	-23.5951	-24.7241	3.1856	-13.1220	4.6242	-7.8896	7.5965	-2.4129
864.0000	5.7523	-5.8769	0.1663	-11.5461	-1.4560	-14.2341	5.3001	-10.7028	-24.9803	-37.1181	-16.0844	-19.9882	-0.7053	-13.4140	-5.9276	-15.1184
872.0000	-2.4913	-8.6971	-7.5582	-20.2522	-5.7938	-19.1886	-2.7980	-13.4661	-26.8078	-40.7954	-28.4420	-32.2117	-0.3779	-19.1987	-3.1832	-23.1851
880.0000	13.6357	-2.7757	5.0183	-8.9785	-0.4492	-10.9584	-1.5275	-10.4234	-29.5664	-26.9745	-15.9192	-23.9267	3.4728	-11.8978	4.7109	-9.0210
888.0000	21.1712	10.2209	14.9277	-0.5937	2.8838	-4.0756	26.6476	-6.5338	-28.0942	-10.2738	-7.6911	-14.7917	4.1421	-6.8551	8.8978	-1.5902
896.0000	11.1178	12.0125	3.6319	-6.0994	-0.7082	-5.7137	10.1685	-6.8541	-25.9992	-6.5821	-6.4793	-15.6711	4.3581	-9.1789	11.4359	-6.8934
904.0000	6.2855	-2.1616	-11.1966	-15.3657	-6.8694	-10.2709	-26.6608	-12.4364	-40.7541	-21.1241	-21.7170	-31.2103	-4.4180	-17.0281	-14.3119	-26.4723
912.0000	-1.0914	2.0440	-15.0071	-18.3419	-9.2267	-11.0780	-40.5493	-13.4720	-51.7341	-27.0287	-33.0251	-39.9360	-10.9017	-19.1506	-28.8644	-35.3256
920.0000	4.0283	18.1765	-9.5428	-10.3050	-4.5083	-6.4618	-64.3590	-9.4365	-37.8439	-20.0464	-16.3224	-26.1920	-3.0401	-10.3971	-11.1464	-16.5225
928.0000	17.3532	18.7633	-0.4426	0.0552	-0.8358	0.2673	-83.9874	-5.6436	-19.2441	-11.7487	-4.4007	-13.7095	-2.6698	-3.3456	-11.5707	-6.7115
936.0000	21.6524	15.1388	5.0468	4.4442	-0.3908	4.8396	-82.9944	-3.6455	-20.2175	-0.3363	0.5319	-10.9297	-6.0861	-2.2596	-14.7686	-9.0641
944.0000	17.6891	8.7920	-3.7704	-2.5251	-0.9696	-0.9549	-60.1535	-6.9513	-27.2645	-7.0967	3.6068	-14.4772	2.7774	-4.7538	-0.2015	-3.4622
952.0000	2.8042	-0.1734	-17.9841	-9.1297	-3.1045	-6.9300	-67.0334	-7.1914	-6.9568	-22.1170	-5.0242	-11.4222	5.2581	-3.9701	-2.1132	-0.7101
960.0000	0.2132	-4.5518	-20.3742	-8.3135	-5.0124	-6.2469	-93.5033	-5.5577	13.3602	-24.9160	-10.3982	-7.2161	-1.6730	-3.5215	-17.6181	-7.8537
968.0000	-0.1349	-17.9351	-16.9099	-10.6795	-4.3967	-8.4498	-41.2211	-6.6311	7.1776	-25.3120	-14.4760	-15.1938	2.6920	-4.4929	-9.6460	-2.2560
976.0000	-9.2896	-28.9036	-16.3826	-9.9679	-2.7248	-6.2909	3.8216	-3.4519	5.2391	-14.7074	-17.0783	-15.4430	9.8028	0.8768	5.7612	12.6093
984.0000	0.0576	-11.8622	-10.2019	-3.4271	-1.9530	-0.6708	-3.2722	-1.5624	6.4082	-4.4796	-8.1909	-8.1132	3.2535	1.7992	-5.5759	6.6775
992.0000	11.2144	5.5213	-1.0099	5.3919	2.8107	3.4731	21.9746	1.2418	12.8958	3.5226	8.9733	11.0604	4.6642	5.7778	-1.2105	12.7927
1000.0000	8.8355	-8.9510	-7.6523	9.7136	4.8193	8.9659	17.4545	6.0646	32.2334	20.1554	20.5276	24.8450	15.5862	15.6202	18.0873	34.2612
1008.0000	1.9280	-19.0997	-9.2443	3.7512	-0.7358	7.2579	3.3816	4.4939	32.3098	16.0551	13.5308	1.7355	6.8445	11.0801	0.7545	22.8750
1016.0000	5.5574	-2.6851	8.5615	6.2173	1.4466	5.6411	51.6878	4.4573	23.3010	13.0321	15.9314	-0.7493	1.0637	7.0090	-1.6599	14.9827
1024.0000	12.7375	0.2513	4.8946	9.1830	4.0079	7.8665	52.7220	5.0084	20.3681	26.1916	24.4858	18.8837	9.3394	8.1864	17.5968	19.4604
1032.0000	-4.2701	-8.5665	-11.7186	-1.1185	-2.3254	2.5648	2.8792	2.0814	13.4581	15.6857	9.1444	10.0640	2.5723	1.4810	4.4757	0.9478
1040.0000	-17.7985	-11.7866	-16.4075	-9.2170	-5.4515	-4.9294	2.7437	-0.2168	15.0225	-1.8887	-0.4560	-0.0282	-1.4402	-3.6385	-2.9609	-8.2263
1048.0000	-18.8810	-20.1777	-25.6801	-16.4619	-8.0405	-10.0942	8.2701	-4.0274	15.4015	-10.9599	-6.0994	-9.1167	2.2134	-7.2454	-2.1632	-8.7171
1056.0000	-13.3718	-14.1539	-21.5070	-13.3593	-7.8033	-8.0660	-4.3060	-3.8456	16.1501	-12.8708	-12.3975	-9.1774	-3.5693	-7.1849	-15.6463	-13.9981
1064.0000	4.3149	-2.8549	-9.8699	-0.8837	-2.3443	-0.2507	12.5203	0.3780	32.0449	0.6998	5.0704	9.3560	-0.8921	0.5695	-12.0550	-0.8980
1072.0000	2.3773	-5.4504	-12.5437	0.3953	-1.5696	2.1052	18.3252	2.2071	36.6489	7.3133	10.7133	10.7029	4.2896	5.2122	-4.0224	10.6184
1080.0000	2.7458	-0.1680	-3.9854	4.7089	0.0020	5.0975	-2.8132	3.8290	26.0063	11.3582	7.9093	12.7463	0.0312	5.6640	-4.6985	6.0768
1088.0000	9.0203	0.1604	3.1244	8.1231	1.7300	7.1104	6.5352	4.2652	16.9965	19.4403	18.8604	18.1950	-0.3289	4.5531	1.1080	3.5406
1096.0000	-1.2224	-5.5253	-0.5271	4.9308	1.3371	5.7214	30.2914	5.1718	18.4613	20.0477	12.8535	13.0063	4.6946	6.6952	10.3057	12.2990
1104.0000	2.6411	-4.4602	3.1095	9.6628	3.9935	8.7125	22.5639	7.4500	29.4794	21.6839	6.5323	16.9414	8.8858	12.7698	15.4202	24.7451
1112.0000	-5.1269	-18.9727	-3.8682	3.9188	1.4421	4.6057	12.3215	4.7940	20.3539	9.2758	6.1106	7.3200	5.5446	9.4953	5.4242	18.4954
1120.0000	-20.3355	-30.0670	-12.0965	-6.6137	-2.7023	-2.8793	26.1531	1.0402	6.7002	-6.4525	-4.8945	-9.8968	1.9772	3.1272	-3.3932	8.6497
1128.0000	-11.7286	-17.1193	-7.7108	-1.8072	-1.7380	1.3314	23.0216	2.9901	19.8127	1.9611	-3.1389	-6.7666	2.5469	6.5083	-3.7701	13.8901
1136.0000	-8.1725	-3.8012	-5.9474	2.3967	-1.1962	4.8659	15.3392	4.8652	25.4000	7.7818	1.7739	0.9684	-1.1225	8.2559	-10.9325	11.6104
1144.0000	-1.3953	-1.2346	-0.8905	3.9672	1.7520	2.7218	29.8081	3.4123	14.8276	6.3905	0.8928	14.4864	0.9163	4.6104	-1.1356	5.8596
1152.0000	2.9151	-4.5753	4.0627	5.8467	3.2017	2.9593	15.6931	3.4936	11.1418	10.9343	7.4820	20.8368	2.8437	3.1882	10.7414	3.9285
1160.0000	-0.6038	-3.0530	6.9350	5.9794	1.6143	4.3722	-0.5009	4.3593	11.0127	11.3264	11.4324	11.0386	-2.4037	3.4392	2.3854	1.3101
1168.0000	3.4404	-1.0496	12.4810	8.7369	4.7121	4.3684	3.3087	4.5332	8.5354	7.7955	12.9916	13.3373	1.8003	5.9142	10.6439	9.7211
1176.0000	-1.0659	-4.1697	9.6107	6.6006	5.3445	1.9017	1.4835	3.3047	-4.3452	3.6698	8.2976	16.8580	3.6470	4.0419	16.6807	7.1377
1184.0000	2.5806	0.1553	11.4903	5.4900	3.3161	2.2939	24.9356	1.9233	-11.9023	7.1667	2.6636	11.4863	-2.9278	-0.5994	3.6003	-5.0764
1192.0000	8.1023	2.4564	16.6209	10.7933	5.5966	6.2925	26.8053	4.3438	-3.5846	13.3995	11.1407	14.5368	-0.1904	4.7471	7.6655	6.0016
1200.0000	2.2363	-2.7040	10.3237	8.8008	6.0050	4.8520	9.1519	3.6587	-11.2851	7.9262	7.5470	14.8911	3.5257	6.1210	12.9236	10.4521
1208.0000	7.4825	0.4406	11.7429	8.2243	5.1636	4.8852	21.6872	2.2857	-16.4944	11.0959	0.4390	13.5562	1.2682	2.6288	8.9666	2.8117
1216.0000	5.1304	3.6444	10.6589	11.4960	5.6301	8.0383	13.9742	6.0216	3.2390	20.1185	12.4801	23.0519	3.0501	7.4280	14.0470	10.0420
1224.0000	-5.9775	-3.4447	-2.0252	3.3463	2.7616	1.3737	10.9102	3.3029	4.9901	5.7962	6.9688	20.4852	3.3146	3.7705	10.1528	4.8939
1232.0000	-7.8996	-7.8822	-0.2527	-1.6596	0.2808	-2.9682	6.8210	-0.0082	-5.1711	-5.4821	-5.1053	6.2917	-2.4272	-2.5623	-0.0348	-7.4415
1240.0000	-4.8777	-9.7640	5.5423	2.9123	1.8704	1.5400	-2.2658	2.6514	-2.4699	5.8635	4.3976	6.9818	0.3829	1.6980	9.6409	1.3862
1248.0000	-1.9488	-15.0623	3.9714	2.8950	3.5350	1.3464	29.9098	2.1055	-7.6310	9.2480	4.2892	11.0525	6.8747	2.6666	19.8847	8.5443
1256.0000	-7.0007	-11.3111	4.9507	3.9122	3.2066	2.2983	8.4993	3.1033	-10.8249	6.2374	0.6595	10.1118	1.5084	3.2424	10.7398	3.9982
1264.0000	-9.0357	-5.8049	4.1068	5.3489	2.3323	4.6467	-17.9844	4.6871	-6.2011	10.9167	4.2555	11.6703	-1.2633	4.4478	7.5982	1.9084
1272.0000	-8.4878	-9.0130	2.6259	1.4610	1.7007	2.1922	26.9562	2.8689	-9.6151	11.6099	-3.1976	4.5298	3.4909	2.5069	14.1511	5.2893
1280.0000	-11.2134	-10.3666	-0.5955	0.2551	0.5914	2.8410	21.2428	2.9474	-8.3065	10.7934	-2.4443	-3.4575	4.0752	4.4755	11.1498	10.2234
1288.0000	-9.5185	-17.3494	-9.3351	-1.1855	-0.3073	1.8121	-5.0173	1.4682	-5.3688	6.0572	1.5492	1.3049	4.6617	4.0468	7.0121	8.5484
1296.0000	-14.9933	-28.3129	-18.6377	-8.4009	-2.2389	-5.3158	2.5797	-2.4624	-9.7372	-10.4381	-10.8111	0.5475	3.6408	-1.5883	0.0779	-0.8807
1304.0000	-20.6112	-28.6879	-22.2653	-14.4057	-5.5177	-10.0467	-1.9206	-5.0544	-9.6762	-22.5575	-17.1778	-10.9163	-1.3428	-6.4076	-11.6340	-10.4340
1312.0000	-13.6839	-19.7269	-12.6731	-10.3681	-4.0102	-7.6438	-0.8167	-3.7366	-4.8962	-17.2241	-12.9809	-11.4921	-1.3110	-5.0931	-7.6545	-7.4504
1320.0000	-6.5255	-8.2952	-3.5877	-1.0931	0.3700	-0.9350	-1.0426	0.9219	5.5006	-2.9532	-3.4046	0.6945	3.6300	2.7682	5.3506	7.2856
1328.0000	-6.7430	-9.9361	-7.6495	-1.0700	-0.1451	-0.7028	-10.2219	1.5066	14.9712	-1.3048	4.6927	5.9823	4.4333	3.6014	5.9290	8.2765
1336.0000	-12.6247	-16.2176	-13.0477	-7.7948	-3.6932	-5.6570	-6.8946	-1.4015	10.5220	-9.3401	-5.3045	-0.4947	-0.5756	-3.2876	-3.4806	-6.3064
1344.0000	-12.4650	-11.2505	-10.4364	-10.1470	-5.3021	-6.4417	2.6574	-3.0486	-1.8387	-8.3628	-14.9060	-10.0080	-4.1325	-7.5510	-7.7662	-14.9832
1352.0000	-2.6094	-4.0196	3.0814	-4.1029	-2.1116	-3.6616	-0.7684	-2.2877	-10.1534	-4.3828	-7.7876	-7.3754	-5.2802	-7.1021	-3.4395	-14.8157
1360.0000	1.9013	-0.3682	10.7081	3.9086	2.2601	0.3908	-2.5823	1.4101	-1.5460	1.1095	1.7470	8.2504	-3.1260	-1.2219	3.5506	-5.7387
1368.0000	-1.3681	-0.8200	7.4498	3.5719	2.4253	0.7966	17.4970	2.8541	8.9068	4.4587	2.6426	9.9795	1.2250	1.9352	9.1265	3.1571
1376.0000	3.2192	8.3928	11.4094	5.2891	3.5769	1.3790	15.9730	2.4147	3.2904	4.1931	1.3713	10.4842	0.9750	1.5728	9.5693	2.4513
1384.0000	3.4162	8.2349	6.1916	7.7718	4.4036	3.8846	-0.2759	3.7483	5.5194	8.4065	5.7195	21.6496	2.0098	4.4556	9.4057	4.7160
1392.0000	-11.9141	-13.5432	-6.1186	-3.3757	-1.3107	-2.6658	2.9289	1.0522	8.8983	-2.3798	-1.1682	4.2552	0.3388	-0.2739	2.7031	-1.3160
1400.0000	-10.5052	-4.4761	-0.8860	-8.0677	-4.3304	-6.6247	4.8753	-2.1754	3.1584	-9.9886	-9.3859	-12.2282	-6.2700	-7.7983	-6.8198	-15.3552
1408.0000	0.7093	12.7764	4.2760	0.3829	-1.2536	-0.0483	4.4785	1.1258	10.9762	6.9625	2.1649	5.5001	-4.3015	-3.5305	-0.1879	-10.5301
1416.0000	3.9648	12.5926	7.4698	4.8236	0.5964	3.3154	-6.3134	2.6310	8.7890	10.1887	5.5064	9.7431	-4.7434	-0.2598	-1.4383	-6.7812
1424.0000	9.2020	23.5949	13.9645	6.4090	1.8955	3.7513	-1.6731	1.3384	-6.1760	7.0166	4.1664	4.1695	-6.6565	-1.2797	-5.0689	-8.3025
1432.0000	0.4505	15.6228	6.1477	0.9435	0.5463	0.2763	17.1113	0.8107	-2.7187	7.0251	9.3761	2.2540	-0.2590	-1.7850	7.7817	-2.6943
1440.0000	-3.2153	12.7783	0.6526	-5.3441	-2.9270	-4.4467	-2.8711	-2.2915	-1.1416	-5.3988	1.4917	-9.3511	-3.7061	-6.4491	-1.9042	-11.2138
1448.0000	5.9325	29.9658	9.6982	0.2581	-0.9401	-1.4570	0.8259	-1.1803	0.6499	-2.4340	4.6217	-4.2617	-7.3461	-5.5943	-7.8416	-13.1623
1456.0000	-4.4057	18.9096	12.1635	-0.8015	-0.6502	-2.7931	29.0702	1.9806	17.4613	2.9922	12.9612	-1.9875	-2.5870	-3.3677	8.8202	-4.6171
1464.0000	-12.4573	19.4468	9.7062	-5.8345	-4.2230	-5.6651	4.4611	0.8570	21.1504	-5.5110	0.1664	-16.2607	-7.5651	-6.2040	-0.7892	-11.8968
1472.0000	-5.5169	37.8258	9.3466	1.2739	-1.6700	1.2148	-20.2823	2.5748	10.6003	2.0855	-3.4954	-7.0233	-8.5030	-0.9152	-7.3611	-8.1438
1480.0000	0.9586	36.0026	2.6236	1.6621	0.0760	2.1272	-10.6921	1.0606	0.5707	5.3200	-3.8814	-0.7255	-0.5499	0.8955	1.5926	0.1107
1488.0000	3.4943	35.0373	2.1842	-2.6485	-1.4560	-2.4199	-4.5172	-2.5791	-3.3363	-7.1436	-9.8718	-10.4218	-2.8111	-3.9269	-6.5194	-6.5150
1496.0000	6.1469	43.6078	12.8793	3.5783	1.3158	0.2375	-3.4541	0.1702	-0.1051	-4.5755	1.2832	-1.9189	-6.3850	-1.7545	-7.6375	-6.5306
1504.0000	14.7869	51.5284	11.4333	5.0076	2.8969	1.4199	6.3921	-1.0434	-9.3813	1.2736	7.5611	4.6475	-1.5077	-1.9138	0.5349	-3.6090
1512.0000	17.3834	49.4750	4.2571	2.5229	2.4088	0.8680	12.6397	-3.0672	-13.7905	-0.7089	5.3943	-1.2928	3.7810	-0.8269	2.2752	3.8591
1520.0000	21.6878	56.2779	6.7075	7.2490	2.3858	5.6343	-0.4285	0.2641	9.5171	7.7171	11.8961	0.9994	2.9454	4.3184	-1.5488	10.7581
1528.0000	26.0889	73.1565	8.0277	10.7122	2.1369	8.2053	-12.2046	1.6727	17.8283	13.6028	13.4647	12.3320	-2.9134	3.4144	-10.8419	1.2272
1536.0000	18.0597	70.8225	6.3114	8.1425	4.0670	2.8965	-7.2919	-0.1407	0.8297	-1.2474	9.4599	18.9762	-2.3563	0.8963	-7.5705	-2.7921
1544.0000	13.0090	71.0125	2.5951	1.8583	2.8536	-3.1701	-7.3632	-3.1127	-2.3972	-13.5271	0.6445	11.3600	0.4554	-2.7893	-2.3984	-4.3107
1552.0000	6.1204	73.1364	-0.2615	1.1629	0.4154	-1.3343	-21.9959	-1.4443	2.5384	-8.3681	-6.8063	9.0460	-4.5252	-2.6944	-10.5709	-10.1256
1560.0000	6.7728	70.8804	0.3503	5.1966	2.5034	2.5594	-22.4221	0.4627	-2.0038	-3.2382	-2.5527	12.4756	-2.3240	2.4017	-8.6467	-1.0350
1568.0000	12.2062	77.4528	-4.7934	1.3009	0.8538	0.5165	-20.2250	-2.5385	-0.6108	-6.7188	-6.1986	2.6580	1.7555	0.8381	-7.5540	2.1953
1576.0000	8.3762	81.2261	-3.1445	-1.0814	-2.3865	-1.1318	-27.5077	-2.4155	12.5963	-10.4526	-12.4183	-4.1222	-6.4254	-2.6721	-21.4636	-9.4099
1584.0000	19.1899	94.8335	8.1081	2.2208	-0.6295	-0.5098	-3.5374	-2.5378	14.9931	-7.8920	-2.4539	-4.3601	-6.7216	-3.7754	-18.8596	-8.9586
1592.0000	18.4617	97.2110	5.0663	0.1243	0.1356	-2.0410	-0.9016	-4.1738	1.5038	-8.8863	4.6692	-6.4272	-0.8420	-4.0370	-7.0821	-3.4790
1600.0000	3.3679	91.2091	-4.0102	-4.8452	-2.0051	-5.0775	-20.3785	-4.7373	-5.1816	-18.8725	-3.3829	-10.4903	-3.8275	-4.9244	-14.3381	-8.1483
1608.0000	6.7753	107.9435	-1.0745	-5.5253	-2.2846	-5.7912	8.5265	-5.5520	-4.2851	-19.1779	-12.4201	-14.5744	-4.6372	-6.6046	-17.7951	-10.0088
1616.0000	12.7348	111.5694	9.0679	2.7287	1.2325	-0.1385	8.6899	-1.5713	1.2160	-6.1614	-6.1516	-2.2891	-3.8313	-2.0045	-9.9392	-4.4046
1624.0000	22.1061	118.6268	17.0469	8.2993	2.0153	4.0333	-6.7592	0.4057	11.7874	2.9379	1.8892	2.4481	-6.7865	-0.8182	-11.7726	-6.0224
1632.0000	20.4872	120.7603	15.7197	2.5351	-1.3606	1.7425	2.7207	-2.2586	1.7550	4.3492	-5.5870	-13.1950	-8.1378	-6.3073	-12.3248	-13.6212
1640.0000	2.8481	-90.9056	3.9941	1.4867	1.9008	-0.4794	10.6180	0.7612	4.6546	4.7508	9.4380	7.6471	5.3278	0.3367	15.9367	4.6610
1648.0000	-13.9691	-104.5400	-9.3390	-9.0418	-4.0282	-5.0181	-8.6051	-2.3046	-11.4243	-2.3261	-3.5997	-9.7314	0.4938	-5.6430	6.0316	-8.4093
1656.0000	-13.5317	-85.9613	-9.9419	-8.9786	-5.7787	-3.7538	-11.0273	-2.2260	-8.7415	-2.2043	-6.8549	-13.9133	-5.3215	-6.3569	-8.2850	-14.2459
1664.0000	-9.8293	-73.1495	-5.2545	-2.4428	-1.9062	-0.9159	4.1371	0.6172	0.8849	-2.2115	-2.8432	-0.6984	-4.0774	-0.5604	-9.1981	-5.0238
1672.0000	-7.5538	-60.9090	-0.5238	1.9121	0.5593	0.7834	-1.5471	3.0712	12.3376	1.1000	4.0483	9.6848	-1.6331	2.8193	-1.0255	1.1095
1680.0000	-6.8232	-55.6170	1.8539	3.8267	0.2624	3.8332	-8.0873	5.0719	20.4964	10.0943	7.6956	7.0942	-0.5668	5.4321	3.1524	6.1503
1688.0000	-7.4958	-65.9970	0.6918	4.2070	1.6125	4.1126	-10.6988	4.9279	16.3448	5.7549	6.9948	2.7299	3.6731	9.0481	6.5101	16.7811
1696.0000	1.3065	-60.6605	1.7553	5.4074	2.7947	4.0705	5.8139	2.8573	4.0509	4.7669	3.0130	7.8595	2.5182	6.3806	1.5505	10.9237
1704.0000	5.9834	-49.0982	7.1586	6.7595	2.7984	5.0611	16.7195	2.5267	-3.4607	10.1764	-0.2609	9.6176	-1.4145	3.0358	-1.4106	1.5631
1712.0000	12.1341	-37.5756	14.5220	10.9763	5.7925	5.9684	3.9733	4.1162	8.9596	11.0817	12.6545	14.9904	4.1213	6.7013	12.9995	12.7475
1720.0000	9.7455	-33.0070	12.5519	12.7052	7.0597	6.8473	1.3033	6.1733	21.6305	11.9345	20.0373	21.3467	8.1862	11.2194	19.2958	22.7832
1728.0000	-3.4707	-37.5279	4.2442	6.9732	3.9624	4.3785	4.3488	5.1231	12.3677	5.5989	7.7200	12.3032	3.9084	9.0279	8.0378	15.9555
1736.0000	4.4788	-19.7647	4.0811	6.0039	3.1909	3.6045	10.7104	2.2803	-0.0926	6.0422	4.3109	13.3183	0.6705	3.6080	1.5509	4.0737
1744.0000	6.0108	-14.7963	0.1227	7.0315	3.2846	5.5401	0.7912	2.5544	-4.7717	13.2874	4.9789	21.2376	1.5042	3.6141	4.1001	1.8004
1752.0000	-6.4474	-30.0966	-9.2914	1.1941	0.6145	2.6378	-9.2444	1.6350	-6.0741	4.8635	-1.9611	10.7341	1.5505	3.7042	-0.3091	3.1123
1760.0000	-9.2191	-17.8184	-8.0796	-1.3856	-0.7769	0.0507	2.1234	0.5085	-4.7875	-3.8013	-4.9093	1.9592	-2.4863	1.5773	-10.2829	-0.9648
1768.0000	-12.1906	-15.4498	-9.3399	-1.1842	-0.9224	0.5423	-10.2673	1.2105	-3.8358	-3.7028	-6.5293	2.9619	-3.0175	2.4978	-10.6883	-0.8800
1776.0000	-14.5468	-26.8544	-19.2247	-5.6562	-3.3749	-1.1356	-9.5376	-0.7274	-6.0663	-4.9621	-12.1748	0.0807	-2.3809	0.3698	-14.5684	-4.1946
1784.0000	-19.0173	-12.9926	-17.6448	-6.2113	-4.5713	-1.0779	-2.1433	-0.3695	-9.1400	-6.7430	-18.7282	-4.0658	-8.6320	-1.0324	-26.2564	-11.3530
1792.0000	-17.8185	-6.9833	-7.8083	-0.8491	-1.6767	1.7549	-21.3156	2.3685	-4.9435	-5.4614	-16.6892	-3.4783	-7.3015	3.7984	-19.1966	-2.3669
1800.0000	-10.3215	-4.2587	-3.7251	-0.0625	-0.9675	2.1650	-14.8697	2.0622	-1.0442	0.8371	-9.1348	-4.4884	-2.3099	3.5692	-6.4301	2.6365
1808.0000	-4.7639	19.9701	2.8185	1.0777	-1.7299	3.3137	-7.4608	2.0220	-2.1746	8.3602	-5.9924	-5.2993	-6.4103	0.0054	-8.1735	-6.3481
1816.0000	5.9276	21.7164	5.3546	4.3414	0.8208	4.2353	-2.2749	1.4648	-1.6584	9.3274	-2.1917	2.5940	-2.4009	1.1436	-2.6259	-1.6123
1824.0000	-5.0282	-4.9333	-13.1054	-6.6712	-2.5744	-3.2751	-9.3501	-3.4513	-12.8108	-6.5899	-9.8883	-6.5930	1.9721	-2.8453	-2.5728	-3.0811
1832.0000	-19.9104	-13.6640	-23.7562	-17.2585	-8.9241	-9.0776	-38.1471	-7.0233	-22.2022	-19.7581	-24.8408	-26.1951	-5.8462	-10.0493	-18.6642	-19.7082
1840.0000	-10.7110	-8.0049	-10.8231	-11.0608	-6.2628	-5.9577	-13.7709	-4.4091	-9.3008	-11.2706	-21.4056	-20.4024	-5.4741	-7.8255	-13.5955	-15.3762
1848.0000	-10.8550	-5.2221	-5.1002	-10.2448	-4.8939	-6.8387	-2.3276	-3.6494	-4.7407	-12.1481	-20.8525	-20.5946	-3.1005	-7.0740	-5.4775	-10.9507
1856.0000	-4.0170	13.2282	2.3587	-6.9654	-3.8857	-4.7330	-12.8956	-3.8465	-12.8295	-11.1259	-25.6161	-22.3893	-6.8300	-7.8141	-10.7317	-15.3754
1864.0000	9.3340	33.5121	15.8509	6.4457	3.1987	4.6272	20.0685	1.4998	-12.0064	9.8619	-14.8670	-1.7958	-0.9799	1.1750	3.8020	1.0361
1872.0000	-0.7950	31.8594	8.3134	2.6174	2.0051	3.2848	14.8087	1.5758	-14.4670	8.9734	-15.6180	-6.5691	2.9459	2.5816	10.6026	6.7471
1880.0000	-0.3389	37.4788	6.5272	-2.1271	-0.9863	0.0054	0.9477	-1.9468	-23.0809	-0.3013	-22.5017	-19.2930	-2.5429	-3.1985	-1.7153	-5.0936
1888.0000	12.2361	51.0456	15.1119	5.3005	2.6150	4.1565	11.5837	-0.4089	-23.7358	8.7639	-9.6861	-5.7517	-1.9678	-1.2490	2.0986	-2.9382
1896.0000	8.3079	39.7669	2.6643	1.8142	0.4807	3.0880	-1.6804	-1.1697	-20.1370	10.5371	-5.4473	-0.2626	-0.1310	-2.2074	2.8331	-5.1962
1904.0000	1.5893	22.4025	-5.9915	-4.5414	-1.9476	-2.0163	1.7037	-3.9438	-24.0179	-0.1348	-13.1339	-3.1970	-1.7596	-6.6488	-3.6175	-13.3119
1912.0000	0.2187	24.5852	-5.8081	-7.5396	-1.8314	-6.1907	-2.9832	-6.1988	-27.9943	-12.9099	-10.7395	-10.0125	-0.3657	-8.2601	-2.1544	-11.8965
1920.0000	-4.8394	30.4078	-13.7741	-11.0006	-5.6130	-5.6744	-27.7516	-6.4483	-23.3563	-10.8809	-10.5339	-18.8722	-2.9815	-8.7819	-9.8683	-14.9951
1928.0000	-7.8759	24.6491	-10.0272	-7.8941	-5.2522	-2.2117	-21.6264	-3.9227	-26.3280	-2.5471	-14.2974	-15.4282	-7.1427	-7.4785	-14.1073	-18.2977
1936.0000	-7.2163	15.3054	-3.1729	-8.7079	-2.1843	-7.2380	-8.3348	-6.0355	-35.6345	-18.8555	-11.3728	-18.3988	-3.4693	-8.3557	-5.9924	-12.9643
1944.0000	-10.2023	15.9370	-7.0971	-14.0916	-3.2851	-13.0396	-5.5369	-9.0992	-35.2013	-35.0543	-8.8088	-27.3083	-2.1211	-10.7403	-8.1882	-11.9899
1952.0000	-2.4175	88.9236	-5.5955	-6.6322	-4.1329	-2.8794	-9.6084	-2.9024	-5.4049	-0.0410	-8.6090	-11.5384	-1.8874	-6.1383	-1.8039	-10.5944
1960.0000	-5.9541	69.5239	-13.3816	-9.5896	-4.9437	-3.8916	-22.4762	-3.7163	-7.9551	0.9310	-13.5240	-11.4855	2.9763	-5.9804	6.4935	-7.5912
1968.0000	-6.7975	63.3827	-19.0963	-16.8577	-9.8237	-9.2614	-45.4789	-8.2545	-10.2541	-12.6788	-15.3193	-24.7647	-4.9904	-14.1348	-11.7180	-24.9978
1976.0000	-7.7024	69.0529	-13.7781	-13.6562	-9.6066	-7.2771	-31.3171	-5.7682	1.4536	-11.4138	-14.0582	-22.5655	-10.5815	-12.3547	-22.6873	-26.6129
1984.0000	-6.7559	69.8351	-7.6063	-9.6485	-6.4408	-6.1291	-8.4643	-2.7934	15.7825	-6.9584	-12.8291	-12.7205	-5.1845	-8.0164	-9.3611	-15.6226
1992.0000	0.0730	86.9849	-4.3849	-8.2013	-4.1811	-7.0482	0.1578	-3.2772	20.6911	-8.9215	-9.0420	-8.9576	0.5803	-6.8415	1.1776	-7.9103
2000.0000	5.9216	80.8850	2.7111	-3.9421	-2.2529	-5.0407	-6.1462	-2.4438	19.5504	-7.7188	-4.7461	-5.2473	-1.0386	-5.7870	0.2287	-7.8313
2008.0000	11.7478	84.8389	9.7231	-4.1790	-2.6191	-7.0669	4.1146	-3.7861	19.6305	-8.4321	-4.8362	-3.8622	-5.2374	-11.4607	-1.8089	-19.8529
2016.0000	8.9696	101.0683	9.1500	-1.3043	-0.7731	-5.1158	6.1376	-1.1460	29.2445	-6.1854	0.8269	2.6785	-1.5969	-5.9642	3.6692	-8.7667
2024.0000	0.9901	80.7876	-1.9817	-3.7968	-1.8334	-5.5912	-26.1614	-1.3547	29.6992	-13.4558	3.3773	-1.3373	0.8440	-2.2538	0.8457	-0.9695
2032.0000	-3.0903	75.7329	-4.4338	-9.8719	-3.6393	-11.0031	-25.9249	-5.6075	9.3921	-27.5821	-5.4597	-12.3804	-2.9081	-8.6602	-7.2036	-12.1508
2040.0000	6.0334	86.8524	6.0051	3.0699	2.3756	-0.9604	-7.8110	0.1690	9.2822	-7.4432	3.7646	6.6009	0.1369	0.8585	0.6980	1.9897
2048.0000	17.7143	89.0051	-4.2574	3.1779	1.1150	1.4568	0.7370	-0.6390	20.6975	6.5200	13.9291	17.4337	5.3541	0.6413	4.6259	3.5095
2056.0000	8.5768	84.5500	-19.2454	-12.7512	-4.1243	-11.3736	11.5827	-9.4300	0.0582	-19.5347	1.0466	-1.9936	5.1591	-11.2352	-2.1159	-11.1122
2064.0000	2.7451	66.7518	-9.8860	-7.9177	-0.3678	-9.0775	-3.6346	-7.4810	-18.7735	-26.9221	-2.4798	-6.4552	3.2349	-5.9911	-4.0115	-3.4885
2072.0000	3.0049	68.1412	-2.7539	-2.6744	1.4082	-5.0380	-11.7536	-4.5725	-19.8441	-19.4053	-0.3394	-1.1549	0.7222	-3.2450	-3.4879	-2.9397
2080.0000	-0.1907	71.1682	-3.8333	-6.9279	-0.1709	-8.3172	-0.8455	-6.3861	-24.6427	-22.8997	-4.8128	-7.4429	0.2855	-7.1943	-2.4029	-8.2086
2088.0000	3.7916	62.2023	-2.6303	-7.3167	-1.6497	-7.2696	-6.2289	-6.8611	-20.6021	-20.5934	-7.6247	-16.1443	-0.8839	-7.6119	-6.5331	-8.5486
2096.0000	-8.6919	-37.5670	-25.6901	-15.4405	-9.0738	-6.0393	-11.1678	-6.4300	-0.9501	-12.0903	-11.6681	-30.4986	0.5005	-5.1374	-17.2901	-3.6305
2104.0000	-12.7353	-50.7869	-30.1476	-18.3977	-9.3803	-8.2662	8.0817	-7.7159	-5.7712	-18.8751	-21.7896	-34.7053	1.9888	-5.1976	-20.1573	-1.3923
2112.0000	-8.5200	-51.0550	-24.3831	-13.8475	-7.2143	-5.9736	5.6714	-5.3149	5.2953	-12.2431	-16.5612	-24.7900	4.0691	-2.6015	-11.7017	2.9738
2120.0000	-5.7029	-23.5960	-12.8164	-3.4477	-3.2963	1.2271	0.2117	0.4909	14.1881	1.2677	-1.2443	-9.8804	2.0768	4.1242	-8.2804	9.4136
2128.0000	-5.1345	-15.8603	-11.5862	-0.0543	-0.2332	3.2158	-8.4512	1.2266	1.3140	1.6512	5.6227	-4.5034	5.5769	7.7923	-1.3078	17.3284
2136.0000	-7.4475	-19.9925	-17.8219	-2.6630	-1.7277	1.5702	-9.2984	0.7164	7.3411	2.2352	8.5518	-0.3172	6.1851	6.0153	-0.2841	13.9346
2144.0000	-17.8016	-21.1481	-21.3267	-2.8597	-2.7194	1.8990	23.8832	4.0182	25.5846	6.1564	9.7512	7.5820	3.5875	8.0677	-5.9532	13.8746
2152.0000	-28.3609	-39.8890	-29.4072	-14.4039	-7.4807	-6.7635	18.4538	-0.8922	18.6765	-11.0986	-5.0592	-11.5992	1.7859	0.2553	-10.8043	3.2760
2160.0000	-32.3444	-40.4274	-26.8348	-14.0285	-8.2315	-6.6854	-21.1535	-0.8154	12.1032	-16.5292	-4.4364	-15.7284	-4.7159	-0.9120	-19.4292	-4.4177
2168.0000	-20.9930	-24.2815	-13.2028	2.7164	-0.4103	4.5123	-6.4455	5.9218	13.7531	-1.2164	10.8890	9.7633	-5.1381	10.5919	-20.4942	9.6634
2176.0000	-9.9384	-27.1013	-11.5746	0.0994	-0.4476	1.7706	22.7992	2.0167	6.0356	-3.5274	0.1778	3.9553	-1.6839	5.9680	-16.9717	7.3603
2184.0000	-11.8706	-20.0892	-11.5456	-1.6170	-1.4224	0.5129	8.6767	1.6963	6.9726	-2.5433	-3.4840	3.4293	-1.7986	3.6603	-12.1518	2.8033
2192.0000	-12.4412	-11.4793	-8.0901	0.2204	-0.0909	0.5270	6.7501	2.9191	11.5453	-2.4719	1.5600	9.0359	-1.2786	4.6165	-7.4400	4.3061
2200.0000	-18.1978	-12.0348	-1.5066	-4.9094	-1.4684	-4.5572	26.9757	0.9454	6.0400	-12.7443	-4.7432	-9.5838	-2.6745	0.4873	-6.1015	1.7536
2208.0000	-21.9775	-8.1562	3.5267	0.7013	0.8037	0.9866	21.7393	5.9431	14.3909	0.2976	5.0397	-5.8654	1.3351	8.2679	6.3923	16.5033
2216.0000	-20.2774	-12.8333	-2.8405	-1.4020	-1.0915	0.7372	13.7862	5.0171	20.5801	2.2191	1.5331	-6.0795	2.0049	7.1474	4.2962	14.3665
2224.0000	-21.3271	-6.7617	2.5141	0.9253	0.4130	0.6848	21.6113	5.0361	8.8975	-5.2439	-6.3889	-3.3534	-4.8130	6.2233	-8.9884	6.8232
2232.0000	-12.9891	3.2098	11.8681	18.8309	9.7025	13.3026	18.3043	13.4002	12.4921	16.1113	13.2629	30.6246	1.9107	21.5651	6.0179	30.4423
2240.0000	-8.5939	3.3123	8.0651	18.6878	9.5288	14.3742	3.7252	12.6979	12.3766	20.0196	13.4863	30.5738	5.9671	22.4039	11.6679	34.4056
2248.0000	-9.2656	2.7839	0.4529	9.7556	5.7236	8.1826	8.1931	7.1444	0.1641	8.9489	8.5205	15.3510	5.1978	14.7979	6.1386	24.8462
2256.0000	-8.6433	-18.0676	-15.8339	0.2151	1.2900	2.3414	20.1356	2.4316	6.6283	3.9271	11.0948	9.8282	9.7806	9.2463	6.6143	21.3887
2264.0000	-7.3779	-19.6300	-15.1704	-2.1471	-0.8705	-0.3616	7.3334	0.2497	7.1913	-6.0860	1.9425	4.3421	2.0298	4.3245	-9.8010	7.7839
2272.0000	3.9954	1.8292	-4.2257	9.6815	5.4805	6.8398	8.1344	4.3090	4.9648	7.5044	13.2149	26.5613	5.2076	10.8545	1.2025	17.0146
2280.0000	1.7174	-1.4872	-12.3565	6.5064	5.1536	5.4219	15.0512	4.1165	10.9030	14.1525	16.7499	31.3163	15.0810	11.5091	21.2363	25.2532
2288.0000	1.6467	8.3684	-4.2514	5.4640	3.3893	3.4850	-11.1353	1.9655	-1.2344	1.0663	1.5696	17.9583	2.3884	5.8128	-0.8055	7.1958
2296.0000	14.4281	21.6166	6.2879	14.6255	6.2349	11.2953	-15.1771	4.4984	-7.3742	16.4182	6.8043	24.9398	-0.1371	9.0975	-2.7819	8.2489
2304.0000	5.9257	19.7670	0.8301	11.0299	5.1480	11.1358	8.9154	5.5105	-8.8790	28.5056	9.1380	23.3476	7.2502	9.7031	16.0979	15.1182
2312.0000	2.3595	30.9945	8.5062	12.7561	7.5712	10.2478	14.0499	6.0175	-21.8307	23.8851	8.9897	24.9600	5.9463	9.4910	19.7925	14.1203
2320.0000	2.4498	26.2723	8.1987	11.8260	6.9944	9.5136	-6.7292	5.7071	-16.3194	21.2954	13.2321	20.1847	7.4742	9.9785	23.0016	17.2321
2328.0000	-4.8153	21.2272	3.0118	2.8491	1.5883	3.4180	-17.2186	2.8195	-6.5355	11.0275	8.0449	2.6435	3.6870	3.6810	15.6630	7.3405
2336.0000	-0.7660	27.4923	8.7878	3.4790	2.3820	1.3605	9.9847	2.3701	-2.1961	8.6646	7.9309	8.7853	1.2175	0.3472	13.8638	0.3873
2344.0000	-4.3213	16.5490	5.2405	-0.2768	0.5680	-1.7920	2.2746	1.7586	10.6159	4.7885	6.4954	6.1986	2.7851	-1.2489	17.5516	-0.2226
2352.0000	-2.7282	20.5712	5.6508	-1.6281	-1.9136	-2.8066	-24.8688	0.5317	15.4732	-1.0593	6.0856	0.0037	-4.4565	-4.5634	3.1016	-10.9094
2360.0000	-0.0362	28.8856	10.6449	3.0004	0.0410	0.1628	-0.2703	2.7425	16.2359	6.4043	10.0898	10.5317	-6.4047	-3.0253	1.3879	-11.6008
2368.0000	-11.5189	17.4153	5.2472	-0.6948	-0.4733	-1.7419	6.2850	3.7413	22.0870	5.3446	2.7917	5.8370	0.1981	-0.1937	13.8588	-0.9610
2376.0000	-9.5936	10.5902	-0.1875	0.9343	-0.6019	1.8674	-1.7739	4.6671	22.8430	13.0617	-2.7290	8.7817	2.1185	2.9581	12.6449	3.3536
2384.0000	-6.3492	4.9861	-2.6971	5.2117	-0.6638	8.0487	10.8028	6.2949	11.6411	27.8100	-2.5587	18.2365	-3.3399	3.8761	-0.0825	-3.6185
2392.0000	-7.8142	-3.2275	-3.1998	4.5875	0.0536	6.9341	-2.7238	5.2185	3.1812	19.5697	-0.5122	12.9104	-2.2648	4.9369	-0.5522	0.4586
2400.0000	-6.5409	-12.4123	-3.7524	6.9376	3.2931	7.5051	-13.5089	6.5245	14.2258	15.4833	-0.3489	14.3732	8.5415	12.6138	14.9530	22.5662
2408.0000	-4.2945	-14.8803	-2.8808	5.4275	1.6597	6.7410	-2.2336	5.5678	16.4079	16.0441	-4.5821	10.4164	5.3595	9.5273	8.6020	15.7480
2416.0000	-0.2055	-8.7207	-0.7635	2.9316	0.0623	3.1287	-6.0794	2.4302	8.6179	8.8263	3.9251	9.2100	-1.5115	1.9332	-1.1821	-0.9451
2424.0000	-8.6791	-13.4184	-5.5700	4.0504	2.0507	2.8167	-14.4070	4.8482	16.6136	7.3252	5.9598	22.6941	3.2411	6.3895	8.7052	7.3787
2432.0000	-11.1687	-14.0185	-8.3441	-0.2909	-0.2624	-0.3930	-0.3471	2.8947	16.3706	1.7117	-7.5559	17.1999	-0.0982	2.0291	0.2625	-1.6174
2440.0000	-8.0292	-9.5311	-7.6723	-3.8771	-2.4598	-2.7394	7.6863	-0.0096	8.3276	-0.9053	-9.0185	7.4481	-3.3270	-3.5250	-5.5501	-11.0183
2448.0000	-12.3477	-12.1127	-9.4328	-2.7207	-1.7057	-0.5223	-9.8933	1.8191	9.5967	2.8046	-9.1638	5.8237	1.0850	1.2981	2.8420	-0.2684
2456.0000	-3.8602	-3.7209	-6.2280	-4.0298	-3.2268	-2.1697	-8.0235	-0.7766	12.7482	-4.2447	-11.7130	-4.1010	-3.1072	-2.2642	-9.5373	-6.4900
2464.0000	-1.2285	1.7735	-6.6037	-2.6503	-3.5414	-1.6268	-3.2620	-0.2625	21.8684	-4.2003	-6.6875	1.8615	-6.6018	-2.5875	-18.3123	-10.5789
2472.0000	-7.2973	-2.8524	-14.3250	-0.0339	-2.1976	2.5468	-15.6513	2.5792	18.7529	5.6567	-8.5072	13.5102	-2.3265	3.1633	-11.3782	-2.3577
2480.0000	-5.1676	0.1486	-11.2017	-1.4887	-1.8008	1.4822	-3.6954	0.6524	2.8394	4.4979	-12.6607	5.2038	-0.5657	1.1417	-6.7173	-2.1567
2488.0000	-3.1901	4.6705	-0.0114	2.2253	0.7358	2.2838	3.2983	2.1906	3.2031	4.5374	-6.7655	5.3594	-0.4353	2.7358	-0.7006	1.9922
2496.0000	-3.0484	7.3923	0.1304	3.1223	0.6877	3.4569	-1.7940	2.6571	1.5607	7.3637	-5.0231	6.8218	-1.5630	2.9109	-1.8382	0.5633
2504.0000	-6.9452	4.3187	-5.4310	-5.8897	-3.5976	-2.8999	1.4208	-2.0004	-8.0389	-1.7409	-12.6845	-6.9667	-4.5892	-5.8179	-7.1307	-13.4774
2512.0000	-3.6395	-3.7990	-2.7294	-6.4836	-3.5075	-4.9188	-20.2683	-3.3290	-6.8867	-7.1553	-11.1602	-8.2862	-4.5260	-7.9578	-4.1808	-16.2624
2520.0000	-2.9612	-2.6980	1.8613	-2.6191	-2.3707	-1.6181	-25.5338	-1.2350	-6.2843	-2.4702	-8.5441	-6.8701	-6.2345	-5.0535	-5.9903	-13.6293
2528.0000	-7.4206	3.6675	4.5876	-3.9581	-3.0170	-2.0686	17.9080	-0.1225	-1.9720	2.2495	-14.6441	-10.3936	-6.3234	-5.5960	-4.1894	-13.2144
2536.0000	8.4734	9.0984	9.4065	-0.0786	0.6485	-1.9682	35.7791	-0.6294	7.9585	6.1907	-9.5593	3.1909	2.4242	-4.6859	12.6069	-4.9614
2544.0000	17.4897	12.1461	11.7787	3.5614	3.6181	-1.9240	10.7866	-1.7586	0.7337	1.3503	-2.1925	14.8332	3.5193	-4.8294	15.2812	-6.0024
2552.0000	13.1163	6.7732	9.7591	2.9459	2.8279	-1.4746	-3.5794	-2.1399	-11.4314	-1.2668	1.1653	10.9462	-0.5001	-5.2858	7.1145	-10.1140
2560.0000	9.6488	0.3391	7.1305	4.2936	3.1033	2.3475	-0.3286	-0.3394	-14.2023	4.7628	4.5115	3.7944	2.9053	0.6940	8.6926	3.2237
2568.0000	3.0722	0.3031	6.3975	3.9299	3.2548	2.3052	1.9155	0.0366	-21.9351	-0.1273	-5.7922	0.5967	0.4810	1.8438	1.8697	2.9765
2576.0000	11.3675	0.0312	4.5722	4.1081	2.8777	2.1035	0.7145	-1.9073	-26.5840	1.5434	-6.7199	7.9323	-1.7701	-2.1820	-3.1567	-7.2251
2584.0000	17.9171	4.8873	4.4216	4.2827	2.0759	3.3304	1.4785	-2.1733	-20.4245	9.3424	2.4810	7.0047	0.5039	-2.7120	1.7787	-5.7044
2592.0000	17.9536	18.1309	11.5424	2.0391	1.2948	-0.9203	3.3805	-3.7223	-15.4136	-2.8270	0.9148	-2.3002	-3.6143	-6.5344	-3.5922	-11.6784
2600.0000	24.4229	19.7276	12.1773	5.7872	3.3597	0.7045	-7.0622	-3.1952	-10.6032	-3.9034	7.1666	5.9823	-2.0711	-3.7217	-3.9700	-6.8732
2608.0000	18.8100	13.8057	6.6492	8.2128	3.7229	5.9317	-3.6834	0.0470	-11.2620	9.5905	4.9293	10.4872	0.9161	2.1728	-0.3164	2.1479
2616.0000	19.2904	18.7824	10.5015	3.6544	1.4238	1.5882	15.8120	-2.6862	-16.1135	5.3873	-4.3741	2.7483	-3.8826	-5.7726	-4.6606	-12.6588
2624.0000	27.7135	22.9260	14.9017	5.9161	3.3306	0.2842	4.3247	-3.4706	-10.4577	0.5963	8.9587	10.2028	-2.6025	-6.5573	-0.4033	-12.4243
2632.0000	19.6874	16.9520	14.3245	8.3087	5.4583	1.8644	3.3826	-0.8551	-11.8495	0.0124	10.4166	15.2941	-0.5060	-1.2214	3.3822	-3.2265
2640.0000	12.0573	7.4429	10.1900	-0.3018	1.9180	-4.0406	22.4689	-4.5217	-22.5666	-9.4640	-5.3215	-0.8658	-2.5750	-7.8272	-1.2762	-12.5793
2648.0000	12.6894	4.2179	3.8388	-3.8564	-0.0545	-5.5668	8.7481	-6.2134	-17.0803	-12.5514	-5.5134	-8.7629	0.3574	-8.1371	-0.5183	-9.2696
2656.0000	9.5256	6.0500	5.5236	0.1700	1.7182	-2.9794	-2.2382	-3.0035	-7.3581	-10.0892	1.6988	-0.9795	0.9671	-3.0700	1.7650	-2.0885
2664.0000	4.2789	1.5131	5.4799	-4.7511	-1.2783	-7.0304	1.9671	-4.7907	-9.4122	-15.4538	3.0577	-7.9208	-4.9994	-9.4225	-5.2785	-15.6115
2672.0000	5.7359	0.9134	1.5717	-9.6923	-4.5828	-9.0382	-0.8404	-8.1464	-19.2124	-18.3312	-2.6044	-21.0351	-8.1770	-14.5774	-14.0858	-24.7150
2680.0000	8.0221	4.9795	5.7756	-2.7959	-0.7827	-4.1304	-10.3249	-5.4109	-25.2300	-13.6576	-3.1506	-11.4601	-6.7861	-8.5494	-11.7695	-16.4087
2688.0000	7.9472	2.9300	4.3180	-1.0645	0.5862	-3.8668	-9.9072	-4.0989	-14.1567	-14.7387	1.1996	-3.5486	-3.9259	-5.4341	-8.4424	-9.8363
2696.0000	12.8851	10.2876	3.2710	-6.5305	-2.4500	-8.0185	8.6750	-7.4339	-5.9403	-20.2625	-2.5112	-16.4034	-4.2117	-10.6283	-12.5934	-14.5290
2704.0000	18.9433	22.3224	16.0707	-1.5940	-1.2420	-5.1668	-5.6080	-5.9314	-5.9933	-15.7769	3.5954	-17.5355	-9.0529	-10.7989	-14.2836	-18.4138
2712.0000	24.7576	16.2766	17.4526	3.8406	0.9766	-0.9098	-13.6586	-3.4410	1.4070	-5.0721	14.9868	-4.7529	-5.7702	-6.6555	-6.5413	-11.6418
2720.0000	19.3081	1.5739	4.9322	-4.7632	-1.9300	-5.5165	3.9055	-7.0078	-6.7031	-8.1992	6.2589	-13.9919	0.1652	-10.1849	0.0633	-10.9801
2728.0000	7.4286	1.0476	3.0406	-12.2745	-5.6940	-11.1900	-25.3002	-10.0498	-20.5271	-23.0769	-4.0870	-31.1876	-7.0991	-16.8441	-9.8742	-25.5835
2736.0000	15.0090	12.2036	10.3202	-5.4079	-3.1569	-7.3676	-30.1938	-7.4415	-8.5512	-19.2472	-0.2579	-21.0536	-8.8699	-13.1501	-13.2256	-22.6058
2744.0000	22.8115	11.6582	12.5826	1.8176	0.0716	-0.7111	-10.8510	-3.6824	3.6174	-4.0718	3.4869	-10.8484	-2.0588	-4.8873	-4.2400	-5.4317
2752.0000	16.6604	3.3733	7.5286	-2.7814	-2.2279	-3.0877	-32.1577	-5.7564	-5.5220	-12.6536	-0.7174	-23.7080	-3.8224	-6.6326	-10.2371	-8.0491
2760.0000	13.5417	5.3825	4.1063	-6.2169	-2.4819	-5.7133	-28.5749	-8.3782	-24.0205	-20.8255	-5.4837	-30.7200	-3.2446	-8.6436	-11.8756	-9.3723
2768.0000	16.6122	9.6323	8.0661	-1.7467	-0.8877	-0.7765	-14.3592	-5.7104	-24.7231	-5.7674	-1.1752	-25.7728	-0.7848	-5.1674	-4.0657	-3.1674
2776.0000	19.5830	7.0734	12.7989	-0.6177	-1.0707	-0.9854	-7.0585	-4.7742	-10.3015	-3.6863	3.3197	-23.0336	-2.3706	-6.0807	-3.9572	-5.5262
2784.0000	16.1044	-4.8727	7.6927	-5.8419	-1.5886	-6.7364	4.1371	-7.9636	-17.1238	-17.1386	-3.6501	-25.0343	-0.9451	-9.7827	-4.3929	-8.9526
2792.0000	13.5308	-16.2277	-2.5063	-9.5542	-4.2600	-7.4204	-9.6357	-9.1791	-16.2519	-15.5814	-8.7567	-25.7727	-0.6958	-11.4527	-7.2604	-13.0498
2800.0000	12.1344	-10.4212	-4.3607	-4.5763	-3.0166	-2.1581	-8.7513	-4.0998	10.3460	-3.2331	-5.6040	-15.5970	3.9740	-2.8780	-0.9781	2.1061
2808.0000	9.5027	-5.3128	-6.8679	-0.1778	-0.3106	2.8775	-4.3983	-0.5393	16.0074	3.4297	-7.8173	-12.8422	11.5341	7.2087	6.8700	23.6010
2816.0000	9.3049	-13.0786	-13.4832	-4.5552	-3.6223	1.4706	-12.5385	-3.1094	10.6009	0.9922	-10.6078	-21.8791	8.2483	3.4186	-3.5079	15.5800
2824.0000	0.2655	-12.3446	-11.0570	-5.0997	-3.7416	-0.3054	4.2948	-1.6604	14.0054	-3.0935	-5.2369	-19.3715	3.8308	2.6932	-8.0702	11.3015
2832.0000	-10.5587	-6.1400	-13.1513	-5.5931	-3.5073	-0.5366	4.6784	0.5082	18.4464	-3.8980	-2.1358	-18.0422	5.0949	5.7737	-3.9499	17.0398
2840.0000	-18.6935	-14.1319	-26.7136	-14.2451	-8.5754	-4.6711	-19.2887	-2.0019	23.1903	-7.1460	-5.8255	-27.1103	5.7456	1.5162	-4.3135	10.8295
2848.0000	-26.5527	-23.1246	-31.6142	-16.6744	-9.9186	-5.2291	-17.9442	-2.2348	14.4824	-8.9220	-11.8048	-30.0384	3.2194	0.7840	-10.4445	6.9761
2856.0000	-22.7135	-16.4141	-25.9601	-10.0938	-6.8395	-0.9103	-1.0075	0.2557	10.5443	-2.8751	-9.5063	-18.3776	0.9802	4.1613	-14.7897	8.4863
2864.0000	-19.3183	-12.8376	-20.3270	-4.6078	-2.9622	0.6717	2.0992	2.3765	12.4734	0.2951	0.4976	-1.5754	3.3393	6.7561	-5.3903	12.4069
2872.0000	-18.3088	-19.0863	-15.7270	-4.2929	-1.4857	-1.0251	-2.2420	0.9650	-2.7734	-5.8076	0.9433	-1.1783	2.0226	4.3770	-4.1451	7.9230
2880.0000	-12.7228	-11.4618	-9.3348	-3.7968	-2.0121	-2.0760	-6.1826	0.2826	2.7605	-7.0937	2.1508	-1.6419	-2.0950	0.7117	-7.8182	-0.6940
2888.0000	-13.3705	-1.7891	-7.0766	-1.8580	-1.6571	-0.7387	-8.6620	2.9935	22.4373	-0.3278	8.4890	3.5996	0.4919	3.4337	1.0288	5.1362
2896.0000	-18.9041	-7.3486	-11.7291	-5.3385	-2.9918	-1.5456	4.2291	2.5800	19.9023	0.7890	5.2460	-5.1409	3.9447	4.1263	5.3527	10.6231
2904.0000	-21.6731	-6.6827	-11.0300	-3.7461	-1.6679	-0.7343	13.8099	3.9744	19.9850	1.7925	6.8578	-0.6009	4.9572	6.3990	7.6182	14.5459
2912.0000	-19.9847	-7.9363	-10.5011	0.6298	0.9185	1.6635	8.9677	5.2974	17.1662	0.4656	7.6146	8.7716	4.7431	10.1709	3.8799	18.5644
2920.0000	-25.0137	-22.3067	-17.9003	-6.0648	-1.8028	-2.8132	3.9920	1.4597	4.2397	-12.4225	-1.6214	-4.4416	2.7191	6.0626	-5.7016	12.4781
2928.0000	-30.6353	-25.1012	-17.9808	-8.2066	-3.0852	-4.3338	3.9686	1.3308	0.5901	-12.6127	-0.7746	-5.5935	-0.2688	3.2133	-6.5559	5.2633
2936.0000	-28.1794	-24.6467	-16.5775	-7.2243	-3.0382	-3.0645	20.7599	1.6123	-3.5011	-4.9112	-2.9654	-0.4627	-1.5688	1.4326	-6.1758	-0.1707
2944.0000	-34.3346	-28.8258	-24.4104	-13.0737	-5.4224	-6.5115	14.9810	-0.0270	-0.8387	-9.0958	-10.1413	-7.4236	1.5971	-0.3266	-1.7827	0.3673
2952.0000	-34.4610	-20.6934	-22.6523	-10.2023	-5.4234	-3.8394	-5.9217	2.0851	9.5444	-6.6151	-5.6641	-6.5095	-0.6194	2.6886	-5.9651	2.6828
2960.0000	-24.5831	-14.6581	-12.8560	-4.3052	-2.8411	-0.8894	10.1408	3.0115	8.7474	-4.7840	-1.6439	-2.3208	-3.6024	4.0995	-12.4138	3.0085
2968.0000	-20.0742	-17.2358	-11.8160	-5.0441	-0.8428	-4.0424	14.1437	1.3510	7.8025	-9.4392	1.5983	3.0258	2.9807	2.9119	2.1376	7.0993
2976.0000	-12.6537	-13.8693	-3.4105	-0.8759	1.1301	-2.6124	12.9696	2.1837	9.2903	-5.0606	2.7155	11.4753	1.7769	2.0689	5.7339	3.3808
2984.0000	-11.3759	-9.0814	6.8874	3.5265	3.9630	-1.4791	25.0644	4.3023	13.3165	-5.8336	3.6353	14.7656	1.3352	4.6547	8.4769	7.8830
2992.0000	-16.6444	-12.5545	-7.0952	-3.6641	1.4010	-6.3478	4.4478	1.8504	23.2089	-14.0049	9.2896	10.2003	8.4499	4.0120	16.8091	13.9204
3000.0000	-21.7019	-19.5568	-15.3589	-10.9185	-4.2627	-9.9090	-5.9865	-1.3623	20.4641	-21.0811	0.4356	-1.7168	-0.8067	-3.3292	-4.2724	-4.7793
3008.0000	-22.8011	-11.5535	-3.1852	-7.7370	-2.7747	-8.8519	5.9527	0.1283	16.1060	-23.5064	-5.4812	-6.8294	-6.1229	-2.8022	-10.2395	-6.7258
3016.0000	-11.4235	7.1693	1.2733	-4.4575	-1.2800	-5.8012	8.3769	0.6822	20.8930	-11.4759	5.9541	-5.0675	0.3549	-0.8595	4.5483	2.2063
3024.0000	-5.9042	8.9321	1.4494	-2.1312	-1.8346	-1.8524	14.4821	1.1724	13.2444	2.4162	10.4157	-0.2673	-2.4001	-2.2185	1.4936	-4.4830
3032.0000	-9.7380	-5.4652	-2.2498	1.0320	0.6937	1.3690	8.6588	2.7529	-0.1683	4.9772	5.6720	7.4954	0.3719	2.8735	3.7642	3.0625
3040.0000	-15.1240	-14.5974	-6.1174	-1.1260	0.0233	0.7488	0.9409	2.1346	-7.9891	1.4111	-7.9295	2.0649	0.6704	3.2057	1.8652	3.5025
3048.0000	-15.6766	-12.1384	-0.2083	-0.6330	-0.5208	1.3027	16.7236	2.7264	-10.4843	5.3602	-15.9410	-0.0319	-3.9314	0.8037	-2.2590	-4.2170
3056.0000	-9.8525	-10.0827	-4.5752	0.0112	0.3059	2.3145	22.6246	2.5017	-5.8616	10.8664	-11.6314	5.8453	2.6643	2.6819	6.9146	3.4339
3064.0000	-15.7719	-9.9200	-8.6068	-3.7652	-2.3749	-0.4342	11.2619	1.4151	-2.4092	2.6998	-16.3792	0.5295	-2.6764	-0.2335	-4.9699	-5.1659
3072.0000	-15.6831	-2.7175	-5.0711	-0.9126	-2.9734	1.8022	10.8793	3.8675	11.3948	8.4261	-13.0043	6.6099	-8.4129	-0.0059	-12.9589	-11.0669
3080.0000	-9.5995	2.9980	-9.4020	1.6365	-2.5326	5.2579	-2.1718	5.4899	26.6024	19.8711	-3.7104	14.3964	-1.9478	4.1415	-2.6369	-1.0086
3088.0000	-10.1902	4.6336	-4.8158	1.3163	-2.6724	4.3247	-21.2281	4.4987	18.6830	12.2137	-5.8048	5.0537	-5.4183	3.0232	-8.0622	-3.8535
3096.0000	0.1227	6.5255	1.8266	3.6785	-0.9224	4.9580	-11.4114	3.6638	16.4512	14.1127	-0.7081	4.6281	-2.8523	2.7168	-2.2804	-0.7114
3104.0000	1.0322	7.7483	1.9159	2.9593	-0.5014	3.2564	-24.9083	3.1785	20.3737	12.1494	2.0884	7.1610	0.2260	2.0327	6.5759	0.5732
3112.0000	1.0385	11.1785	7.5314	6.4196	0.5104	5.3642	-35.3508	4.4828	16.0368	11.7339	3.8222	8.4814	-4.8488	3.0298	-1.0229	-2.5765
3120.0000	9.4355	9.6846	7.6282	11.1281	1.7548	11.4920	0.3954	7.1636	25.9316	31.1004	11.1594	14.5347	0.7590	8.3132	5.8356	9.7189
3128.0000	-1.3918	3.1434	3.0462	3.6197	-1.1409	4.7905	-2.9313	4.6231	24.4046	16.4533	2.7204	5.4165	-2.3392	3.0178	0.7433	0.5515
3136.0000	-5.7772	0.5442	-2.0921	-1.2835	-2.0333	-0.9674	-19.2587	0.6096	8.3418	-3.4463	-2.4004	1.2116	-6.2254	-1.7494	-10.4004	-9.2348
3144.0000	2.9839	8.1379	3.4620	9.3545	3.9399	6.8181	-5.7780	5.9444	20.2235	15.0951	7.4719	22.3926	3.9657	8.7028	10.0393	12.4156
3152.0000	11.4947	22.3228	23.7668	20.5414	9.0429	12.5024	-5.6163	11.1468	33.2179	25.5734	13.7700	34.5262	3.1166	13.9114	19.1034	18.8063
3160.0000	19.1370	17.7689	25.6440	20.4627	8.8622	12.6982	4.4460	9.0541	23.8006	24.8890	17.3741	28.2781	2.1570	11.9875	14.1567	16.9397
3168.0000	15.5528	6.8270	20.8939	18.0167	9.2323	10.5478	14.8567	7.9432	18.0145	19.8664	19.5459	27.1837	6.1616	12.5084	18.7221	22.1003
3176.0000	12.7443	10.5652	23.7485	15.9008	8.7681	6.7728	5.4369	6.4362	14.9749	8.3092	16.7037	23.9514	1.9083	8.8633	13.2098	13.9376
3184.0000	5.1847	5.7234	14.9133	9.8926	4.9752	5.5350	-3.7146	4.4845	2.0614	9.5962	6.6673	12.8293	0.0478	5.3224	8.8522	6.4895
3192.0000	-3.2920	1.0030	12.3510	9.0562	4.3014	6.6335	-6.9188	5.4810	-8.4454	13.6745	1.0622	12.0897	-1.5761	5.5766	8.6025	3.8998
3200.0000	-0.2358	7.9603	13.7646	11.6835	4.7761	9.1305	-5.0765	6.1185	-10.3978	15.7276	1.9282	13.0918	-4.2589	6.9836	0.7046	3.5634
3208.0000	0.5126	12.1443	9.3132	11.9805	5.2136	10.3556	-9.6089	6.0099	-14.2047	17.9510	-0.0790	15.1578	-1.1752	8.8563	3.2426	8.0081
3216.0000	5.3291	14.7471	11.1049	14.5456	8.5016	9.2912	3.8715	6.1239	-12.2968	16.3100	10.0540	29.8232	3.6768	9.7778	13.8222	12.6282
3224.0000	-0.8598	2.9380	2.1569	8.8811	5.6925	6.2741	15.2081	4.3426	-11.2020	10.1847	12.6956	20.9175	3.8072	8.3821	7.7953	12.7500
3232.0000	-14.0056	-15.6940	-9.1349	-3.4276	-0.4433	-0.6382	1.4145	-0.7596	-27.0254	-5.1714	-4.6086	-5.4327	-0.3133	1.1165	-4.3346	1.1638
3240.0000	-5.4255	-14.4939	-3.8724	-4.1234	0.9026	-4.4735	9.0756	-3.7039	-32.1245	-12.9619	-6.2631	-2.8188	0.5638	-3.6987	-0.1714	-4.6785
3248.0000	0.6808	-4.0352	-0.0967	-1.7845	1.7430	-3.8909	7.0851	-3.4921	-26.5690	-11.7203	-6.8885	3.2398	-0.6326	-4.4364	-1.0198	-7.7996
3256.0000	4.8542	5.9220	1.0690	-2.1392	0.6047	-3.7512	-5.3139	-4.5410	-27.5060	-11.1062	-11.9437	0.3039	-3.4736	-6.9819	-5.7589	-14.4858
3264.0000	16.2629	14.1061	9.5816	5.0395	4.3983	0.5996	-2.1259	-2.0287	-17.8441	-0.3050	-0.5588	10.4777	2.3604	-2.1507	8.3370	-2.6592
3272.0000	17.4712	16.8963	17.6950	8.9341	5.1883	3.5535	-10.0517	0.5067	-11.6272	6.7035	1.6469	11.6969	0.0807	-0.5324	10.0823	-2.5438
3280.0000	14.7421	15.4988	17.1243	5.2861	2.2862	2.0386	6.1624	-0.5583	-11.4859	6.4713	-4.1800	1.9812	-4.3040	-4.2836	1.5598	-10.5209
3288.0000	16.7012	10.6563	18.2700	10.1601	5.7078	5.8279	33.0544	2.2750	-4.1978	10.9877	1.4605	6.3245	2.8612	4.2783	8.5400	9.8550
3296.0000	22.0011	10.7106	24.8996	16.7167	10.7316	8.4719	35.4754	3.6113	-14.1318	9.7547	10.5019	16.1729	5.9273	9.1312	14.0820	19.6774
3304.0000	21.0429	15.3299	21.2893	13.6241	10.3425	5.5897	27.2913	0.8677	-32.1690	5.7488	15.7484	17.4369	5.9265	4.6187	16.9972	12.0805
3312.0000	17.6743	16.6847	19.2029	12.9792	9.4059	5.9850	9.8892	1.0732	-33.0209	4.7343	11.7872	14.6502	4.1260	4.9438	13.1280	10.5025
3320.0000	16.7071	14.0315	24.8100	15.6917	9.1046	8.4337	7.8028	3.5882	-21.4339	8.8755	9.9648	13.3494	-0.0046	6.7080	7.4406	9.7909
3328.0000	12.2984	10.5303	21.4913	13.6919	7.2253	8.6717	7.5414	4.6925	-11.2094	15.9194	11.3861	11.6411	1.7222	6.8869	13.2401	11.1178
3336.0000	15.6433	14.2038	20.2356	12.2066	6.7371	6.7896	5.1272	2.6429	-14.7372	10.6102	3.4030	11.5937	0.1958	3.8699	8.2694	4.8395
3344.0000	16.5428	19.5224	19.9036	9.7877	5.1778	4.5607	10.9897	1.0880	-13.8083	7.0180	0.7455	8.8490	-2.9518	0.0318	2.1942	-3.1291
3352.0000	14.1530	17.9688	12.6611	3.4276	1.0925	2.3887	9.4426	-0.4721	-4.4702	10.8815	3.4559	-3.2973	0.3509	-2.5746	8.0582	-2.5519
3360.0000	19.1672	14.3127	9.7060	0.4439	0.8923	-1.1393	21.7189	-3.4089	-3.3146	2.5420	0.6498	-6.2104	3.6133	-4.7044	8.6417	-1.2642
3368.0000	12.6136	9.0739	-0.4850	-1.0844	0.6194	-2.2404	5.9069	-3.5681	-2.3352	-5.2538	-1.3150	-0.9658	4.0053	-2.6477	2.5710	0.6336
3376.0000	7.3944	4.1772	-12.8739	-4.7662	-2.4355	-1.7954	-24.6838	-5.1446	-11.7367	-7.7076	-4.7729	-8.2598	1.7239	-2.8377	-9.0446	-2.5422
3384.0000	10.6752	2.1893	-11.0680	-5.5075	-1.6309	-3.2513	-2.8206	-7.0342	-23.8558	-11.2262	-4.3930	-10.5217	2.2237	-4.8495	-9.4130	-3.7272
3392.0000	4.8082	-0.2039	-13.2122	-5.2365	-1.5003	-2.5194	4.3117	-5.0494	-20.6576	-3.6093	-0.3530	-1.7081	3.5752	-4.1112	-1.8663	-3.7057
3400.0000	2.0788	-0.6320	-14.9251	-7.3718	-3.8122	-2.8098	-7.9044	-6.1053	-29.3721	-3.8327	-8.9563	-6.3663	-2.5370	-7.8711	-12.1348	-15.7137
3408.0000	8.9526	6.2063	-4.0709	-7.0394	-3.1221	-5.4220	-9.4793	-8.1722	-31.6141	-15.5429	-12.0604	-16.1902	-6.2307	-10.9512	-18.0610	-19.9885
3416.0000	14.7660	15.8764	2.5694	-1.8335	-1.5061	-2.2788	-17.7415	-5.0652	-9.8419	-8.2662	1.6174	-9.9041	-4.1510	-6.6901	-11.1216	-11.5444
3424.0000	14.8017	18.6414	8.7178	2.8078	0.6524	0.7180	-4.3289	-2.2944	-8.7559	-1.4150	3.5791	-1.7174	-5.1423	-4.1077	-9.0786	-9.6886
3432.0000	19.0936	14.0541	17.6296	3.3206	2.1216	-0.7310	6.4726	-3.3346	-16.9148	-2.9232	0.3540	-4.6527	-4.3105	-6.6318	-1.7077	-11.4907
3440.0000	24.8636	7.1956	14.3558	2.1376	0.5702	0.1030	-0.4417	-4.0701	-8.8947	3.6414	4.7789	-8.3027	-0.8738	-6.8964	3.1376	-8.6225
3448.0000	21.9251	9.7995	11.2585	-1.0829	-1.6413	-2.4958	-4.9385	-5.6274	-5.7795	-6.7958	-1.5561	-15.7405	-5.8929	-9.1501	-11.5002	-14.9125
3456.0000	23.5437	24.5058	17.3308	-2.7340	-1.6151	-7.0489	-8.1294	-7.4730	-4.5968	-17.3834	0.9475	-16.5163	-9.0697	-14.1562	-12.3145	-23.8058
3464.0000	22.0040	29.2080	17.6819	0.8641	2.1375	-5.0780	0.9588	-4.6790	-3.8901	-7.1022	17.1248	-1.0246	0.7785	-9.1676	12.5651	-9.7594
3472.0000	13.3893	20.4724	15.3830	-0.0619	2.2852	-4.7726	-1.3056	-3.8583	-10.4196	-9.8726	10.6446	-6.9468	1.9411	-6.1790	12.8400	-3.5667
3480.0000	14.1875	10.8923	13.9085	-3.9572	-1.6592	-5.3267	-7.4449	-6.3903	-17.1781	-13.1783	-3.0149	-24.9277	-5.2352	-10.4715	-5.3445	-14.3606
3488.0000	21.4225	8.3323	10.6137	-0.7802	0.4061	-1.5416	5.8460	-6.6994	-32.3878	-5.2437	-5.1301	-17.6015	-1.6138	-8.0679	-3.8526	-9.6805
3496.0000	27.8563	16.5133	16.1379	5.7406	4.2939	2.4922	9.3463	-4.4194	-32.5569	1.7301	-2.9930	-6.2993	2.1434	-3.2832	4.2457	-0.8306
3504.0000	20.4977	9.3750	17.0670	8.6314	3.9634	6.4570	7.4818	1.4872	1.2962	14.8596	3.5011	-3.3558	5.7491	4.2386	14.2382	13.3356
3512.0000	10.1442	-5.2825	4.8862	3.3005	1.0642	3.9312	7.9638	1.4961	15.8934	9.9526	-3.1480	-6.8808	7.4749	5.3710	10.6201	16.6472
3520.0000	11.5747	6.7216	5.3572	0.7246	-0.9472	0.4252	-0.4610	-1.1608	11.8872	0.2211	-9.1243	-7.1631	-1.5457	-1.7036	-5.7186	-2.3384
3528.0000	8.4690	9.8207	5.6222	4.8775	0.1257	4.5298	-3.3514	2.9092	23.6598	12.1576	0.2991	3.9053	-0.2575	3.0072	0.3982	3.5208
3536.0000	3.7186	-6.7712	-10.1149	0.6742	-1.0204	4.4792	8.7594	1.4621	16.4531	11.6806	-3.0446	-1.0973	7.1592	6.4320	1.8690	15.4759
3544.0000	-0.9139	-5.6863	-13.7147	-0.4219	-1.7888	4.6098	5.5602	1.2149	8.9922	9.0251	-2.7838	-4.3655	4.8883	6.7577	-5.2197	14.2346
3552.0000	-2.3197	-0.1427	-11.2299	3.5145	-0.5601	6.3015	-19.7470	4.5790	28.4103	13.0211	8.7106	8.6856	4.9474	9.8682	0.6106	16.7238
3560.0000	-0.0224	-4.4520	-22.0535	-3.5868	-3.5586	1.1872	-10.7381	-0.2358	23.5778	4.8517	3.7581	4.7595	5.3898	3.5599	-5.3277	7.9269
3568.0000	-11.7728	-12.7052	-30.6039	-10.2248	-6.3776	-1.9143	14.8106	-1.7803	11.8811	2.3430	-1.5874	-3.4810	4.5326	0.5638	-8.8237	3.5315
3576.0000	-18.0584	-18.0096	-29.4426	-14.1858	-8.2254	-6.7930	7.1472	-2.1646	26.2647	-5.8357	0.4316	-6.4119	2.5531	-2.9494	-7.2156	-2.2504
3584.0000	-15.4704	-11.9734	-27.8199	-16.6350	-9.6537	-10.7237	-3.1116	-4.2100	34.0505	-15.7464	1.4076	-8.8312	-1.3623	-7.5625	-13.8983	-11.4267
3592.0000	-20.6918	-10.7030	-33.6681	-16.3754	-9.7298	-8.5200	-15.2110	-2.9850	31.5256	-12.7375	0.6116	-9.2417	0.8137	-3.6599	-13.0093	-4.5944
3600.0000	-22.9927	-11.4310	-38.9967	-22.8606	-12.8182	-13.2779	-26.9353	-6.8206	23.7317	-22.8068	-9.3897	-19.2115	-2.0174	-9.8169	-19.9841	-15.5639
3608.0000	-26.3503	-9.5084	-33.5284	-22.7746	-12.7777	-14.2169	-13.8260	-6.3476	19.8322	-23.5411	-13.0880	-18.6080	-6.5273	-12.3509	-22.9895	-23.3517
3616.0000	-26.3903	-16.9414	-24.0879	-14.5371	-9.2211	-7.6095	-14.2897	-0.7644	28.4179	-9.0837	-5.6011	-10.3724	-3.6592	-4.3824	-11.4271	-9.9815
3624.0000	-17.1266	-7.6828	-11.5987	-5.9981	-5.3228	-2.1909	-25.9234	1.6531	25.1700	-4.0582	0.3393	-6.8963	-4.4369	0.4272	-10.6102	-3.1414
3632.0000	-11.0876	5.6717	1.0770	7.2333	2.4574	6.7291	-6.8700	7.1779	16.3732	8.0558	6.4705	9.1728	-0.0248	11.6391	-1.1790	16.1232
3640.0000	-7.9065	-5.1098	10.4636	12.8770	6.5354	9.5828	1.7510	9.4992	11.5081	14.3738	10.4177	16.4513	4.0044	15.4159	12.3429	24.8261
3648.0000	-6.0754	-7.2285	19.3195	14.5687	6.8331	9.5088	-13.3880	9.5785	6.3416	14.0050	15.0028	15.8563	-1.2725	12.4030	10.6969	15.7743
3656.0000	-6.5000	-4.7714	17.9259	15.0953	6.9310	10.5243	6.0187	10.6534	12.2191	18.9052	15.7485	19.0751	0.2862	13.8540	12.2812	19.0296
3664.0000	-10.0098	-7.6220	12.5090	7.7431	4.3622	4.1324	25.0782	7.8394	20.4827	10.6268	12.2460	12.6584	2.9227	9.0657	16.1557	16.1016
3672.0000	-14.2172	-7.7726	6.5025	3.8934	2.6071	1.2267	7.7278	6.6790	24.7846	6.1238	14.6107	11.5334	3.8671	7.1444	18.3346	13.7535
3680.0000	-18.3434	-22.8393	-10.7393	-5.3406	-2.4404	-2.8918	7.5762	2.2317	16.9996	1.7756	3.6361	3.9849	3.2367	1.1266	9.0727	3.2561
3688.0000	-20.7582	-23.7631	-17.8967	-12.5718	-6.4736	-7.8574	7.8333	-2.1600	6.1351	-7.9695	-7.1194	-4.4074	-3.1498	-7.1440	-6.0227	-14.5120
3696.0000	-17.5791	-11.1487	-14.0574	-5.6065	-3.7668	-2.6887	-16.0828	1.6469	17.9568	-0.3012	1.8575	5.8634	-1.0964	-0.3894	-0.8170	-4.3217
3704.0000	-19.5710	-19.7222	-18.0454	-9.2670	-5.3797	-4.9883	-29.4786	-0.1369	16.3883	-5.4763	-1.1880	-1.6502	-0.1637	-2.0467	-0.6733	-5.0859
3712.0000	-16.6875	-15.2726	-13.1704	-11.6271	-5.9371	-8.7422	-22.6039	-3.2887	3.0612	-15.0090	-2.9544	-7.5055	-5.3168	-8.4075	-8.0418	-17.3920
3720.0000	-8.2417	-4.8163	-6.2982	-3.8093	-2.5568	-2.7666	-3.5101	0.5160	13.6426	0.4590	9.1690	4.8949	-1.3346	-2.5294	1.3269	-6.1507
3728.0000	-13.6749	-13.2337	-16.7339	-7.3728	-4.8799	-2.2358	-8.7158	0.1849	14.9935	2.0631	4.6046	-3.6968	1.8469	-0.2496	0.2120	0.5109
3736.0000	-15.0233	-12.3676	-21.9217	-9.5215	-5.4322	-3.7331	-28.4899	-2.3152	-0.0655	-8.4008	-3.5308	-8.7323	-0.3255	-1.4751	-9.7839	-3.1995
3744.0000	-11.4731	-6.8151	-12.7030	-5.2123	-2.1487	-2.4766	-10.0772	-1.5380	-14.8537	-3.9584	-3.7427	2.0461	-1.5405	-2.6725	-4.3391	-7.8352
3752.0000	-11.6009	-5.0278	-6.9976	-3.2625	-1.2241	-0.6059	7.1745	0.2681	-12.8448	3.4696	-5.3338	1.0874	-0.0040	-1.0158	2.5469	-3.5422
3760.0000	-6.2648	-0.7690	-3.5303	0.2272	-0.8350	1.8302	-12.7204	2.1193	8.5074	3.7052	-2.7470	-0.2163	0.2126	3.2389	-0.3691	4.1005
3768.0000	0.1000	2.9265	2.8403	2.4258	0.1766	1.3802	-18.1548	1.4996	6.6530	1.5445	0.7298	5.0235	-3.4757	0.4359	-3.5146	-3.8347
3776.0000	6.3768	4.1798	3.0787	2.8847	1.1781	1.6722	6.1343	0.9755	8.2438	5.8677	3.8513	6.6706	1.7913	1.0644	4.5313	2.4079
3784.0000	1.1420	-0.0125	0.7442	0.9783	-0.0622	0.6889	3.3079	2.1860	25.9343	4.9972	4.4222	2.3113	4.3750	3.2016	8.5767	9.1452
3792.0000	-5.9268	3.7381	2.4177	-0.4120	-1.0755	-0.7335	-9.8742	2.0825	16.9549	1.4186	0.5296	1.1996	-1.8273	-0.0871	2.6753	-2.1138
3800.0000	-3.3004	3.3749	0.1252	0.9366	0.6063	0.7324	11.9869	2.4424	13.4258	7.1010	-1.4826	7.4188	3.5927	2.2084	10.3581	4.9982
3808.0000	-10.4969	-14.4419	-5.0469	-3.1982	0.3077	-3.0025	15.9471	0.9437	6.0672	-0.5299	-8.4581	5.9700	6.1552	0.7731	14.6247	5.0499
3816.0000	-8.3469	-18.0201	-6.3232	-3.8852	0.5839	-4.0380	8.6898	-2.0331	-18.4082	-9.7273	-13.0546	3.2267	1.5581	-2.2318	1.9146	-3.4634
3824.0000	-2.5829	-14.8255	-7.0532	1.3743	2.5386	0.9970	17.0007	0.1747	-12.0348	-2.6105	-4.7367	9.1553	4.1599	4.1558	-0.1539	8.2310
3832.0000	-17.7031	-21.0367	-10.2815	-1.8909	0.4968	-0.9273	0.5236	2.0131	-3.5705	-4.2715	-3.3783	7.0933	2.3441	4.1970	2.2330	6.2712
3840.0000	-21.7601	-16.6895	-13.4558	-5.3158	-2.0878	-2.6729	-12.0926	1.0093	-2.6683	-7.1579	-9.9889	1.4529	-1.2405	1.1630	-4.1094	-1.5763
3848.0000	-12.1537	-9.3834	-16.2112	-4.8223	-2.8483	-1.2570	-6.8821	0.0408	5.4289	-3.4444	-8.9745	0.9469	0.1753	1.3704	-7.9790	0.2649
3856.0000	-10.9265	-12.5724	-17.3650	-9.7599	-4.6272	-5.3872	3.3523	-3.8335	-7.9503	-11.3675	-11.1123	-8.8844	-1.7828	-4.6069	-12.5912	-8.3307
3864.0000	-11.6458	-12.8288	-7.4990	-7.6892	-3.6415	-4.8215	7.7157	-3.0510	-13.8720	-13.4949	-15.6377	-14.4365	-5.9851	-4.8637	-16.3131	-10.8233
3872.0000	-3.6213	-1.4641	7.0015	5.1667	1.8289	4.0073	-11.8393	3.0896	-3.6149	1.2940	-6.1074	0.3238	-4.5328	4.3469	-7.0106	2.0833
3880.0000	4.9836	3.3876	10.0107	10.9807	6.2905	7.2224	9.6030	4.4847	-6.1636	8.4294	4.5397	13.8662	2.7194	9.1400	5.4678	14.6818
3888.0000	2.8324	-1.9661	6.7549	8.7402	5.9995	5.0923	38.0977	3.9954	-3.7706	8.2926	4.9667	17.6837	4.6298	7.6925	8.4167	14.0970
3896.0000	0.6749	1.1312	1.4181	4.4453	2.2824	3.6263	3.6731	2.3208	-3.6596	8.8804	0.6477	11.7368	1.2573	3.0719	4.7253	2.8818
3904.0000	-2.8255	-0.8273	-4.2742	-0.8760	0.0957	0.4744	-6.6864	-1.0118	-17.4425	-1.5237	-8.2839	-1.7022	-0.1329	0.0689	-2.8665	-1.1000
3912.0000	-6.1955	-8.8115	-2.3440	-0.3329	1.0260	0.0088	10.2169	-0.3929	-19.2401	-5.1740	-10.0598	-1.3774	-1.1188	1.0985	-5.6697	0.4287
3920.0000	-3.3692	-5.1776	1.7774	3.2626	1.2288	3.7830	2.8946	1.9988	-12.0872	6.4930	-6.0555	3.0781	-2.2750	2.5454	-3.0728	0.0430
3928.0000	-7.2904	-6.1106	-0.6359	2.1974	0.5210	3.8205	1.8262	2.2534	-12.4028	5.9790	-8.5583	0.1301	-2.5331	3.2710	-4.9352	1.0989
3936.0000	-7.0880	-10.3674	-6.5483	-0.5841	0.6940	0.5306	6.3465	0.3492	-11.7832	-0.8002	-8.1537	3.4919	1.6257	2.2307	-0.6132	3.0913
3944.0000	0.5509	-4.9189	-1.2578	0.0048	1.0105	-0.5598	0.1471	-0.9890	-11.3738	-1.8597	-8.1611	4.5198	0.5929	-1.0808	1.0261	-2.7869
3952.0000	2.8180	-0.9447	9.9581	4.4781	1.7691	2.2496	-5.4055	0.7265	-13.7075	0.1679	-8.9533	2.8147	-7.2053	-1.1968	-8.9314	-9.3529
3960.0000	1.1731	-0.5660	8.1021	5.1782	1.9618	4.3129	5.4934	2.5270	-5.3136	7.1297	-5.6169	1.6981	-2.4644	2.9093	-1.7401	1.5291
3968.0000	-3.8855	-2.3283	7.2779	-0.0509	0.5508	0.0991	14.3504	1.1904	-1.6550	2.8877	-11.1939	-7.9560	1.6411	0.7046	8.6611	3.9182
3976.0000	-8.1563	-9.7270	8.5552	-5.3719	-1.6652	-5.4127	3.8900	-2.0109	-12.5500	-9.0948	-16.7865	-16.4054	-4.2404	-6.8132	2.1946	-11.3921
3984.0000	-10.7722	-10.7003	2.5974	-9.0306	-4.2338	-6.7266	-3.7190	-3.2445	-12.1587	-9.1816	-16.1745	-20.9667	-5.2503	-9.1806	-0.8132	-15.8754
3992.0000	-2.4079	-0.7165	5.6714	-5.2740	-3.2751	-3.6406	-2.3225	-2.0538	-2.7680	-1.6193	-13.9857	-16.0991	-4.0718	-7.1948	0.6138	-12.5667
4000.0000	6.2585	-2.2628	6.1308	-0.5379	0.2051	-1.4224	10.3681	-1.1198	3.3467	0.2980	-9.2480	-4.3043	1.9332	-2.4282	6.5599	-0.8899
4008.0000	-3.3540	-7.6163	-0.4301	-5.8150	-0.8368	-5.6762	20.7024	-2.1075	4.9916	-7.8398	-13.7962	-8.8939	5.6411	-2.7532	11.4555	3.0939
4016.0000	-6.6987	2.1358	1.3299	-7.9180	-2.9096	-6.9789	6.9922	-2.8700	-2.3019	-7.0121	-14.3932	-11.1717	-0.6848	-8.1057	7.0379	-11.4589
4024.0000	-9.7070	0.9238	-1.4836	-5.5788	-2.1811	-4.0885	-4.8923	-1.4134	-9.5976	-2.8010	-7.9948	-5.4731	-1.6865	-5.4433	4.8099	-10.1586
4032.0000	-11.2127	-0.7574	-0.4807	-4.9905	-1.3874	-3.7730	3.9238	-1.0643	-10.8466	-6.5522	-9.2021	-9.8510	-0.9653	-2.9177	2.4427	-3.9630
4040.0000	5.9793	17.9765	9.9283	4.4318	1.7723	3.1993	10.7528	1.5964	-2.5442	9.7577	1.7905	2.2508	-0.4824	0.5733	5.3393	0.2555
4048.0000	6.7144	20.1858	6.6925	10.4214	3.9773	8.9239	-3.4761	5.2901	4.2746	21.0122	9.7868	17.9823	2.2262	7.3324	8.9867	9.0907
4056.0000	-1.1099	7.2034	0.1227	2.2188	1.1173	2.2028	-7.1283	1.1212	-5.8237	3.0744	-0.7960	3.3920	0.2048	2.2298	0.8050	2.2644
4064.0000	4.0670	6.5812	2.8747	-1.3773	0.7326	-1.8812	14.2749	-2.5109	-14.2109	-5.0666	-4.5687	-6.8298	1.5071	-2.2676	1.8460	-0.1290
4072.0000	9.6862	12.3190	6.6923	0.6202	3.3182	-2.8630	20.7232	-3.4066	-21.6815	-7.6682	-5.2307	2.3807	3.0726	-3.5752	7.0916	-1.8822
4080.0000	17.6226	16.5636	12.5983	2.4659	4.0982	-3.5192	8.2693	-4.7843	-26.0656	-11.4049	2.9938	5.1911	-0.7181	-6.7768	2.8826	-9.8232
4088.0000	21.3916	16.3013	18.9694	9.8555	4.9982	3.7444	-4.8108	0.3294	-3.0663	1.7700	19.3979	6.3955	-1.4374	1.1506	1.4047	2.2310
4096.0000	25.4346	15.2559	20.7039	12.3226	5.4784	5.9077	2.9227	2.1506	11.4042	10.0915	19.6345	12.2447	0.6584	3.1062	6.1495	5.9849
4104.0000	27.2991	17.1165	19.7241	6.2090	4.9205	-0.6768	22.0163	-2.7833	-7.1931	1.4695	16.1256	8.6798	2.8103	-5.0354	13.6005	-3.3904
4112.0000	23.3318	25.8477	20.5970	6.8156	6.4239	-0.4209	16.9625	-2.7169	-20.3076	-3.0192	14.3746	5.2575	3.9840	-2.7728	15.0893	1.8362
4120.0000	27.7841	28.1581	18.9051	11.2560	8.5555	3.4611	15.1351	-1.0985	-18.0904	2.1234	12.8569	14.2106	6.8005	2.1467	15.4407	9.7638
4128.0000	24.0220	11.1111	8.5106	5.5502	5.5639	-0.2233	12.2440	-3.7870	-19.1287	-5.0279	12.5120	11.5524	5.0343	-1.7555	7.1157	2.2639
4136.0000	14.2155	11.1342	2.2540	-1.6699	0.7630	-5.1639	-5.5250	-6.4632	-20.6050	-19.3236	1.8774	-1.4436	-4.4149	-7.8265	-13.4645	-13.8785
4144.0000	15.3590	19.7345	4.9064	0.8097	1.6653	-2.9915	-3.2343	-4.9450	-16.7961	-15.2369	-0.5176	0.1077	-3.8619	-5.3995	-12.2669	-10.0514
4152.0000	19.8569	5.3505	5.3836	0.1237	1.9765	-3.6631	-0.0955	-6.3401	-20.9533	-15.1782	4.4111	-2.9292	-0.6472	-6.1575	-6.5041	-7.2359
4160.0000	23.4174	7.6237	10.9891	-3.1214	0.1875	-7.5237	-7.0782	-9.2081	-23.9354	-22.1655	1.7983	-12.6765	-4.9248	-12.8698	-9.8873	-19.0442
4168.0000	25.9562	25.9426	23.5242	4.5679	3.0072	-2.3722	-15.5626	-4.3214	-9.7964	-10.6577	9.8609	-5.7363	-4.7289	-7.5589	-0.9135	-11.5009
4176.0000	32.2463	31.1075	29.4444	9.5529	4.3563	1.6152	-21.2519	-2.3774	-5.7946	-2.0441	16.3448	-0.9370	-5.6956	-5.3807	-0.1639	-9.8688
4184.0000	35.7395	35.6880	33.9142	10.2819	4.5325	2.6180	-5.7974	-2.7139	-14.1694	3.2817	13.5241	-3.0993	-6.7707	-7.1946	0.7051	-13.3527
4192.0000	40.2317	34.9163	35.4814	15.4126	7.3459	7.9232	15.2224	-0.2104	-15.2126	15.5521	17.4983	1.9942	-0.6380	-0.7351	9.5613	1.2986
4200.0000	42.5574	23.1354	24.3167	10.1522	5.8849	4.5327	27.8992	-3.9542	-20.6848	9.9077	13.1370	-0.1721	3.7485	-3.3530	9.2053	1.4377
4208.0000	26.9065	13.8290	16.2068	3.6076	3.2295	0.3116	10.1939	-4.6329	-22.3465	1.5770	2.0156	-6.9781	3.3604	-5.1217	9.9206	-1.9214
4216.0000	20.1234	13.9476	14.4416	6.9291	2.8939	4.9932	-20.9146	-0.9804	-13.5616	5.3548	0.1293	-7.5315	0.2535	1.0745	1.5982	3.5053
4224.0000	14.7481	15.1967	5.6106	3.1808	0.9627	2.8212	-14.5933	-1.6840	-7.4232	1.5126	1.6687	-7.5961	0.4609	0.4654	-2.8348	2.8448
4232.0000	3.2798	14.8950	-2.9391	-1.7089	-0.6105	-0.8442	-9.7131	-1.1616	2.6538	2.0164	3.5766	-1.1045	4.3029	-0.8538	8.5659	2.4255
4240.0000	4.8324	12.8953	-10.0390	-3.5784	-2.7521	-0.5524	-17.5399	-2.2666	3.8176	4.3743	-2.3433	-0.1812	2.5521	-2.7600	1.3216	-3.7697
4248.0000	-11.5666	-5.0053	-23.7749	-14.3964	-8.2704	-5.9604	-14.9430	-5.5303	-6.0854	-8.7668	-19.1858	-20.9245	-1.2893	-6.8618	-13.6462	-10.9826
4256.0000	-23.2332	-8.5385	-31.3808	-18.6653	-11.1599	-6.9701	-16.4786	-4.1661	9.4805	-8.3352	-26.2407	-28.2488	0.3016	-4.8753	-12.9701	-6.0611
4264.0000	-8.6446	9.9253	-19.5309	-6.9619	-5.7959	0.2993	-11.6154	0.6967	30.1472	6.0365	-14.7245	-10.5055	5.3882	3.4539	-1.5228	9.4190
4272.0000	-4.0911	7.5436	-1.8517	2.3332	0.4331	3.7988	-1.4783	4.1264	25.8122	6.4751	0.6870	-4.1093	6.9084	9.5693	7.7136	21.9479
4280.0000	-1.8233	7.0656	2.6947	3.7025	1.1122	3.4910	8.2717	4.4570	28.8623	5.9175	10.8505	-1.8106	5.3503	8.9036	7.0665	20.5873
4288.0000	-4.7678	11.3318	0.1903	2.2324	0.5628	1.6251	4.0868	4.1539	29.8835	4.5304	13.0780	4.4016	4.1545	6.5035	7.8769	14.3662
4296.0000	-10.7696	2.6650	0.2862	-1.1442	-0.5804	-0.6211	-3.4507	2.6861	15.0460	0.6752	8.8215	-3.7058	2.3725	3.2699	8.6585	8.5633
4304.0000	-9.7520	2.6739	-2.0123	-0.5184	-0.2210	1.2066	16.1751	3.7216	19.7281	8.3846	9.6640	-2.2033	7.0255	5.9756	15.1501	16.6083
4312.0000	-15.5766	-3.6333	-6.7624	0.6730	1.2016	1.8910	11.0264	4.8082	15.4234	4.9927	5.9932	5.2882	7.7498	9.2933	13.0376	20.3893
4320.0000	-13.3435	-1.9195	-8.0263	-1.3972	-1.4434	0.7347	-10.1244	1.6671	0.4665	-3.9466	-4.6436	-1.9443	-3.5021	3.2571	-11.7980	1.2141
4328.0000	-9.1940	9.7888	-4.8831	3.2895	-0.8224	4.7021	-6.1136	5.3482	25.2934	8.0354	4.5379	7.2860	-2.4723	7.2831	-8.2661	7.0729
4336.0000	-10.5333	-1.7093	-4.9317	5.2045	0.7538	5.8092	-10.1556	7.6433	36.5295	14.5693	13.4471	15.7492	3.8657	10.9179	7.6934	16.8578
4344.0000	-9.6873	-9.3893	-11.4714	-4.1894	-3.5130	-0.2929	-5.0084	1.0915	14.4004	4.8933	3.6504	-1.2871	0.8621	0.8061	-0.5103	1.0459
4352.0000	-16.9329	-16.3107	-14.5511	-10.8220	-5.0335	-7.0376	-3.2829	-1.7250	13.2760	-10.8160	1.2737	-11.1974	1.8991	-2.7581	0.7894	-0.5062
4360.0000	-21.1598	-18.6587	-13.2145	-12.4267	-5.1167	-10.8334	-18.7331	-2.1607	21.1477	-23.0311	0.3751	-11.0265	-0.0859	-4.1278	-1.3435	-3.5642
4368.0000	-26.4522	-10.1236	-15.5958	-11.2650	-6.4203	-7.7820	-6.1523	0.7650	31.4992	-13.0470	-1.7735	-6.8996	-3.1268	-2.1730	-7.0430	-4.9854
4376.0000	-34.1967	-23.4051	-19.1812	-12.2942	-6.6802	-6.9988	1.8189	2.1293	29.7858	-8.8297	-4.2870	-7.9758	-0.5887	0.1404	-1.8835	0.2687
4384.0000	-26.1373	-18.6512	-16.8095	-14.5017	-6.7289	-9.0586	-4.7207	-2.8653	-2.2664	-15.6300	-16.0179	-17.1481	-2.9998	-6.2962	-6.7389	-10.9253
4392.0000	-16.0814	-11.8537	-12.4917	-5.9834	-2.6018	-1.4111	3.3813	-0.1500	-11.1898	1.1228	-10.1189	-4.7787	1.4384	-0.1927	1.4784	-0.4480
4400.0000	-12.8815	-28.8516	-11.8652	-0.4519	0.3675	2.2221	0.9794	3.2413	5.5062	8.1824	1.2121	8.0982	7.6747	6.9235	12.0129	14.3932
4408.0000	-9.9735	-13.4243	-5.6605	0.9079	0.7656	0.5631	-6.1171	3.0365	14.7018	-1.8460	0.8005	8.1452	2.3927	5.6625	1.7239	9.2394
4416.0000	-3.5407	-3.2710	5.0875	10.1333	4.9228	6.1855	-5.8497	7.3731	24.8649	7.4240	13.6582	20.5018	3.3176	12.0394	7.2546	18.8456
4424.0000	2.7158	-9.6759	8.2154	12.1589	6.1576	7.5289	-6.5212	7.7250	26.6958	14.4528	17.4581	24.6327	7.2563	12.5135	18.1620	22.2333
4432.0000	5.1736	-8.0817	6.3089	8.8904	4.4968	6.0287	11.0195	5.3182	19.0387	14.0621	9.3453	17.1779	6.6626	8.8531	14.5982	17.1801
4440.0000	6.6062	-27.7705	-0.8056	4.9699	2.2637	4.9727	18.0686	2.4435	7.1370	13.5318	11.4992	9.7820	6.3427	5.8337	8.8185	13.2384
4448.0000	1.4243	-36.3633	-11.1344	-3.7466	-2.3125	-1.1959	-16.5505	-2.8002	-6.7732	-1.9171	5.3785	-1.4832	0.3357	-2.4635	-5.2235	-4.2449
4456.0000	-5.8248	-34.0151	-16.3797	-7.3372	-3.8818	-4.0548	-22.2282	-3.9100	-7.6323	-12.2837	-2.4112	-6.0990	-2.4709	-3.6579	-14.5435	-7.9356
4464.0000	-14.0990	-39.7272	-17.8900	-10.1274	-4.7114	-5.3351	2.3108	-3.1894	-6.5420	-10.5433	-8.5168	-10.2738	-0.5575	-3.4936	-9.4039	-5.2587
4472.0000	-16.9007	-34.9858	-12.6649	-9.6999	-4.8198	-5.6409	-4.1871	-2.0962	-4.6289	-7.6147	-15.3446	-7.8185	-3.1098	-5.5257	-5.8014	-12.0083
4480.0000	-9.7864	-36.8266	-6.8647	-4.2021	-2.2284	-2.8178	1.0461	-0.4997	-1.4617	-3.1578	-7.6221	2.7153	-3.4819	-3.3888	-5.3910	-10.1262
4488.0000	-13.6914	-43.1934	-7.3726	-5.9789	-3.0001	-3.9044	10.1692	-1.4909	-14.8062	-5.3243	-7.7007	-0.1807	-7.1425	-6.1022	-11.1416	-17.1181
4496.0000	-12.2890	-50.2199	-0.0189	-1.8294	-2.4502	-0.4003	-4.0076	0.2286	-19.0092	-1.1547	-16.1587	0.2216	-13.5895	-5.6381	-19.8259	-23.3933
4504.0000	-4.2451	-50.0827	8.8906	8.2492	1.7345	7.6833	4.8053	5.6683	0.5661	12.0357	-10.5062	6.6545	-8.2909	5.5097	-12.8515	-1.5738
4512.0000	-8.6611	-43.9905	6.7721	9.4588	3.2227	8.7724	7.4831	8.2655	15.1235	14.4963	-4.5896	9.0207	-0.5287	12.0226	0.2062	15.6556
4520.0000	-7.2995	-52.9788	5.4206	8.6824	3.3142	6.9662	-1.4263	7.0043	11.8793	10.9212	-4.7135	14.4866	-1.3752	9.3615	0.0103	9.5110
4528.0000	-11.4001	-56.3804	2.6635	4.3445	1.7153	3.9734	3.0060	4.6689	-0.4525	4.9090	-8.2220	6.4067	-3.0240	5.6870	-3.4175	3.7488
4536.0000	-20.1877	-63.9962	-8.1455	-4.6412	-2.9554	-0.5194	-9.6168	1.6351	-3.2998	-1.2012	-15.2348	-9.2033	-2.6000	1.4919	-5.0850	-0.7806
4544.0000	-19.7443	-68.1912	-15.2882	-9.5110	-7.0280	-2.5294	-12.9228	-0.5226	1.7913	-0.5187	-21.5321	-13.0145	-6.3483	-3.8940	-14.2218	-13.0235
4552.0000	-20.0156	-63.3994	-15.2987	-7.5319	-6.9067	-0.0634	3.0215	0.9755	3.1026	5.4618	-19.8747	-9.3363	-8.2776	-2.4332	-19.1304	-13.1805
4560.0000	-12.2389	-76.6250	-11.0620	-0.6368	-3.4975	4.8364	5.8538	3.5580	8.5115	13.4134	-6.7052	-0.0549	-4.3032	3.7918	-13.3832	-0.7421
4568.0000	-5.3763	-68.3727	-2.8299	3.8103	-1.2775	6.1136	3.1969	4.6172	13.9588	14.1461	-0.3829	6.4199	-5.1493	4.6491	-11.7589	-0.2247
4576.0000	0.5424	-69.8236	1.9247	7.4432	1.0786	7.4934	0.5835	5.1270	12.7165	15.4059	0.9767	12.8909	-3.7700	5.9592	-7.7746	2.1788
4584.0000	3.5085	-91.3212	-1.7617	8.5501	2.7645	8.6092	-6.7396	4.8502	7.9286	16.8277	6.7512	16.0352	2.8198	9.1627	1.4407	12.3180
4592.0000	-11.4538	-93.8184	-10.4907	-1.3354	-0.5841	0.9440	-11.6492	1.2012	-4.4710	-0.9366	-1.2051	1.4994	1.2006	3.9112	-2.8724	5.3120
4600.0000	-14.1839	-114.7748	-13.2332	-7.6466	-2.2262	-5.5917	3.5448	-2.8737	-13.9257	-15.9701	-9.1505	-5.9847	-0.9893	-2.4081	-9.3110	-4.1040
4608.0000	-8.6077	-108.0915	-5.2375	-2.3060	-0.5382	-2.1982	3.9160	-0.2491	-3.3465	-7.7967	-1.6382	0.8834	-1.7923	-0.0842	-6.5272	-1.8978
4616.0000	-9.2251	-99.9114	-3.8214	1.9065	-1.3535	3.4018	-29.6829	3.6424	11.8742	5.5198	2.0105	4.2010	-4.3249	3.8279	-7.5737	-0.5811
4624.0000	-4.2916	-122.2609	-8.0175	3.5736	-0.5273	5.7152	-24.4425	3.6126	9.1381	11.1929	1.1762	10.3122	-1.2522	5.6885	-6.3454	3.1790
4632.0000	-7.1429	-111.3299	-3.5709	2.6653	0.4677	3.3794	2.0547	3.1721	0.8526	8.3111	-1.0445	11.0150	-1.6286	3.3405	-2.5888	0.0717
4640.0000	-9.1493	-135.2518	-3.8518	-4.0273	-3.3564	-1.6205	-8.9972	-0.3423	-3.5609	0.8228	-11.4532	-2.8214	-6.3019	-4.6458	-7.9965	-14.6039
4648.0000	-3.0984	-143.6257	-2.7726	-5.0911	-3.7988	-2.8759	-15.2329	-2.5169	-5.8712	-4.0360	-14.3833	-9.0682	-6.4231	-6.6060	-10.8912	-16.2476
4656.0000	4.0003	70.1066	-12.6470	8.0210	0.9422	12.7754	-7.7805	5.3502	15.1825	20.5602	-6.5359	6.0304	5.5002	15.3156	-8.9707	24.8083
4664.0000	0.2395	69.1065	-14.0767	4.7807	-0.9203	10.6482	0.5471	4.5284	17.0851	17.4322	-5.6999	-0.7298	3.7645	13.1777	-12.4580	21.6977
4672.0000	4.0821	59.8729	-7.2966	5.5441	0.4775	8.7294	-18.5424	3.4431	15.0442	9.5319	-1.5688	-3.6473	4.2400	12.1587	-8.0354	22.1827
4680.0000	-4.4982	61.6036	-10.3759	3.7649	1.5139	6.1136	-4.9318	3.6953	9.7768	5.6963	2.3056	2.7338	6.9150	12.2136	-0.3512	23.9828
4688.0000	-10.6874	51.2882	-11.0118	3.4309	2.0912	5.7310	4.5455	5.1034	10.6279	9.1505	7.2478	7.4033	9.5034	13.1731	9.0412	26.9591
4696.0000	-1.9732	44.9381	-8.5148	3.3732	2.0067	4.8485	10.1336	3.5642	15.8030	7.6764	11.9796	4.7024	10.5297	11.5822	9.1446	27.1452
4704.0000	-5.4364	46.8890	-10.7300	0.0965	0.3680	1.7602	21.7854	2.1040	12.1700	3.5652	11.5876	5.7183	6.2804	6.7417	2.7150	15.8601
4712.0000	-11.5216	40.7163	-11.4122	-2.4205	-0.9007	0.4168	13.9459	1.7536	6.2292	2.7300	3.4809	1.6651	4.5326	4.5139	3.3118	10.4054
4720.0000	-13.9752	38.9949	-7.4354	-1.4436	0.1329	0.7563	11.3842	2.7797	8.0813	-0.0715	2.0276	-4.1570	6.2407	7.4863	6.7289	18.2379
4728.0000	-15.7128	30.6619	-5.5838	-0.1348	1.7993	0.1347	8.7626	3.3764	7.9529	-4.4879	3.7686	0.0009	7.1533	8.9620	9.2988	21.1919
4736.0000	-11.4849	23.6623	-8.4776	-3.2174	0.7905	-2.3885	9.0046	0.3356	-0.2707	-7.2256	-2.8765	-1.3563	7.6238	4.3460	9.4975	14.1086
4744.0000	-10.9940	30.5329	-3.3535	-0.5757	0.5861	0.0283	-2.8278	1.6599	0.1082	-5.1576	0.4554	-3.9210	2.1690	4.9616	1.1065	10.6559
4752.0000	-5.1493	35.0356	7.1563	8.8999	4.3513	6.3056	-4.1966	6.4087	14.2152	2.9308	10.1298	5.2131	2.0773	12.6420	1.8617	21.9694
4760.0000	-1.2630	38.3941	8.7365	11.2541	6.5056	7.4320	27.0268	8.0064	24.5395	10.7560	12.9406	14.6015	8.8316	15.4388	15.1951	31.5057
4768.0000	-6.5397	39.6850	3.7618	8.1354	3.5650	6.8787	4.5643	7.7024	24.3983	13.9463	14.0939	12.2727	5.7740	12.5056	13.0744	22.9532
4776.0000	-9.9344	29.5132	-5.6324	0.5612	-0.6507	3.1500	-14.9429	3.5483	12.0887	7.2189	3.1611	-0.9661	3.3039	6.5091	5.2442	12.0657
4784.0000	-19.0444	21.8549	-12.4720	-7.3294	-2.3252	-3.4686	14.8721	0.1499	-0.2635	-4.7864	-8.2392	-8.2938	4.6078	1.6802	5.2860	7.5236
4792.0000	-22.5263	21.7664	-14.8221	-7.4687	-3.2904	-3.2442	4.7378	1.1432	8.1422	-5.1679	-6.6965	-6.4243	2.3414	2.3068	0.5096	5.8232
4800.0000	-19.6611	21.6696	-19.8165	-7.1983	-4.7500	-1.5734	-17.6292	1.2051	14.8539	-0.9917	-7.6088	-3.1685	0.9560	2.2291	-4.4788	2.3836
4808.0000	-17.4022	28.2074	-14.5045	-4.6162	-3.3279	-1.5027	-23.7666	1.3769	9.5869	-3.1600	-2.5050	3.4034	-2.8333	0.8192	-7.5715	-3.8748
4816.0000	-9.1583	26.5601	-3.1615	-0.2299	-0.6867	-0.5658	-4.8037	2.5067	18.1705	-2.3563	4.3140	5.4214	-1.6770	2.4046	-3.0409	1.5894
4824.0000	-6.3906	21.8954	-3.9247	-0.0592	-0.2685	-0.1670	14.2370	3.1140	27.8239	3.5424	2.0649	8.6456	3.3924	3.6629	5.9233	7.6016
4832.0000	-5.3931	30.2893	-6.8812	3.2828	-0.2816	3.8898	-24.9365	4.3386	24.1803	7.8931	4.5265	14.3602	-0.2400	5.8396	-2.1158	4.7400
4840.0000	-7.4180	20.3703	-7.3922	1.8208	-0.9426	3.8733	-24.6255	3.5172	16.4290	4.6272	-0.8074	3.3554	-0.4750	6.4633	-5.9821	7.4395
4848.0000	-11.5978	10.9944	-5.4268	-4.0962	-2.0874	-1.5315	12.2680	0.8819	5.4335	0.7467	-5.3333	-5.0786	0.9223	0.3287	2.1145	1.7170
4856.0000	-5.7907	17.8223	1.6376	0.6191	-0.8350	1.1695	-10.6994	1.6191	-1.0457	3.7504	5.6556	0.8010	-4.6037	-0.4459	-3.1194	-5.5039
4864.0000	-4.9419	16.3121	2.8211	3.6937	0.6201	3.8675	-11.8919	2.7630	-3.8943	3.7522	2.5610	0.8203	-4.7339	3.4213	-7.5404	0.3302
4872.0000	-5.8052	23.3716	4.0686	2.4816	1.3620	2.1419	22.1980	2.6744	-3.7296	6.0761	0.4327	3.8098	-1.0719	2.2771	2.0838	2.0348
4880.0000	-6.4569	19.6235	7.3864	3.9985	2.4040	2.1691	15.0251	4.0958	3.1679	8.8469	10.1673	9.5530	0.7664	3.0687	11.6328	4.3070
4888.0000	-11.5269	8.6882	-1.9665	-1.7950	0.2748	-2.0724	-2.2195	1.2175	-0.4944	-2.6357	-1.9421	3.9661	1.1966	0.4002	7.3959	0.5178
4896.0000	-6.0950	19.3912	-6.0278	-3.2911	-1.1856	-2.5163	0.0516	-1.0342	-4.1596	-4.5582	-11.1902	2.8620	-1.6405	-2.6154	-3.7053	-7.1810
4904.0000	1.0167	21.8855	4.1019	4.7607	0.7849	4.3139	2.6209	2.7866	3.2927	8.2261	-0.3807	6.6051	-4.4796	2.2563	-7.0055	-2.2320
4912.0000	-0.7166	24.4387	6.8587	4.0120	0.1602	3.6742	4.4069	2.3767	-3.5570	7.7288	1.3399	3.3620	-7.8918	-0.1778	-9.8743	-8.3343
4920.0000	-6.9562	27.1886	3.3638	2.3342	0.3752	2.1309	2.9790	2.5105	-6.6293	6.3593	2.2396	6.8394	-5.5478	-0.1373	-3.1941	-7.1815
4928.0000	-4.5805	19.9844	-1.0098	4.4208	1.6848	4.9181	-3.3282	4.3032	6.9210	12.4793	4.2429	10.0508	3.2932	6.4935	8.4215	10.0571
4936.0000	5.4452	25.6378	-0.7644	2.1831	0.1645	2.7747	0.9737	0.5277	2.3168	6.7375	-2.2381	3.6626	0.1398	1.1280	-2.0717	0.5034
4944.0000	3.4564	34.9519	6.8794	3.8331	1.4841	1.2681	1.0502	1.0957	-0.1012	1.1377	3.4936	8.0825	-4.5851	-0.7381	-4.5285	-6.1506
4952.0000	-0.3325	36.5378	3.1537	4.0697	1.7355	2.1957	-11.5275	3.1714	15.7878	4.3941	11.3938	9.1271	1.9047	4.3183	7.0414	7.3283
4960.0000	-2.9999	24.4227	-2.1390	-0.7651	-1.0852	0.1837	-7.6152	1.0139	11.1215	1.5252	3.8956	-1.5984	0.6236	1.3229	1.1692	2.8811
4968.0000	-4.6173	24.7681	0.9810	-2.0724	-1.3428	-1.9964	5.0520	0.1270	3.2605	0.0147	1.5299	0.5537	-2.9695	-3.2204	-0.0574	-7.6289
4976.0000	3.3999	39.3006	0.5576	-3.3577	-2.2981	-3.3427	8.2163	-1.1525	15.6437	3.1704	4.7409	2.2990	-0.2174	-5.9015	5.9241	-9.2623
4984.0000	3.6055	32.0192	7.9996	-0.3243	-0.8567	-2.6474	9.4944	0.4925	20.8911	2.0736	5.8903	4.8272	-2.5482	-4.7374	4.8723	-9.1260
4992.0000	-0.8185	33.0852	11.2106	2.1521	1.3228	-2.4848	6.0876	2.3195	19.3953	1.3116	7.8189	14.3832	-2.5912	-3.1954	9.9259	-8.4513
5000.0000	0.1783	34.0891	5.1800	-1.1692	-0.8793	-3.2567	-2.9083	0.6985	20.8871	1.9589	4.0622	7.8572	-0.9107	-4.5478	9.7601	-8.7859
5008.0000	2.1127	33.9797	11.1848	4.8523	1.0150	2.1913	-4.5670	3.9840	24.8032	8.7925	7.0692	8.1234	-1.8160	1.5060	6.7852	-0.0528
5016.0000	-1.0993	41.0612	5.2966	5.5830	1.6533	3.5887	-0.2196	5.1725	26.5653	11.0743	10.9905	13.8688	1.0563	5.0594	8.2347	6.7624
5024.0000	-8.0259	21.1133	-4.7514	-4.5953	-2.6021	-3.7622	-1.7308	-0.5254	8.4647	-4.9059	-3.3261	0.1077	-3.0359	-3.6436	-3.6536	-8.6795
5032.0000	-4.0311	28.2671	4.5512	-2.5332	-1.1023	-3.8957	-5.0445	-1.5669	-8.5306	-8.3240	-8.2863	-1.2488	-7.6405	-6.6677	-7.2656	-17.0676
5040.0000	-6.3964	34.8844	4.0520	2.7836	1.3634	1.6966	-7.9388	2.8438	-0.5262	4.2395	-0.6600	7.2747	-1.6570	1.8054	4.2609	-0.7540
5048.0000	-9.2127	24.2605	3.8748	5.4757	1.8970	4.8287	-0.0552	6.0199	13.5835	10.3945	-0.4041	9.7405	-0.1148	7.1533	4.8455	8.4684
5056.0000	-2.7652	46.0295	9.9646	6.0268	1.9336	3.6712	14.2344	5.5084	20.1993	11.9858	3.6661	12.4775	-1.7532	3.7036	6.1367	2.3391
5064.0000	-16.3356	26.2991	0.9555	-4.4336	-2.3337	-4.1542	8.3327	1.8904	12.0442	-0.3706	3.9624	0.9432	-3.4373	-3.5771	5.7514	-8.5420
5072.0000	-17.0278	32.3875	3.4360	-8.0200	-3.4649	-8.3173	16.0586	-1.1823	-2.3389	-9.7562	-4.1511	-4.8455	-8.7551	-10.2657	-1.8751	-22.2735
5080.0000	-2.6364	56.6642	10.0418	-3.2384	-1.3706	-5.1362	23.8221	-1.1752	-2.7232	-1.0332	-4.8951	1.4491	-7.0205	-10.0943	2.2510	-21.5294
5088.0000	-11.0975	14.9451	-3.9638	-6.1349	-3.6668	-3.8256	-12.0596	-0.4072	5.4489	-0.5530	-3.7504	-4.8420	-2.3964	-4.8573	3.0368	-10.0480
5096.0000	27.5097	44.3590	10.0572	6.1434	2.7755	4.7470	8.0268	-3.5270	-25.9357	6.9995	-0.1545	-2.5772	-0.3895	-2.2664	-4.8902	-2.9477
5104.0000	20.7197	37.1291	3.3650	6.2237	3.8273	4.7488	-0.1721	-2.2945	-21.7276	2.5643	0.3344	2.0201	3.5670	2.5561	-2.3772	7.0774
5112.0000	13.8590	28.8301	-11.5212	-1.1614	0.3298	1.5317	4.5089	-3.7224	-8.0017	0.1940	-0.9337	-6.0766	10.2233	3.1175	2.1882	14.9940
5120.0000	6.2438	18.4605	-24.1928	-4.9616	-2.2014	0.1020	4.6167	-3.6900	2.6873	-1.6715	-0.9001	-2.8152	10.1204	3.4313	-4.1952	14.0615
5128.0000	-6.5418	13.2918	-31.0066	-8.5504	-3.9859	-2.7019	-11.0344	-3.8733	-2.2114	-9.0430	-6.2978	0.2161	4.9929	0.9544	-12.3315	3.7886
5136.0000	-6.5722	7.9542	-24.3211	-9.1322	-5.4184	-3.5174	-38.0841	-4.0965	3.4825	-14.4336	-9.3591	-12.3535	0.4853	-0.4849	-17.7093	0.0084
5144.0000	-3.9910	14.4342	-17.1279	-2.5642	-3.1254	1.8089	-41.8266	0.5896	24.3781	-4.4475	-0.7540	-9.4550	4.1200	7.5776	-9.6506	16.0002
5152.0000	-7.0945	17.0148	-20.5389	-5.6636	-4.7264	0.2324	-9.9231	0.6734	32.0759	0.9241	6.3249	-8.8713	6.1227	5.8094	-4.3962	15.6750
5160.0000	-7.3738	12.6044	-20.2626	-9.0967	-6.7953	-2.8117	-18.2339	-1.5997	28.6795	-5.8531	8.3951	-16.7711	2.0618	1.1188	-10.8879	6.6609
5168.0000	-9.0030	15.0608	-19.4929	-5.8577	-5.5216	0.3270	-38.6547	0.2783	25.3994	-2.1414	7.0201	-13.1717	2.0379	4.6046	-9.8978	10.1987
5176.0000	-8.4272	10.6508	-12.2846	-3.4831	-4.6682	2.2468	-13.4473	2.0769	24.8686	7.0327	6.7260	-11.0682	1.0988	4.5146	-5.6426	9.0703
5184.0000	0.0208	15.0823	0.4869	3.3692	-0.4828	5.0350	-13.9378	3.6667	21.2227	9.7696	11.8530	-4.5031	2.0146	7.0432	1.2943	13.7483
5192.0000	-4.7197	12.9052	-4.6054	0.7406	0.3094	1.9921	-13.6548	2.5454	15.2457	3.9608	8.6839	-0.6439	6.7242	6.7101	10.1504	16.5147
5200.0000	-21.1771	-3.3105	-7.8700	-7.7480	-2.8832	-5.0259	16.1064	1.2432	15.3028	-6.3328	-0.6030	-10.3831	3.8196	1.3083	8.1436	7.9722
5208.0000	-21.6729	-0.1523	0.2892	-3.7909	-1.2215	-2.3902	13.2696	3.4784	14.6571	-3.6565	-4.9606	-10.7815	1.8628	3.9019	8.0429	10.2602
5216.0000	-22.0515	2.8434	1.0416	-0.0134	0.3480	0.8346	-0.7054	5.9334	17.3510	3.7163	-6.8836	-1.1210	3.1592	7.1682	13.3035	13.3676
5224.0000	-25.6982	5.2843	4.3320	1.0238	0.5379	0.9123	4.9115	7.5173	23.1968	4.0129	-6.0571	1.6233	0.4854	7.4407	11.4805	11.3017
5232.0000	-20.1073	9.0759	9.4605	2.3231	0.9028	2.3020	19.3704	7.0673	19.2534	5.1740	-6.1493	-6.5550	0.0161	7.9204	8.3377	14.0810
5240.0000	-21.1097	2.5427	10.1302	3.6546	2.2000	2.7029	14.9797	6.9818	7.4233	3.2047	-4.0411	-2.9519	-1.1081	8.1314	7.0270	12.6390
5248.0000	-19.5996	1.3183	12.4631	7.4912	4.9677	3.6521	9.0832	7.6293	-3.3946	3.5068	0.6729	12.6653	-2.7443	7.9707	7.9409	7.8387
5256.0000	-20.0085	-4.9894	10.2337	5.8530	3.7853	3.4922	23.4203	7.8353	5.3125	7.4292	-1.8471	9.9563	-0.5235	8.1244	10.8121	10.5137
5264.0000	-25.3316	-0.9222	0.9789	3.2898	1.5408	3.2406	8.4569	8.5664	23.4458	5.5953	-1.4097	6.4660	1.3936	11.0928	7.8058	17.0194
5272.0000	-19.1465	10.0746	-5.8304	1.0587	-0.0904	2.2992	2.7181	5.8545	20.4303	4.6295	-0.8791	7.3966	0.8108	7.8291	1.6828	10.7114
5280.0000	-20.1778	4.6077	1.3411	-1.1854	-0.8930	-0.8294	16.2786	4.1411	8.3184	1.4201	-5.8540	2.9400	-4.7198	1.0696	-0.6351	-3.5277
5288.0000	-18.5568	13.9443	10.5828	4.5780	2.1214	1.5613	-2.8968	6.6961	9.4449	3.6694	1.1650	11.8988	-5.8068	3.6153	4.6938	-1.9076
5296.0000	-8.8975	19.8654	9.4934	6.5373	1.5146	4.5724	-4.7410	7.7035	28.5846	16.0284	9.5504	15.2333	-1.6637	5.4518	11.1708	3.8937
5304.0000	-5.3843	16.6317	14.4124	6.8143	1.0871	3.6745	9.9005	7.9503	40.8530	16.7050	14.1561	15.1844	-3.3174	3.7323	10.3088	1.1414
5312.0000	0.0863	20.3231	11.0056	7.5273	3.6401	3.0145	20.7358	5.6394	21.6492	12.2688	19.4399	21.8817	0.7791	3.8192	13.2138	4.3953
5320.0000	-10.3198	6.1666	-9.9126	-6.1091	-1.8085	-3.8808	18.0274	-0.7477	0.4446	0.7244	2.6379	2.3206	4.6205	-2.2167	10.7751	-0.1155
5328.0000	-17.4150	6.4251	-13.1061	-13.8614	-6.0152	-10.3873	-9.0697	-4.5639	-3.3548	-17.0236	-15.0182	-12.6753	-3.1213	-9.7615	-4.1800	-16.8245
5336.0000	-5.3557	18.5039	-3.3101	-6.3768	-3.3221	-6.1338	-0.1255	-2.4532	3.7147	-7.8858	-6.1662	0.1300	-5.4756	-8.3872	-5.5874	-18.1924
5344.0000	-4.9499	14.8369	0.2785	-2.4161	-2.5311	-1.9998	6.4645	1.2502	18.5224	5.2695	3.0087	4.8326	-3.2681	-3.9572	2.0589	-10.1059
5352.0000	-1.0363	17.2724	5.4009	0.6072	-0.4680	-1.5565	-3.4349	2.3234	28.2930	3.2355	6.4028	8.3164	-0.6741	-1.2858	8.0238	-3.3347
5360.0000	1.9975	6.1916	5.4576	0.8706	0.2615	-1.9067	19.0005	2.2254	32.8922	4.1035	7.6091	10.8278	2.1619	-0.7022	11.1351	0.5976
5368.0000	-9.1182	-7.3314	0.5640	-4.8360	-2.8372	-5.5212	6.5152	1.1217	32.7681	-4.8834	2.8196	-0.5720	-1.1397	-3.1160	4.5276	-4.4133
5376.0000	-13.7889	-5.0815	-1.8007	-7.2347	-3.6334	-7.3113	-26.3385	-0.0600	26.3627	-12.8492	1.8572	-7.9408	-1.3727	-3.5221	4.3206	-4.5215
5384.0000	-15.5452	-4.8810	-4.1254	-7.6227	-4.3561	-6.0377	-27.6765	-0.3071	15.5921	-9.6711	-2.6232	-9.3832	-3.4618	-4.2274	-0.0720	-8.4465
5392.0000	-15.0537	7.5041	0.0692	-3.5887	-3.1186	-2.5413	-16.0596	1.5702	8.4633	-2.6556	-2.7294	-3.1940	-7.5168	-3.1698	-5.5844	-11.9251
5400.0000	-14.7376	5.2484	1.6036	1.0724	-0.6176	2.3940	1.3045	5.5846	18.0506	13.1460	8.6343	4.0676	0.8072	4.1829	12.0658	5.8012
5408.0000	-15.7420	-13.2922	-7.0475	-5.1127	-2.6440	-1.4065	-4.4877	1.5193	5.4614	4.6088	-0.4800	-6.0958	3.2541	0.7866	10.9415	3.8126
5416.0000	-8.8548	-2.0487	-2.6215	-2.9989	-0.0079	-3.1034	-9.9474	-1.4310	-17.3835	-9.6898	-10.4984	-1.3847	-1.8986	-2.3338	-1.8621	-5.9972
5424.0000	-1.2790	9.7182	7.4893	10.5860	5.0452	7.2925	-1.3996	6.5888	8.7373	12.4874	5.7741	20.4378	1.2925	9.3818	6.8951	11.6847
5432.0000	3.0041	6.0642	4.3956	9.0450	2.1544	8.4620	-6.2967	6.0043	17.3571	19.2404	9.6739	14.6723	-0.1561	7.7377	2.2240	8.3424
5440.0000	0.4861	5.6234	5.2347	4.5924	1.5191	4.1607	2.3248	2.4398	-6.7432	10.6015	2.7130	6.9248	-2.2843	1.6015	1.1229	-1.6095
5448.0000	-3.2177	2.1877	9.2696	8.5480	4.1371	7.0318	11.2291	6.1123	1.6087	16.3795	3.2755	11.2475	2.5290	8.0857	12.1744	12.2659
5456.0000	1.5707	7.6210	10.0891	7.0700	2.9566	5.9395	11.1361	4.3331	4.3440	11.3736	-1.5001	2.1046	1.2271	6.5676	5.3213	11.0098
5464.0000	8.5131	15.3887	12.8969	5.5344	2.2920	3.9969	21.2231	2.2593	2.4931	13.1789	2.6253	1.7084	1.2720	1.5684	9.3540	3.9633
5472.0000	7.9519	4.8583	7.7629	1.8131	0.7205	1.0732	19.5872	1.1804	13.6460	12.6188	5.2381	2.3660	4.9808	-0.4600	16.9605	4.0080
5480.0000	2.4951	0.3002	6.3397	-0.3219	0.1108	-1.4238	6.1370	-0.2421	4.7023	0.0474	-1.6843	-2.9777	0.5078	-1.9964	5.9880	-1.4090
5488.0000	13.4258	7.6549	13.7810	10.1562	3.7032	6.7643	-5.1675	3.7072	7.1407	16.8856	13.1132	14.6942	-0.4811	3.1903	7.5892	2.1014
5496.0000	21.5013	1.2322	6.0882	9.8525	3.7665	7.6415	3.8708	2.4590	9.4895	23.4269	21.0219	21.2316	5.8906	3.7635	14.1513	7.3456
5504.0000	6.7884	-8.5719	-9.1769	-2.2528	0.1372	-1.1798	20.5236	-3.1139	-13.5236	3.4942	4.5071	8.4283	5.1477	-3.0194	5.5057	-1.9910
5512.0000	-0.2450	-8.3113	-14.1465	-6.1514	-2.5594	-3.5280	-0.5114	-4.3209	-18.6296	-0.6577	-1.9321	6.8311	-0.3399	-7.4170	-2.4458	-15.0396
5520.0000	-3.2720	-7.6560	-9.6315	-7.7935	-3.3088	-5.9050	-17.7223	-4.9532	-18.7501	-7.7141	-4.2717	-0.7371	-3.1995	-9.6691	-3.4433	-19.4228
5528.0000	-6.9783	-7.9702	-2.7956	-6.5522	-1.9712	-6.0564	-3.5512	-3.5844	-18.6864	-9.9602	-1.6466	-4.7774	-3.2118	-7.8400	-0.5519	-14.4170
5536.0000	-5.4935	-11.3960	-5.5711	-3.2952	-1.8776	-2.2668	-16.0400	-0.7140	0.1288	-1.2483	6.6855	2.3006	-1.2787	-2.9449	0.8916	-6.8289
5544.0000	-10.4802	-15.2641	-11.9644	-4.3703	-2.7522	-2.7347	-28.2220	-0.5506	5.5064	-8.2412	-1.1361	2.3334	-3.1717	-1.1774	-9.4697	-6.3800
5552.0000	-8.7368	-11.6544	-8.0229	-2.5101	-2.3923	-1.9807	-3.5982	-0.1154	3.6581	-7.8372	-3.4927	5.7923	-8.5838	-2.4818	-20.2649	-13.1378
5560.0000	-4.3556	-7.4948	-2.1257	-0.5020	-2.0021	-0.8237	-7.6273	0.8281	11.9653	-3.6301	5.3238	4.5938	-8.0460	-1.8799	-15.4841	-10.6961
5568.0000	-2.6812	-11.1086	-4.6257	-3.0266	-1.7368	-3.6568	-24.0121	-1.4597	10.9045	-13.9490	1.4252	-2.7973	-3.0727	-1.4456	-10.4514	-3.8146
5576.0000	6.2092	-10.3786	-2.3302	-2.3304	-1.2263	-4.0663	-15.5644	-3.3792	4.0691	-13.9379	-1.6872	0.6130	-4.3586	-4.8392	-13.1779	-10.7227
5584.0000	13.5238	7.9198	7.5517	3.7740	-0.0789	1.2153	-34.8087	-0.9462	4.5328	-0.3281	5.4896	4.7969	-7.3537	-3.8834	-10.5019	-13.4892
5592.0000	18.9729	16.6271	9.9564	10.5182	2.9216	7.3750	-35.9653	2.1863	7.1477	11.6024	11.2563	13.3718	-3.0548	3.0429	-3.8016	-0.8468
5600.0000	18.7013	9.0914	14.2088	14.2931	6.4902	9.0251	4.1890	4.2222	3.5551	15.4997	12.1598	22.2753	0.9201	6.8798	3.9552	8.2691
5608.0000	15.1220	12.6782	18.6246	13.9038	6.2629	9.4713	-2.7894	4.8947	-0.3430	17.7329	8.5816	13.6632	1.3550	7.2729	9.7143	10.3818
5616.0000	16.6970	12.1634	13.0002	13.7516	5.0412	11.5540	-20.1760	4.6716	0.1953	20.3477	5.0426	10.5895	1.5167	8.8574	4.5052	12.1957
5624.0000	18.7052	7.1118	13.7146	15.2833	6.9382	10.2050	1.1981	4.0979	-2.4176	11.9337	5.1017	18.8427	-0.5104	8.7228	-3.8629	10.2377
5632.0000	17.4938	8.6195	11.3819	9.3581	5.2984	3.8813	3.4484	0.3032	-7.9215	-0.1141	2.4025	14.0158	-1.3822	2.1582	-4.4771	0.8816
5640.0000	8.3949	5.9170	3.2661	0.6519	1.3748	-2.2073	-20.3388	-2.8887	-12.7555	-7.6424	-2.4758	5.6404	-1.8581	-4.5594	-1.0757	-9.8555
5648.0000	6.6644	8.3891	5.3550	-0.1790	0.8262	-3.2648	-25.8873	-2.9733	-11.9661	-9.0172	-0.3665	3.4420	-3.4079	-6.0645	-0.5436	-12.9877
5656.0000	8.2146	1.6639	1.5094	-2.7548	-0.5503	-4.0939	-3.2478	-4.1837	-9.8960	-7.7605	0.5496	-1.6243	-1.5259	-6.9518	-1.4719	-11.1868
5664.0000	-0.5910	-8.7856	-4.6630	-7.6724	-1.7848	-7.7456	15.4650	-5.2830	-12.2033	-14.1773	-6.2377	-5.3651	0.0171	-8.2428	-0.9615	-10.9930
5672.0000	0.8072	-1.1357	-2.3971	-5.2637	-1.3295	-5.5408	5.6489	-4.1556	-9.1065	-13.1823	-7.5630	-6.6599	-1.2947	-5.8339	-4.9567	-8.3307
5680.0000	4.6983	-2.3500	1.6080	1.5513	0.5166	1.2508	-13.3972	-1.3388	-13.2399	-4.3727	-1.5827	-4.4075	-3.2547	-0.1055	-10.0839	-2.3425
5688.0000	7.9684	-5.4430	8.9917	6.4803	4.4232	2.7129	-6.5221	-0.5028	-26.9362	-4.2616	6.3821	5.2996	-3.0096	1.2933	-5.5481	-0.7415
5696.0000	16.3520	-3.7122	7.7348	4.4156	4.4693	0.0948	12.5554	-3.4026	-30.5087	-4.4752	11.4128	8.0031	0.4733	-2.8572	0.7401	-3.6295
5704.0000	17.8139	-4.9350	3.0953	0.5163	2.1271	-1.6416	6.3701	-5.5858	-30.7856	-5.1028	5.3668	1.2944	1.1124	-5.9562	0.1385	-7.5080
5712.0000	21.3292	4.7033	9.4951	1.7443	2.4397	-1.5253	3.4129	-5.4097	-25.3299	-6.8645	-1.1201	-3.1870	-0.1809	-6.0589	-1.1582	-7.5957
5720.0000	20.4972	4.6578	14.8866	5.1928	4.0549	0.9436	20.2982	-2.7252	-17.3274	-3.4418	4.8665	-3.5998	0.9527	-1.4170	0.7782	2.0595
5728.0000	16.9167	-2.8513	13.5376	7.0743	5.9282	2.7324	28.7966	-1.1013	-21.0236	-0.9900	11.8731	-0.5045	5.0283	3.1835	7.0426	12.6664
5736.0000	17.7119	-6.0162	8.2598	2.1243	4.0947	-0.8087	23.1293	-4.4955	-29.0926	-6.3858	5.0754	-5.9813	5.9568	-1.4301	7.3707	6.6515
5744.0000	16.7361	-6.8342	11.8559	-1.2646	1.9370	-4.3376	5.7937	-7.4761	-43.0763	-16.0459	-1.9518	-15.0730	-2.7605	-8.8671	-4.7992	-11.3636
5752.0000	23.5896	7.1096	18.0571	2.9291	4.3345	-2.5989	3.7894	-6.9061	-45.9342	-13.6771	5.6659	-8.3990	-2.5033	-8.0159	-1.5754	-10.2993
5760.0000	18.5095	4.6795	6.7192	-0.4360	3.4331	-3.1012	12.5391	-6.2841	-33.2187	-8.4453	4.9535	-7.4355	7.6092	-4.3856	13.1101	3.4296
5768.0000	7.9408	-5.9600	-0.2157	-6.2025	-0.7304	-4.8632	2.0471	-6.8730	-31.2323	-10.6113	-8.5091	-19.8213	4.1593	-6.5342	5.1965	-2.4979
5776.0000	14.0641	8.6220	3.6406	-1.7718	-1.0634	0.1855	-2.2604	-4.9210	-24.7664	-0.6581	-9.8014	-18.6036	-0.5538	-4.8612	-4.6681	-5.0853
5784.0000	14.8112	16.6005	2.9620	2.4961	0.4573	4.3226	2.3200	-2.0496	-16.5347	6.8997	-5.3799	-11.0926	1.3896	0.6704	-3.8561	3.7737
5792.0000	14.9419	15.8012	0.5124	0.5317	-0.4923	2.3342	0.0808	-3.4801	-16.6918	1.6657	-7.0531	-11.7148	-0.3767	-1.6473	-9.0465	-1.1657
5800.0000	13.2903	19.1851	-4.5640	-1.9104	-2.4790	1.4021	-11.3565	-3.9260	-8.4652	1.2005	-11.0885	-13.3208	-0.6633	-2.6389	-11.3005	-3.5214
5808.0000	9.4757	21.1263	-1.5310	-0.2935	-1.4510	2.3106	-19.1990	-2.3482	-7.0948	-0.1766	-11.0305	-14.8822	-0.4360	0.2717	-9.5325	1.6671
5816.0000	14.1731	21.9938	4.8564	3.0580	0.7311	3.8794	2.3264	-0.8473	-0.1766	3.8253	-0.5860	-13.1013	3.1363	3.3619	-1.9609	11.2431
5824.0000	8.2686	20.0484	0.5998	5.8035	2.1415	7.3215	18.5495	3.5892	18.7205	14.7701	7.2084	-3.5760	10.4236	11.3216	10.2429	28.4230
5832.0000	0.0410	19.3197	-2.5281	6.9676	3.1924	8.1909	11.4480	5.4848	16.8788	13.5774	5.4204	3.0915	10.3689	14.5182	9.9450	31.3868
5840.0000	-3.5837	11.3586	-4.7309	4.7550	2.6667	5.5545	2.6046	4.4458	15.2748	6.1135	7.2701	2.2709	9.3930	12.9543	8.1419	28.5419
5848.0000	-4.1609	8.5383	-3.7128	4.8978	2.7530	4.7535	-5.7754	4.8117	20.8637	5.0467	13.3332	5.1199	9.2620	12.5803	10.6705	27.7016
5856.0000	-2.4149	11.2438	-7.7663	1.9517	0.6080	3.4766	-0.3261	2.6961	11.8944	8.9552	10.8739	7.6170	6.0926	6.5632	6.9349	13.8557
5864.0000	-10.5729	0.8577	-23.2020	-8.2819	-4.6218	-1.7395	5.9407	-1.2664	5.4273	4.5324	-1.6164	-1.1273	5.4558	-0.1426	1.3259	2.6502
5872.0000	-9.7886	7.5930	-18.9506	-8.7952	-4.4565	-3.9573	0.7126	-1.8881	11.7298	-4.3919	-6.3458	-6.0231	4.3088	-0.8029	-1.1508	2.5357
5880.0000	-11.2635	10.6816	-13.1105	-5.8536	-3.4839	-2.5565	-3.4771	0.4208	19.2543	-1.8885	-4.9876	-2.0171	2.3142	0.7318	-0.2153	2.5886
5888.0000	-22.5408	-5.9493	-22.3100	-11.1610	-6.3744	-4.1863	1.3522	-0.1267	13.5017	-1.5303	-13.3206	-7.2018	1.4514	-0.9880	-2.9118	-1.5326
5896.0000	-15.8937	0.2249	-15.2454	-10.0548	-5.5462	-3.9835	10.4413	-1.5916	2.3092	-3.6953	-16.8795	-14.3620	-0.2350	-2.6216	-6.1506	-3.4670
5904.0000	-6.9334	5.1123	-5.6311	-2.9794	-1.7377	-0.0615	4.4908	-0.0598	-3.6012	0.9959	-9.4093	-6.7690	0.3189	0.4441	-2.0813	1.0305
5912.0000	-2.6986	5.0896	-1.1023	1.8620	2.0791	1.3962	10.4019	1.1278	-8.5601	2.9835	-0.3073	7.1987	2.9730	2.6645	5.9038	5.1389
5920.0000	-8.5500	6.2180	0.0200	2.5258	3.1440	1.1751	20.2714	3.1598	-0.8777	3.3811	5.7707	10.3208	5.5886	5.5183	13.2142	12.2266
5928.0000	-23.7870	-13.0129	-15.6291	-6.0044	-1.7556	-2.0036	11.2025	1.8414	1.5057	-3.2785	-6.6157	-2.7871	4.8958	4.6946	4.4177	10.9266
5936.0000	-24.5259	-15.6929	-21.0506	-12.4596	-5.4860	-5.9342	22.6542	-1.6202	-0.6213	-9.8281	-22.0206	-13.8648	1.3811	-1.3261	-6.7858	-0.0541
5944.0000	-27.4313	-14.7924	-14.8442	-10.2262	-5.2213	-5.1479	24.0697	1.6337	20.3015	-5.0720	-17.0528	-9.6006	0.5723	0.4313	-1.7109	1.8473
5952.0000	-30.7291	-30.5900	-13.3807	-10.2564	-4.3109	-7.2551	8.9994	1.0434	13.0454	-14.2612	-15.7606	-6.5758	-2.1690	-0.8821	-4.6462	-2.8879
5960.0000	-26.7277	-27.5256	-8.3129	-11.7611	-3.1323	-10.9052	3.5565	-3.1671	-16.1265	-27.7381	-22.4230	-12.1451	-5.5933	-6.5966	-9.5459	-13.2789
5968.0000	-25.7643	-21.3298	-8.0087	-7.9237	-2.3516	-6.4856	-11.0783	-0.0237	-1.2471	-19.4477	-15.9244	-10.9776	-2.1747	-0.0997	-4.7353	-0.6358
5976.0000	-15.1911	-14.6423	-5.0679	-0.8871	-0.3883	-1.0081	1.4563	3.5920	25.5464	-7.2330	-5.0275	1.3813	0.7606	6.1854	-3.1954	10.5385
5984.0000	-9.8558	-5.6875	1.5836	0.0441	-0.6973	-1.6546	18.8557	3.9045	35.6707	-2.3524	0.3154	6.4654	-2.0867	2.4538	-2.1626	2.2783
5992.0000	-16.3443	-15.7517	-2.1784	-4.0756	-3.3557	-3.3967	7.2716	3.0542	32.9269	-3.1759	0.8992	-1.2149	-3.9387	-0.1849	-3.3474	-2.8816
6000.0000	-19.5380	-20.9152	-6.8514	-4.9641	-3.1427	-3.2556	-10.4896	2.3731	22.1901	-6.3442	-7.0062	-3.1317	-2.3166	1.1137	-3.1349	-0.4366
6008.0000	-21.6629	-18.1828	-12.0420	-9.9355	-7.0486	-6.0846	-30.4422	0.2470	24.3507	-8.7029	-16.4366	-6.8959	-7.5947	-5.1673	-11.4690	-15.9366
6016.0000	-16.8776	-14.9644	-7.8900	-12.7826	-9.7378	-8.3074	-8.4644	-2.5120	18.2605	-11.1201	-12.2675	-16.7848	-15.5107	-12.4221	-25.4866	-31.0832
6024.0000	-11.3019	-5.3814	0.2025	-6.1863	-4.4357	-4.3876	8.2907	-0.6422	7.0371	-6.7954	0.3818	-13.2590	-8.2903	-5.5103	-11.8477	-12.7534
6032.0000	-13.5990	-5.2241	-6.4372	-7.2066	-4.9934	-4.0566	-13.1648	-0.0988	15.0013	-4.2575	1.8344	-10.8539	-3.6635	-3.2800	-4.1889	-6.7591
6040.0000	-13.7200	-1.9730	-0.0701	-5.8828	-5.3912	-3.7859	1.2319	1.0241	19.8770	-1.8038	-0.3206	-8.5816	-9.6410	-5.5816	-10.8061	-15.6832
6048.0000	-5.7014	4.7521	9.5190	4.4509	0.7597	2.7870	4.4533	5.4131	23.0755	10.2203	8.1607	7.1066	-2.4435	3.2804	5.8164	2.1825
6056.0000	1.1394	-0.2445	1.7022	3.1313	0.9187	1.7467	-5.6940	2.7910	19.8729	6.4271	10.6893	10.0844	2.0748	3.0025	7.0899	5.0899
6064.0000	-1.6062	3.2870	-2.9818	-2.8535	-1.4316	-3.9275	2.0187	-1.6361	2.4963	-6.9627	2.2968	6.6579	-4.8170	-5.4081	-7.6764	-13.4930
6072.0000	-4.0270	7.5298	-9.5475	-4.8213	-2.9059	-3.8547	-18.8215	-1.7917	5.4744	-4.1110	-2.6778	7.1751	-2.9626	-5.4597	-4.4830	-13.8494
6080.0000	-3.5141	7.6613	-2.9660	-1.5143	-2.4375	-0.4260	-20.6455	1.2587	20.9897	1.9965	-0.9064	0.6792	-1.7389	-0.3733	-1.4676	-3.1247
6088.0000	0.8275	16.1087	13.5383	7.1470	2.8065	3.6844	-4.5514	5.1006	22.9077	5.6619	8.3640	4.6624	0.0226	6.0821	6.8733	10.1154
6096.0000	4.0941	8.6959	5.1622	3.5477	2.2674	1.0933	-3.5654	2.1183	16.2958	3.7737	13.3424	6.6479	5.4068	3.6981	13.8177	10.7387
6104.0000	-3.5024	-4.2744	0.2815	-3.9896	-1.9869	-3.7805	13.6018	-0.9378	7.0395	-3.0068	5.0885	-3.8156	-1.4725	-4.1189	0.9776	-5.9151
6112.0000	-5.7932	1.9834	5.5036	-0.2379	-1.3827	-0.5539	6.6138	1.6260	6.5910	2.3445	1.8725	-0.1228	-6.6089	-2.6917	-4.6231	-9.8107
6120.0000	-6.2350	5.0564	2.6551	4.5057	0.4229	5.0563	-17.3716	5.0081	13.0220	12.0607	5.3876	5.5089	-1.2040	5.4866	3.1198	5.2649
6128.0000	-11.6505	-0.9019	2.6773	4.7770	1.2489	5.9995	-6.0300	6.2393	10.6045	11.6739	0.1046	0.5482	1.3652	9.2824	5.6015	14.4626
6136.0000	-7.8868	1.5161	0.0072	1.8747	0.5852	3.0675	11.3286	3.0066	-0.9738	6.6840	-4.8614	0.8853	-0.0330	4.1878	0.5537	5.4774
6144.0000	0.6918	11.9186	3.0212	4.3601	1.5324	4.1948	11.7820	2.3180	-5.4879	9.9248	2.0391	7.3376	-1.5170	2.3812	-0.8400	0.4849
6152.0000	4.9324	11.2194	6.9398	7.2425	2.4072	6.2702	-2.2614	3.5912	1.8510	14.3723	7.9391	8.9356	-0.1781	4.4306	3.9367	4.6578
6160.0000	-1.0798	3.2776	0.4220	2.7096	0.3671	3.0872	-12.8696	2.0803	0.9976	8.4029	4.4200	6.0986	-0.8436	1.8121	1.9843	-0.1596
6168.0000	-2.8606	6.5880	4.8150	5.2066	1.8701	4.3839	2.8298	3.6910	-1.2946	10.5455	2.9271	10.0464	-2.0925	3.2135	1.7958	0.5425
6176.0000	1.6142	4.1334	2.9163	3.7429	1.1462	3.3598	11.3740	2.6322	6.7616	10.7668	4.7161	8.0391	0.7359	2.5340	4.2848	3.0003
6184.0000	-2.3580	2.2468	-7.7163	-4.9244	-2.9620	-3.3981	-2.6818	-1.9765	4.6909	-3.1813	2.4019	0.3236	-1.8578	-4.5974	-4.4206	-9.1502
6192.0000	1.3492	9.6413	-2.8496	-0.2676	0.2131	-1.3266	1.4338	-0.9217	-2.9191	-1.7141	0.9243	10.1867	-1.5886	-2.6624	-2.5241	-7.6255
6200.0000	-2.2261	-0.2532	-3.9781	1.9937	2.2483	1.0670	6.1769	1.4073	-1.3163	3.1052	2.9715	13.3119	4.6229	3.2590	8.2385	6.4046
6208.0000	-11.2502	-3.5113	-9.4500	-2.7619	-1.6387	-0.2961	-8.2507	1.1348	3.6220	0.7574	2.2068	0.8036	1.0394	1.9026	0.4244	2.6571
6216.0000	0.4377	6.3358	-6.0844	-1.6500	-2.4955	0.8449	-4.2824	-0.3247	4.2634	5.6440	-3.5076	0.9947	-2.3522	-1.8676	-6.3644	-6.6614
6224.0000	4.5399	2.7383	-5.5373	-1.8429	-1.2297	-0.8202	-2.0224	-1.7931	-0.3513	2.2069	-3.3942	4.2684	0.5533	-3.0878	-0.6840	-6.0933
6232.0000	6.6902	7.2844	-0.3045	1.4121	-0.0879	0.9944	-18.3566	-0.5241	2.7761	1.9712	4.3821	4.1076	-0.7880	-0.8369	-1.7126	-3.1443
6240.0000	11.5466	11.4844	6.2404	6.3724	1.1481	5.3662	-20.8854	1.6714	6.4780	9.3839	2.5689	5.0419	-2.4197	2.2274	-4.0848	-0.2759
6248.0000	2.4504	-0.4604	4.0123	1.7752	0.9238	1.0963	-6.4898	0.4772	-0.3916	1.2543	-3.2736	-1.0257	0.6451	1.0135	2.7429	2.1654
6256.0000	4.8439	-2.7565	3.1796	-2.0849	0.4933	-3.3877	15.3526	-2.2698	-1.6508	-4.6889	-0.1327	-3.3924	3.4262	-3.0143	7.9303	0.3586
6264.0000	11.1818	7.1216	4.4346	0.1637	0.6288	-1.5296	14.8453	-2.3129	-2.1495	-0.4761	1.2240	1.7059	0.6958	-4.0003	2.3346	-4.8211
6272.0000	12.5708	12.7143	3.7022	2.4774	1.2739	0.5584	-10.5628	-2.0967	-10.0376	-0.0360	1.8151	5.6136	-1.6088	-3.1254	-2.3943	-7.3436
6280.0000	15.7049	4.7830	3.6025	2.9835	2.5668	-0.0684	-20.0081	-2.9719	-14.0852	-2.7317	5.0148	8.1262	1.4478	-2.7999	3.2047	-4.3538
6288.0000	10.8342	0.7538	5.5164	1.0998	2.6821	-2.0038	-7.2134	-3.0495	-14.1953	-7.7499	1.0346	0.3717	3.2977	-2.1579	6.8397	0.5995
6296.0000	16.1441	10.7832	11.1054	3.6935	3.6576	0.0716	9.9718	-2.2810	-10.9680	-4.5069	1.2352	-3.2395	3.8225	-0.1495	6.0675	5.8772
6304.0000	28.0958	12.9250	14.8201	12.5517	6.8392	6.7709	5.3409	0.6228	-6.6437	10.6941	14.2287	17.0742	4.1857	3.7567	8.0406	8.1325
6312.0000	23.2765	9.7518	8.7726	12.6730	5.7369	9.2988	-4.5890	1.7947	-11.8004	18.7692	13.8649	21.6898	2.4721	4.4126	5.3576	4.7077
6320.0000	15.0928	10.3930	3.9288	6.9230	2.9987	6.9596	2.9519	0.0372	-20.8347	13.7738	0.8922	5.5083	1.7356	2.6086	0.6851	3.5026
6328.0000	16.4567	10.5719	7.3302	8.5344	4.6594	5.4100	1.8398	0.4839	-13.4980	8.9411	5.9472	14.1285	1.8687	2.5083	3.4350	3.0690
6336.0000	16.2087	6.0709	6.1485	6.2528	3.8328	2.0580	4.9220	-0.6232	-5.9553	3.2637	9.0259	16.9679	0.8356	-0.5767	2.3684	-2.3070
6344.0000	11.3834	-3.5560	2.2514	-1.2865	1.0536	-2.6189	13.6873	-4.9726	-25.4061	-8.3609	-4.2010	-4.0178	-0.3240	-5.4331	-4.0345	-7.1009
6352.0000	10.5616	-5.1047	3.9919	-3.6417	0.6560	-5.3646	3.2501	-6.9532	-37.0076	-13.0405	-6.8819	-7.0652	-1.6128	-9.6785	-1.5623	-14.6091
6360.0000	8.4956	-3.5938	6.5384	-3.8662	-0.6071	-5.6239	-17.3439	-5.7307	-24.1182	-10.2695	-6.1712	-6.6979	-3.5512	-10.8397	1.2214	-18.8419
6368.0000	9.2393	-7.2421	3.1725	-2.6044	-0.9750	-2.6110	-25.6570	-4.7220	-18.0255	-8.4174	-4.5103	-12.8208	-1.9349	-5.9174	-3.4115	-8.7568
6376.0000	8.5572	-15.8375	-5.8813	-5.9125	-2.2414	-4.1050	-1.3646	-6.2178	-16.8420	-10.1694	-2.8809	-13.6597	0.6690	-6.1441	-6.5770	-6.1038
6384.0000	1.4097	-27.0262	-3.1259	-9.6329	-3.8317	-7.7352	8.8689	-6.8793	-17.7333	-15.4671	-15.0645	-19.6280	-3.1049	-10.4287	-8.6704	-15.1356
6392.0000	9.8103	-22.5468	9.1219	-2.1824	-0.4713	-3.7982	-13.3524	-5.1266	-22.3374	-12.2833	-10.8496	-13.6490	-5.6660	-8.2714	-8.0281	-14.9936
6400.0000	12.7377	-20.5305	10.2314	0.9041	1.2862	-2.1208	-10.2359	-4.1881	-24.1691	-8.3442	-0.6963	-3.9322	-4.9253	-6.9676	-5.3041	-13.6861
6408.0000	5.0147	-34.1156	10.5509	-1.3453	1.2261	-3.6452	12.1153	-3.7035	-26.9750	-8.8418	-8.5120	-8.2705	-2.8691	-6.7374	0.5685	-10.6324
6416.0000	12.3822	-44.9148	11.7008	0.5422	2.6017	-2.2292	19.0919	-3.6195	-22.9620	-3.8041	-3.0789	-6.1225	2.6756	-4.6858	9.6763	-2.3346
6424.0000	15.2934	-65.8951	7.8585	-0.1880	1.6164	-3.3021	-3.7258	-5.2809	-23.5682	-9.8183	0.7059	-3.7641	-0.8755	-6.9091	-0.2000	-9.6081
6432.0000	18.5157	-79.6427	12.2601	3.3256	2.8443	-1.7838	-20.0309	-4.9264	-28.4734	-12.8239	-1.7133	0.5924	-6.0604	-6.8672	-9.8319	-15.2026
6440.0000	22.6603	-67.2247	16.8486	7.9428	4.9937	1.8363	-3.7531	-1.9518	-18.0869	-0.0350	9.1063	9.3392	-1.4721	-2.8789	2.5141	-5.8765
6448.0000	17.0718	-61.2507	15.7835	3.4131	2.9750	-1.3005	-0.8335	-3.4139	-21.5704	-4.9625	5.0390	-0.6408	-2.7143	-6.0304	1.7944	-9.9808
6456.0000	17.8514	-58.1078	15.5041	-0.2708	1.1877	-3.4209	6.5806	-6.1838	-32.8983	-9.7248	-3.3289	-12.9110	-4.8850	-9.9407	-4.2950	-15.7764
6464.0000	12.7104	-35.9998	10.9520	-0.1023	-0.1926	0.1179	12.3667	-3.8568	-27.6563	1.3408	-3.4297	-15.4356	-3.8442	-6.4114	-3.9919	-10.1160
6472.0000	6.4334	-2.6125	7.0385	0.1686	-0.0088	1.0061	-5.7692	-3.1742	-33.2867	-2.7209	-11.5065	-15.3757	-5.3314	-3.9378	-9.9267	-8.7999
6480.0000	6.7998	22.8247	7.7611	2.3295	2.9492	1.1427	6.9761	-2.3906	-35.0342	-3.7784	-9.7232	-7.4166	-0.1060	-0.7955	-0.6789	0.0949
6488.0000	6.7510	27.5761	7.7882	6.5691	4.1379	6.3490	22.0462	1.5962	-21.4922	11.0231	-4.9121	-1.2562	4.3123	5.7197	7.0112	12.7261
6496.0000	10.4964	18.1617	3.3508	2.5155	2.0116	3.2010	24.3023	-1.3636	-18.6801	5.3697	-11.3376	-5.8337	3.8033	1.5869	1.7224	6.7157
6504.0000	2.4458	9.9183	-1.6269	-7.7783	-2.1182	-6.4062	28.4046	-5.0360	-7.8326	-9.4641	-11.4675	-16.0102	3.4008	-6.4834	3.9350	-3.0260
6512.0000	-2.7465	14.5433	0.9210	-1.7956	-1.6859	-0.3349	4.2959	0.6876	13.2659	-0.0925	-4.9431	-10.7530	0.4076	1.1014	-0.5295	4.3895
6520.0000	-2.0609	14.0402	-2.0821	5.2218	1.2744	5.8271	-2.8356	4.9250	23.0657	9.0895	0.7225	5.5104	3.6108	9.8733	0.8327	17.1728
6528.0000	-11.9014	0.8140	-9.8126	-1.9711	-1.7204	0.9670	7.2322	3.8780	32.2685	5.8859	4.5008	-0.5701	6.9160	7.3222	8.3427	17.6187
6536.0000	-8.3578	1.3733	-5.2119	-0.9191	-2.7946	2.3692	3.5072	4.0440	35.4750	7.6162	5.3790	-7.0086	2.3549	6.4316	-0.0188	13.6027
6544.0000	-5.2306	6.5522	-4.5967	-0.7997	-1.7405	0.9515	5.3276	2.6313	27.0276	4.2860	6.0954	-1.6549	2.2737	4.1661	0.8951	9.2948
6552.0000	-11.2504	8.5373	-10.4320	-5.9551	-4.3170	-2.1253	-6.9475	1.1114	25.6107	1.8633	9.0116	-6.9010	2.4581	0.8652	3.5622	4.6770
6560.0000	-10.0944	16.9558	-7.4653	-0.3672	-3.0980	3.1190	-15.0967	3.7376	25.4190	5.6743	8.7532	-4.4726	-2.1693	5.5927	-8.8469	7.0661
6568.0000	-14.0651	19.2957	-5.7615	2.9300	-1.1466	4.6072	-13.4017	6.0188	25.3138	6.3777	7.8239	6.2147	-3.7501	8.0542	-9.9320	7.3329
6576.0000	-20.9946	17.0718	-9.9295	1.5156	-2.7905	5.4788	-24.1734	7.8244	34.6924	13.6092	13.4194	5.7153	-2.0341	9.5282	-3.4312	10.2338
6584.0000	-26.7750	12.8338	-13.1285	-3.0935	-4.6323	3.0573	-13.2690	6.2600	30.1810	6.8177	4.7236	-8.8906	-1.6512	8.8217	-7.1364	12.3906
6592.0000	-24.1960	11.8992	-7.8371	-7.1682	-5.3192	-2.1136	-2.6624	2.5856	20.2719	-4.2796	-7.3285	-19.4969	-3.3685	2.4193	-8.0769	3.7541
6600.0000	-17.6055	16.9995	-2.5967	0.8624	-2.5135	4.6533	-10.1327	6.8206	29.5191	13.6068	3.1571	-4.2188	-0.8266	7.8082	1.7199	10.8300
6608.0000	-19.0707	12.5845	-9.6474	1.3589	-1.9253	6.3349	2.7319	7.6121	29.7079	17.7357	2.0175	1.7555	3.0364	11.1320	3.3808	17.7699
6616.0000	-12.2716	17.1812	-4.7004	-0.1300	-1.1903	2.2502	16.6900	4.4583	23.6160	7.2699	-0.9964	-0.5129	2.2085	6.4151	1.8234	11.8440
6624.0000	-10.4871	27.6186	6.7307	7.0420	2.7813	4.9178	11.3496	8.1193	29.9666	11.5951	14.6086	12.9542	2.1197	10.0255	10.6632	16.2817
6632.0000	-18.3409	20.0742	-2.6004	-0.8587	-1.7124	0.7020	-3.3663	5.4202	27.6694	6.4662	10.9160	1.8818	0.2650	4.8831	6.8114	7.4665
6640.0000	-17.2054	18.3626	-7.9285	-5.0048	-4.4576	-1.1509	-12.1723	2.8273	24.9123	3.4218	5.7635	-6.2983	-1.2526	1.3080	0.5448	1.3039
6648.0000	-14.7014	18.2855	-3.5512	1.4144	0.2791	1.9005	6.6559	5.6395	27.0440	5.4555	8.9880	6.6468	3.4083	7.9766	7.3453	14.6487
6656.0000	-8.6161	9.0619	-4.2959	-2.0369	-0.9321	-1.2461	18.4222	2.2168	23.8604	-0.8157	0.3462	-0.8282	3.7086	3.7128	4.0437	10.1763
6664.0000	-4.3391	5.1711	-3.1371	1.5731	-0.3548	1.7004	5.5172	3.5158	27.4349	4.7972	6.8928	6.9469	1.4375	4.8448	0.4639	8.0441
6672.0000	-4.9222	-0.0473	-3.6037	5.8867	2.8157	3.6898	10.1253	5.1224	21.8780	4.0869	12.4929	20.4250	2.2192	8.7375	-0.1980	12.7143
6680.0000	-0.5878	5.4241	-1.1351	3.1944	1.6667	1.2090	10.1065	1.6810	8.9273	-4.6592	2.9375	8.3415	-1.3805	4.1272	-9.3415	4.8676
6688.0000	1.1428	10.5473	1.3213	7.6129	1.7677	6.5446	1.7302	5.0335	19.2341	9.2087	8.1811	12.4984	-2.2760	7.8253	-8.6182	8.0902
6696.0000	0.0510	-6.9254	-4.1458	6.9600	1.1141	7.8516	20.6015	6.0594	25.9897	18.8536	9.2464	16.9624	1.6766	9.1916	-2.4019	12.2695
6704.0000	-0.8252	-6.5456	-1.4930	3.8376	0.5661	4.2140	22.3915	3.3636	12.1630	9.9165	2.2402	9.5728	-0.9447	4.3931	-5.1380	4.1531
6712.0000	2.0432	4.6663	1.1678	6.0752	1.5935	4.9020	8.1880	3.5487	9.3107	9.9220	10.5072	15.0461	-2.5617	4.0420	-5.3410	1.3649
6720.0000	3.3740	-8.4612	-2.5747	3.9277	1.0155	4.1162	9.4926	2.4621	8.9795	12.0370	13.6281	12.1133	2.2879	3.8200	2.8679	5.7601
6728.0000	-3.5329	-15.7112	-3.0499	-1.4178	-0.0936	-0.5175	5.9346	-0.5212	-9.8119	0.1744	1.6053	-0.2651	0.9222	-0.4540	1.8267	-0.1203
6736.0000	-7.1174	-10.6645	-9.9494	-5.3050	-2.6810	-2.9757	3.1984	-2.5748	-15.8857	-5.0416	-3.1579	-0.0851	-4.7940	-5.2191	-11.2942	-13.5015
6744.0000	-8.1240	-7.0942	-15.0670	-1.9179	-2.6480	1.7938	-9.3573	0.9265	2.1761	5.1902	0.5161	7.3511	-2.4697	1.1661	-10.7923	-4.0102
6752.0000	-3.5116	2.4146	-8.7242	2.1371	-0.0854	4.0768	-14.6773	2.4195	7.0577	6.2703	-1.9072	6.9596	1.3490	5.6683	-3.9023	6.9600
6760.0000	-0.2578	5.1855	-6.6786	-0.2140	-0.8197	1.3775	-1.4633	0.2232	2.7271	3.0530	-2.9680	3.3151	0.2962	1.2320	-4.3784	0.5504
6768.0000	-10.1136	-4.7084	-15.3133	-3.2214	-3.2087	1.7859	-13.5206	1.3362	7.5271	7.1878	-4.0286	0.6159	1.2622	2.6624	-3.1574	2.4603
6776.0000	-11.7516	-8.2867	-17.5577	-8.9906	-5.8185	-2.5087	-7.4384	-2.0670	-0.6018	-1.1409	-14.1663	-10.9318	-1.4548	-3.0875	-9.5935	-6.8209
6784.0000	-7.6627	2.0101	-5.8772	-8.1118	-4.0902	-5.4916	7.1594	-3.5838	-11.3120	-8.5516	-12.1631	-10.4779	-5.5592	-8.0176	-10.0758	-16.2831
6792.0000	-10.0168	9.1229	-5.5188	-2.7263	-0.9987	-1.0990	-16.0163	0.2545	-5.6614	-1.1008	-4.3731	-0.4533	0.4020	-0.1241	3.2185	-1.2924
6800.0000	-11.3527	3.7089	-10.4101	-5.7494	-2.6180	-2.3104	-6.8899	-0.8410	-4.8176	-1.3534	-8.6812	-4.3356	1.2479	-1.4140	1.7484	-2.1516
6808.0000	-9.4781	-3.7026	-4.9542	-5.3625	-2.4098	-3.6801	13.9720	-1.3055	-7.7391	-2.3960	-7.3140	-0.7128	-3.3423	-5.2915	-2.8891	-11.9315
6816.0000	-6.3404	-8.4933	-11.5291	-5.5832	-2.8528	-2.7963	-5.1993	-2.0466	-7.1790	-0.7278	-7.0610	2.6419	-1.1141	-4.5874	-2.6252	-10.6432
6824.0000	-9.9128	-5.9092	-13.4328	-6.9866	-3.5232	-3.5071	-13.6511	-2.1031	-5.0342	-4.4655	-10.8931	-2.2333	-0.8694	-3.7283	-4.0013	-8.3965
6832.0000	-11.9941	-5.5141	-3.9159	-1.2979	-0.3270	-0.3115	-1.4915	2.4913	8.6980	2.4345	-3.5048	3.3008	2.5584	2.7204	7.9320	4.9563
6840.0000	-9.6467	-11.2386	-8.0061	-1.7308	-1.1200	0.6584	-1.0820	2.3128	12.6206	6.3928	-0.5644	3.2505	4.4068	3.4230	8.2641	7.3933
6848.0000	-6.9050	-2.6544	-6.8341	-2.9064	-2.1100	-1.0307	-10.3593	-0.4366	-2.8441	-1.8907	-3.6625	-0.1010	-3.3520	-1.7763	-7.3002	-7.0144
6856.0000	3.2548	3.6709	-1.6398	-1.6849	-0.7365	-1.5718	-6.8570	-2.0810	-6.2558	-2.3591	-1.0963	0.0508	-1.0460	-3.5050	-1.7673	-6.7402
6864.0000	8.7558	3.6606	-1.0796	-0.7071	0.6680	-1.6953	-3.1461	-2.0443	2.2780	-0.4814	6.1145	3.4345	5.4905	-1.6482	10.1823	2.2955
6872.0000	9.7111	7.0512	5.4323	5.6113	4.6419	0.7920	-7.3487	1.0592	7.6377	0.5493	15.8504	16.1861	7.1823	3.4905	16.3995	10.5245
6880.0000	4.0401	-7.0544	1.0171	0.4981	2.3819	-2.2583	-1.0043	-0.4939	4.4854	-1.5923	11.5907	9.5045	7.5303	0.2214	18.0398	6.5337
6888.0000	-8.5652	-10.8874	-5.5566	-8.7867	-2.4660	-7.8412	8.4065	-3.6249	-7.0611	-11.0272	-3.1803	-6.5370	1.3322	-7.0152	6.1909	-8.1957
6896.0000	-6.3768	-2.3412	-3.4660	-7.1473	-1.0035	-7.4001	11.4847	-3.7962	-11.8975	-14.3463	-8.2026	-5.8585	1.4304	-5.8418	4.0001	-6.1183
6904.0000	-3.8519	-9.2906	-2.2946	-6.5592	-0.3244	-7.4666	-3.7587	-4.2165	-13.2519	-15.6271	-7.7233	-5.9933	3.1573	-5.5477	8.1811	-4.2700
6912.0000	-1.0699	-2.1249	11.0199	1.0140	3.1941	-3.7700	-8.4108	-0.8036	-12.9929	-10.2761	1.1425	3.6035	0.0003	-2.8118	10.8439	-3.7824
6920.0000	4.3627	0.4865	19.1047	8.9771	7.2663	2.0901	12.2437	3.4320	-6.1020	3.9331	13.2268	14.5553	4.9347	4.1670	23.0678	10.4561
6928.0000	-6.7578	-11.5139	5.5308	2.6592	2.7452	1.2107	4.6370	2.7033	-6.1944	4.6728	6.0595	5.0386	3.4856	3.2414	15.0476	7.3864
6936.0000	-8.6514	-4.2325	0.4530	1.3289	1.3454	1.0546	-1.6125	2.0895	-5.3010	0.1775	-2.9851	2.7012	0.3380	3.1488	2.9451	4.1354
6944.0000	-2.8849	-0.2248	4.6301	2.3923	3.3602	-0.4788	2.2069	1.0759	-4.5452	-6.0071	-0.9471	3.4051	3.5451	3.4921	8.1548	8.9349
6952.0000	-5.7334	-2.0149	1.4484	-5.1033	-0.6756	-6.2244	-7.7424	-3.0477	-11.7748	-15.5778	-7.3118	-8.2512	-1.7424	-5.2371	0.2692	-7.6226
6960.0000	-1.3867	-3.0258	1.5004	-7.1491	-1.6441	-7.6366	11.0239	-4.2048	-5.9934	-12.2645	-8.7424	-10.2275	0.7765	-7.7692	5.6770	-8.5604
6968.0000	2.0771	-8.1339	3.2604	-7.6258	-0.5299	-9.2657	9.4934	-5.3442	-7.1481	-15.2704	-3.9219	-11.6356	5.4155	-7.9004	15.4742	-3.4518
6976.0000	3.8686	3.1071	-0.0751	-10.9649	-3.3466	-11.1118	-14.5478	-8.8383	-20.5443	-23.8661	-11.6673	-20.4968	-2.4224	-13.5137	-2.8517	-18.5790
6984.0000	7.9156	15.9920	2.8972	-3.3065	-0.7974	-4.3802	0.3468	-4.4339	-9.5053	-10.4021	-3.5300	-7.9660	-1.7384	-6.5233	-3.6508	-9.1707
6992.0000	5.8588	22.7640	3.1923	2.2962	1.6799	0.3557	-3.5260	-0.2884	-0.8688	-1.4735	6.1791	3.7944	1.1005	0.5448	2.1270	2.0182
7000.0000	1.5568	35.0696	-5.5523	-6.3120	-2.3806	-4.8396	-21.1063	-5.1117	-12.4670	-14.8816	-17.6975	-13.8495	-1.1063	-5.3157	-7.9342	-7.5430
7008.0000	1.9536	45.7692	-4.9904	-8.3607	-2.2249	-7.1141	-2.2722	-6.3708	-14.4340	-17.9160	-26.7874	-16.4646	1.2623	-6.9232	-3.8213	-7.0705
7016.0000	5.0519	54.8552	-2.7060	-3.5527	-1.0312	-3.0612	7.1585	-3.5637	-10.0251	-3.4773	-12.9934	-0.9206	-0.0403	-5.7795	-0.9199	-9.5303
7024.0000	3.4360	58.3032	-0.5938	-0.2299	-1.5459	1.0707	-13.7112	-0.8070	-4.9142	5.2841	-8.6921	1.4151	-4.3027	-3.6695	-5.5836	-11.6817
7032.0000	8.0052	53.8324	7.1740	6.6822	2.1314	4.9294	-20.2727	1.9260	-1.9306	8.2170	-1.6160	9.0168	-3.0093	1.7685	-2.0107	-2.6549
7040.0000	15.2045	30.1342	1.0105	6.4737	2.9908	5.4706	-13.8836	-0.3127	-13.8021	9.1384	-1.8524	11.7565	1.7922	2.0343	0.1458	1.1476
7048.0000	11.0503	-6.5638	-4.6194	2.0841	0.3486	3.6429	-25.5765	-2.3839	-21.0596	3.5360	-9.8938	0.9324	-0.6218	-0.3602	-8.1377	-3.7645
7056.0000	6.9195	-22.0796	5.2951	3.8739	0.3465	2.9276	-18.2999	-0.4383	-12.8734	0.5974	-8.6594	2.1318	-8.8131	-2.1554	-16.5911	-12.8793
7064.0000	3.3334	-33.0994	11.5124	4.0645	2.6971	0.8266	6.6860	0.2164	-16.4600	-1.1339	-3.8384	3.9762	-4.6763	-1.7890	-2.3933	-7.3040
7072.0000	5.6088	-51.3096	11.2052	3.9366	4.9687	0.0630	14.0447	-0.9099	-27.3921	-2.4731	4.3252	2.7290	3.5939	0.1877	12.5243	4.3404
7080.0000	11.4888	-53.4038	5.4953	3.3424	3.0354	1.2350	16.8571	-1.8307	-21.0094	1.6285	-0.1113	4.6656	1.5910	-1.2644	2.6490	-0.9418
7088.0000	10.9720	-34.5022	4.5258	2.9854	1.8775	1.6733	7.1333	-1.5274	-15.6773	2.9049	-4.8405	3.7724	-0.4074	-1.7395	-1.1194	-4.0748
7096.0000	13.0206	-10.8380	10.4948	5.2097	3.4060	2.3765	2.8146	-1.0453	-22.3338	5.7640	9.1336	6.2555	-0.1330	-2.0010	6.0434	-3.8632
7104.0000	7.1409	-16.0384	6.6506	0.9262	1.3390	-0.4185	0.5601	-2.3077	-24.3219	1.5270	4.7021	0.6654	-1.4216	-4.8313	4.1825	-8.8425
7112.0000	4.3962	-29.6161	4.5432	-2.3333	0.4024	-3.5475	-8.9434	-4.1350	-23.5360	-11.4158	-6.8828	-9.5738	-1.6600	-5.2799	-1.7224	-7.6119
7120.0000	8.8303	-26.7250	3.6426	-1.8096	-0.0434	-2.3530	1.2892	-4.3876	-20.9303	-8.4091	-3.9003	-10.4614	-1.8699	-5.0593	-5.6668	-6.9220
7128.0000	1.6681	-31.2712	-1.7554	-5.3033	-2.7670	-3.3020	-21.3873	-4.5430	-19.4966	-7.9030	-6.9998	-15.0391	-3.6952	-6.7244	-7.0800	-11.9444
7136.0000	5.8195	-22.3546	3.3994	-3.7270	-1.1290	-4.1118	-33.1395	-5.3436	-24.3275	-13.4912	-4.6377	-14.4327	-3.8657	-7.2816	-5.5510	-12.2981
7144.0000	9.9274	-6.6491	6.2791	-0.9717	0.6778	-2.1229	5.3773	-3.9917	-20.2138	-6.7947	-1.4690	-9.7846	-0.5836	-4.6510	-1.1374	-4.8497
7152.0000	5.7253	-9.2061	4.9642	-1.7662	-0.2987	-2.0224	-6.4663	-3.1052	-12.4545	-7.6733	-5.5945	-13.6660	-0.8904	-3.2451	-2.2838	-2.7492
