Time	Fz	Fpz	C3	C4	T5	T4	O1	O2	F7	F8	F3	F4	T3	T6	P3	P4
0.0000	18.9009	-7.9263	-9.9760	-1.8279	4.6335	-3.8602	40.8102	-15.2228	4.0968	12.0187	6.3784	0.6802	-9.4350	-9.2695	-30.6375	-16.7552
8.0000	-5.6018	6.3361	-7.5395	-2.6472	-5.8420	-5.8622	-21.7646	-27.1484	6.2437	5.0528	1.4619	3.9451	-3.9910	0.9765	-0.8872	-3.4203
16.0000	-9.4335	-2.1923	-11.9059	-2.1700	-3.6191	0.3337	-15.6720	-6.4601	4.0857	5.3910	-1.7380	4.2144	0.5156	0.2920	-1.5217	1.0630
24.0000	-2.6973	1.0038	-6.9031	-0.1265	0.9088	9.5630	14.0450	22.3023	5.0582	4.7702	-2.4637	4.8618	7.1729	3.1106	6.8558	5.6456
32.0000	6.6772	15.0713	-3.2822	6.9546	0.0603	14.6412	8.2952	24.0778	13.9256	16.8718	8.8320	13.0512	2.7027	23.9919	5.2113	11.8871
40.0000	0.3361	12.3679	-7.4251	8.7158	4.0223	13.4861	-12.3767	23.2634	13.7094	21.9370	7.0877	17.0383	-1.5867	33.6694	0.8959	13.7792
48.0000	-2.9792	8.0053	-14.8090	0.2334	0.0239	7.4760	-16.4048	-3.4941	9.0908	13.7558	0.8297	14.8276	-1.0789	15.2707	1.9994	0.4754
56.0000	0.4368	-0.4843	-16.0626	-3.8418	-4.7816	7.7802	-8.0241	-5.0796	10.0453	7.8195	4.5804	8.5082	-2.3741	4.0147	-5.3541	-9.7554
64.0000	1.3124	-0.3470	-12.2184	-3.5654	-0.2805	8.3679	8.5623	12.7230	9.5608	5.2919	3.9302	5.9027	-2.8315	9.4781	-4.4344	-10.0344
72.0000	-3.2904	4.4586	-15.3315	-8.4843	-2.6532	-0.7098	12.2481	2.8352	8.7164	3.9124	-0.6509	4.7163	-1.6678	8.8521	5.1897	-12.5053
80.0000	-6.6856	-0.6607	-9.4345	-5.4177	5.1589	-0.6217	11.6288	24.2807	12.5618	5.3055	-0.4784	1.0951	-0.8775	9.0142	4.7307	-7.0299
88.0000	-0.7161	7.2948	0.6333	0.3202	16.5730	4.3396	16.2810	17.5951	17.7192	4.4915	7.3738	5.0663	-1.3711	10.8412	5.7214	-0.2602
96.0000	-2.5081	5.2835	-4.6454	-5.2635	3.1437	1.1895	-3.4466	-14.5340	15.5110	1.5756	7.7934	1.8123	-2.5991	0.8577	6.4555	-8.6866
104.0000	-3.5670	0.8983	-2.5944	-4.3957	-12.9962	1.5494	-16.3158	14.7265	3.7254	1.9840	-3.0901	-7.3790	-2.8615	1.4840	-0.2582	-11.5489
112.0000	2.8049	12.8416	3.4403	0.7890	-13.9439	2.1621	3.7121	-1.7555	-5.3448	5.4648	-2.2456	-2.1160	-4.6265	8.5531	-1.7164	-5.0831
120.0000	-4.2408	3.8856	-2.0720	-3.1366	-11.8277	-1.3926	1.7477	-33.6119	-5.3984	7.4442	-0.5669	-0.0725	-7.3616	-4.8757	-4.4326	-12.4162
128.0000	-6.0714	-0.0109	-0.7583	-3.5542	-18.3012	-0.9405	-21.5360	-8.0735	-2.4344	5.8769	-5.5105	-1.8872	-6.9760	-17.6751	-9.7818	-22.1194
136.0000	2.6484	5.1232	3.4172	-0.2258	-14.5486	-1.7766	-15.6481	-15.4393	1.8806	5.3276	-0.7541	5.5503	-5.4520	-15.5919	-6.4037	-17.5416
144.0000	3.6456	-6.9473	3.0082	-0.7451	2.5790	-6.2675	12.7064	-12.4670	4.8702	2.5223	0.5608	8.1287	-4.9530	-7.2194	-2.2150	-12.5871
152.0000	6.8295	-2.9888	9.0595	2.4783	-0.0858	1.2639	19.7038	14.7152	4.8055	-2.0111	-1.4422	8.3817	-3.5013	2.9062	-0.4104	-9.4155
160.0000	12.1173	3.5493	12.6634	9.2431	-3.7580	11.9377	4.5296	22.3103	6.8928	5.2117	2.8274	13.4660	0.7624	8.5764	3.5644	1.7049
168.0000	11.0174	-1.8144	5.9261	7.9814	-4.1732	6.3725	5.4846	14.6758	6.4409	11.8129	2.8511	17.9576	4.0773	10.6906	10.8573	6.2928
176.0000	12.8368	5.3202	5.1271	5.8156	-12.0687	11.0049	7.3587	-28.2544	4.8562	10.5864	5.2038	23.4545	0.8639	3.2046	10.7775	-2.4645
184.0000	20.0186	8.8581	11.7668	12.5653	5.8420	24.7320	-4.5236	-16.1428	9.5869	16.3390	10.0299	22.6631	1.5263	-4.7800	2.6828	1.2473
192.0000	13.8959	-2.4408	5.5659	8.9811	12.9959	10.4572	-2.1606	16.3170	6.6411	13.5026	8.0269	10.2218	9.2303	-0.6792	10.0800	14.2919
200.0000	-0.8291	-11.9187	-5.8123	-3.6418	-4.6577	-3.9757	-1.9235	-23.1785	-0.1900	2.7736	5.8813	-0.1806	6.2193	-5.8588	12.8204	5.1941
208.0000	0.1209	-8.1819	-4.1214	-1.0465	-1.2824	5.8282	-10.7488	-2.2263	3.4734	7.4669	2.9901	-0.1839	1.5434	-5.5200	1.5378	-2.6754
216.0000	6.4448	-3.6021	-2.3915	5.4378	3.6203	9.5659	-5.6371	33.9583	5.2134	14.1724	-0.9994	4.9384	7.0646	12.9251	7.9088	12.2274
224.0000	6.7784	-7.3663	-5.9418	1.6988	3.1058	1.3242	-1.1124	-6.6524	5.7000	10.2408	-4.4542	8.3857	6.2594	6.4711	10.4593	9.7502
232.0000	6.4478	-2.4617	-3.5153	0.6194	-5.1478	-0.6540	-5.8555	-10.5336	8.2559	4.4236	-8.0071	12.8678	3.0589	-8.7097	2.1880	-4.0162
240.0000	5.2071	0.9577	-0.1174	7.7960	-16.1029	6.3533	-2.7779	12.4200	7.4145	8.5975	-3.5183	22.0933	4.5200	3.6388	1.3196	5.4392
248.0000	0.3658	-8.5536	-1.2559	8.9385	0.2754	9.8458	3.5949	8.1931	5.4108	11.7653	-1.1067	18.6785	2.6030	9.7181	-1.1118	12.1330
256.0000	-4.2482	-10.3624	-1.1805	2.2865	8.7761	6.7371	1.2612	-13.7563	-1.5469	1.1061	-7.6303	5.0236	1.7054	-0.3489	1.0756	6.8507
264.0000	2.3631	-8.6610	-0.0051	4.2101	3.4859	0.2685	8.2673	-31.8031	-1.5311	5.5123	-4.5315	10.2951	-0.5108	2.4875	-0.8162	7.9757
272.0000	0.9003	-15.0520	0.4893	5.5817	-0.4086	-8.2324	14.1446	-11.8370	0.6467	8.6164	-1.0655	13.9312	-3.7750	9.9321	-4.8648	6.2865
280.0000	-10.6655	-12.7387	4.9744	1.7684	-4.0930	-2.9744	7.2420	7.2169	-9.6488	-9.3027	-8.6584	2.0366	2.4759	-1.1206	2.9654	6.2839
288.0000	-3.3139	-0.7666	6.9397	7.1707	14.3978	6.2548	22.8077	12.2999	-4.9533	0.6136	-6.6628	8.0843	9.7432	-12.6501	4.8485	15.6162
296.0000	1.1327	-4.0431	-1.0998	5.7630	5.1081	-1.2678	21.8931	-2.2871	0.8813	11.1174	1.7587	13.9755	6.0324	-5.7121	2.1073	12.0179
304.0000	-5.9425	-19.6239	-5.5665	-3.1131	-21.6560	-7.6178	-12.2054	-37.3624	-12.2397	-9.7851	0.7540	2.4505	-2.1180	-8.2642	-6.6331	-3.4907
312.0000	-5.6023	-26.5598	-1.7067	-2.4442	0.5447	-5.1644	-3.2916	-6.3445	-12.3350	-15.7198	-3.3002	-1.6348	-0.3938	-14.8385	-9.8526	-4.7751
320.0000	-5.1477	-26.7211	-0.5263	-3.7241	12.9759	1.5640	20.8435	36.6761	-8.6642	-17.3395	-6.0603	-5.7450	6.6098	3.5350	8.7168	3.0936
328.0000	-4.2400	-22.9424	-1.5799	-5.2195	2.4079	7.7186	6.7148	-0.8303	-9.7813	-22.0830	-7.1002	-7.8202	3.9677	6.1889	8.0811	2.4639
336.0000	-7.1737	-18.3213	-0.6083	-2.1504	2.4278	1.6526	-4.6249	-23.0931	-3.4800	-12.7353	-7.1848	-2.7369	-0.7066	-11.8507	-6.2427	-1.2958
344.0000	-12.0461	-17.7740	0.6396	-2.0088	-0.4836	-2.2315	11.0490	12.3718	-2.5451	-9.3414	-7.6279	-5.2258	1.3344	-5.9720	-2.4617	1.1028
352.0000	-11.7879	-14.9641	-0.8037	-0.6303	0.6012	-0.8875	16.4765	30.7735	-3.2822	-4.8310	-6.3030	-3.6217	3.4406	-3.4626	-1.8840	3.6423
360.0000	-9.3760	-8.4324	-0.7115	0.3011	-4.6778	-2.9918	0.9202	17.3574	-6.0579	-1.2460	-6.1049	0.3051	1.4111	-5.0545	-2.6635	0.4093
368.0000	-0.3397	-3.4998	0.8739	-0.6444	-4.5617	-3.2308	8.3270	-0.3534	-7.9907	-7.8025	-3.9872	0.9908	-1.7506	10.6412	1.3080	0.1434
376.0000	-6.3271	-14.7638	-8.4319	-6.1899	4.1996	-11.1524	10.1923	-20.2339	-6.6860	-11.2291	-5.8256	-0.8486	-0.1555	-10.8956	-4.7995	-4.2236
384.0000	-20.4433	-28.1482	-12.3948	-13.3152	-4.3752	-11.7124	-8.5096	-15.5484	-19.7072	-22.5483	-19.5030	-14.4678	1.6830	-38.9813	-12.2570	-16.8379
392.0000	-13.9978	-17.7656	0.5692	-6.8108	0.4860	-2.4443	8.7129	15.0470	-21.0657	-25.7277	-18.3623	-14.5960	-1.4464	-11.1802	-8.8888	-10.0486
400.0000	-15.4893	-17.0363	-0.4676	-4.4152	4.3025	-14.3871	14.0569	7.8410	-10.5355	-14.2593	-4.0888	-8.6178	-1.9545	0.9652	-2.0900	1.4833
408.0000	-19.6878	-24.4948	-3.9397	-10.6489	-7.7622	-19.0183	-3.3609	-4.1795	-15.6800	-19.6354	-6.0914	-19.5263	0.2699	-15.6742	-1.2133	-5.0810
416.0000	-5.9884	-13.1888	9.4076	-4.8578	0.3288	-11.1278	11.3714	6.7563	-12.2471	-24.8412	-8.3567	-17.2532	-0.1712	-10.0555	-1.5623	-3.2867
424.0000	-4.1668	-14.3831	6.8165	-7.0571	3.3538	-20.6794	16.1962	-18.4350	-11.4647	-24.1505	-6.1762	-15.2233	-1.6493	-13.0951	-0.6355	-4.5261
432.0000	-9.4116	-15.6878	-0.6846	-13.5872	3.9195	-18.8023	10.5396	-23.2662	-21.2534	-27.9775	-11.8798	-21.0852	-4.0493	-22.3512	-5.2704	-18.1783
440.0000	-7.5811	-8.0831	4.1914	-6.1388	17.9982	-13.1749	23.1147	15.5705	-18.5070	-21.1358	-13.4777	-11.4072	-2.8186	-15.4123	-7.3819	-12.5828
448.0000	-13.5470	-17.6425	-3.1262	-9.5970	10.3758	-16.3969	24.1132	17.9070	-25.9871	-20.3588	-16.6474	-15.3602	4.5727	-12.9581	4.5744	-4.0649
456.0000	-14.2443	-13.2450	-6.1310	-13.7981	-6.6871	0.0623	8.3679	2.9431	-31.9343	-22.0046	-18.6636	-21.1565	2.8842	-7.0803	9.5062	-12.9414
464.0000	-3.8947	-1.9849	-0.1026	-6.0635	-10.7923	1.3244	-1.6781	-5.8291	-19.4456	-7.8836	-7.7687	-6.9970	-7.1834	-0.0860	-3.1791	-19.4520
472.0000	-8.5461	-10.2561	-10.1153	-11.9681	-11.4695	-20.6322	-0.0353	-21.7570	-19.7228	-8.6467	-6.4401	-11.0754	-7.3326	-10.1352	-7.8920	-20.2520
480.0000	-18.6578	-11.4493	-15.9412	-19.5993	-15.9868	-20.1287	-5.6702	-14.5267	-27.1152	-25.5226	-16.3690	-25.1305	-3.0157	-22.8803	-9.1092	-23.7179
488.0000	-13.8186	-7.6022	-8.6163	-14.5489	-19.9639	-9.6575	-4.0298	10.9100	-24.7152	-28.4401	-14.8936	-21.2098	-1.0490	-20.9571	-10.5997	-22.1663
496.0000	-8.7630	-5.7089	-6.8566	-11.2860	-12.2687	-9.1686	9.7953	1.3250	-14.4766	-19.6606	-5.2271	-13.0558	-1.4283	-10.0168	-4.2290	-15.0929
504.0000	-8.2252	-0.5367	-7.0988	-12.6618	-5.2064	-12.0262	-4.6804	-26.1853	-9.8413	-19.1555	-4.4735	-16.7107	-8.0584	-8.2009	-9.3014	-18.6730
512.0000	-11.5923	4.0154	-6.0692	-15.9494	-5.1275	-10.2340	-17.4740	-2.6135	-14.7974	-26.2626	-13.7183	-26.8995	-9.0649	-8.3526	-10.0764	-26.4294
520.0000	-18.5417	7.2280	-8.1938	-18.6283	-9.7953	-6.4873	-6.5526	14.9790	-5.5480	-23.7581	-16.8077	-30.0191	-5.4409	-10.3320	-4.1947	-26.7685
528.0000	-15.0671	4.4453	-7.9140	-20.1463	-20.2709	-12.2347	-16.8072	-29.1399	-1.0174	-25.7091	-14.3125	-34.3425	-7.7424	-28.7135	-14.1810	-29.7984
536.0000	-4.4720	10.7255	2.1048	-14.8546	-10.0026	-12.6203	-31.5502	-26.9657	-12.0703	-32.8493	-10.5775	-33.1926	-8.4741	-32.0702	-17.9756	-28.4983
544.0000	8.8035	27.6495	15.8327	1.6469	13.3464	-2.0881	-11.2291	25.6765	-6.7092	-16.2413	3.6502	-10.3843	-7.3135	-7.2038	-12.7781	-13.6272
552.0000	20.0886	40.5548	22.4972	11.8898	10.4257	6.0601	3.5087	17.1829	-0.4065	3.7163	16.7340	9.1437	-5.4783	12.1486	0.0547	0.0238
560.0000	20.7348	51.6022	22.2760	11.5086	-7.3371	10.7929	-16.3450	-19.7090	-1.6057	8.4005	19.8052	13.7440	-4.1080	5.0026	7.7418	-1.7815
568.0000	20.9410	49.1978	19.4434	12.1707	-13.8682	7.6935	-19.8796	-15.4329	3.0480	10.8845	21.1943	14.5348	-5.2008	-13.2354	-8.8804	-7.7552
576.0000	20.8835	43.7066	20.1255	13.1146	-8.8849	4.3720	-15.9064	-3.4572	1.9069	7.9200	19.9936	11.3699	-4.0157	-7.9233	-9.5483	-1.3558
584.0000	21.5193	46.7459	27.0455	13.6463	1.3757	7.3222	-22.5252	-11.6049	-1.7601	4.6060	17.1878	7.7425	-5.6584	-0.0758	-1.1512	0.2430
592.0000	28.9757	46.7958	35.7240	16.3281	11.7467	11.3188	7.1326	-10.7208	-3.9003	7.6205	16.7568	8.5305	-6.8046	0.0846	0.1529	-1.1439
600.0000	31.9202	52.2085	39.1574	20.1734	16.5553	12.9580	23.5264	2.2223	-4.2207	15.4140	21.5271	12.9613	-3.8175	19.4861	13.7428	10.9320
608.0000	27.6155	49.8101	31.1935	16.6953	12.7606	4.4493	4.0088	4.7093	-4.6262	19.3028	23.4273	8.0807	-1.9791	14.6593	14.2215	11.0035
616.0000	20.6628	40.3740	23.4220	8.3593	5.7775	0.1091	7.7803	5.9737	-10.7931	8.7790	13.4532	-3.2595	1.7210	-6.8615	9.3126	2.1748
624.0000	17.3696	42.1547	21.5988	8.2211	4.5343	-0.6631	13.6612	4.2975	-8.0197	3.5122	9.5391	-0.4426	-0.2963	1.3938	6.4397	3.9099
632.0000	19.4375	41.9673	15.0047	8.4402	5.3697	-6.7373	5.7071	-7.1337	-2.0380	6.1949	15.2055	6.6780	-3.4186	-0.5664	-3.1657	1.6026
640.0000	23.1822	42.4937	12.2484	9.0548	-1.1178	6.2258	-12.2470	-2.9282	2.6899	6.7242	16.0939	9.8825	1.2480	-4.9111	-0.3314	1.1065
648.0000	29.8536	25.9510	10.7990	13.1871	-4.1299	16.6552	-22.3247	8.6120	17.1130	12.9287	17.0696	12.0266	2.8555	5.8187	-2.9892	8.8438
656.0000	24.8050	-6.6047	-2.9454	6.7006	-3.0325	8.7582	-11.0952	-2.9143	23.2330	11.8374	19.3273	7.3055	3.0900	3.6980	-8.4737	9.2548
664.0000	9.7341	-14.8764	-14.3433	0.2888	-10.1103	10.2620	-17.8583	-8.1359	22.3986	9.3145	15.8534	2.4021	0.3247	8.0225	-10.8497	4.7127
672.0000	5.3177	-22.0096	-18.5741	-0.7540	-8.6417	4.2436	-9.8184	18.1098	21.4031	10.2772	3.2557	-6.8254	0.7315	15.7918	-16.6910	9.9857
680.0000	6.2388	-29.9255	-20.3468	-5.5574	-0.0673	-6.3843	8.3936	28.7435	14.9367	-1.6751	-5.6338	-17.4668	8.1673	22.3302	-3.6259	20.1788
688.0000	5.7522	-21.2352	-14.6769	-3.9249	5.0785	-1.8618	-6.8586	5.1199	20.6316	-1.3532	2.7585	-13.4885	0.8078	37.3771	1.4469	18.7612
696.0000	3.4681	-21.9364	-11.0126	-3.0545	15.6098	-1.5491	6.2637	-7.7676	29.1694	8.4351	5.7604	-10.7455	-5.1116	29.9928	-3.6361	11.4134
704.0000	1.7404	-24.3736	-11.8426	-7.4770	16.1617	-5.4158	28.8741	6.3162	25.8693	2.3728	-2.1379	-14.2420	3.1080	14.3523	4.7599	9.5269
712.0000	-1.5020	-26.5779	-10.4301	-6.9207	11.0323	-9.2530	9.9905	13.4856	22.4085	-1.8978	-1.6122	-15.7638	6.5882	7.1296	6.6317	12.6936
720.0000	-16.1571	-30.7200	-12.8843	-10.4586	3.8104	-8.4940	-11.4786	-8.9674	18.6497	-4.5389	-2.5771	-21.2346	4.7612	-0.8936	7.1736	10.1776
728.0000	-23.2410	-23.4523	-15.0292	-12.7004	-14.0167	0.2816	-13.6220	-21.0049	16.9534	-5.9073	-4.7271	-19.2300	-5.1370	9.0979	-1.1585	-3.7176
736.0000	-12.5851	-18.7175	-11.8267	-7.1032	-9.6886	-3.9012	-8.2498	-6.7398	15.6583	-1.1608	1.6274	-11.2947	-6.8458	8.3282	-10.9651	-4.0149
744.0000	-3.8902	-9.9310	-9.9647	-4.0429	1.1834	-7.1947	-20.5163	-2.5654	12.6373	-2.8978	4.1068	-11.3233	3.4338	-7.5885	-6.0991	7.4951
752.0000	0.1383	1.5898	-6.2711	2.4653	0.1569	3.1560	-19.0971	7.2271	17.3670	1.7526	3.1304	-5.1182	-0.4487	6.2817	-14.2087	11.1165
760.0000	-2.4290	-2.7679	-7.5839	3.9771	7.4369	1.1934	-1.6612	7.1615	18.3411	7.2256	2.4388	2.4383	-1.1565	13.0741	-11.8260	14.3402
768.0000	-12.5330	-8.3817	-16.9915	-7.6538	-1.8113	-3.9849	-13.2176	-21.1946	10.1117	-1.8844	-2.7847	-4.2324	2.7512	0.7064	3.0267	5.0436
776.0000	-13.1481	-4.4104	-11.5473	-5.8909	-3.8937	5.0322	-1.0555	-10.5589	12.2395	2.1960	-1.8701	-1.3438	-2.4872	10.8500	2.8891	-1.7592
784.0000	-8.7957	2.0251	-5.5307	1.6576	10.0473	8.2141	7.9071	3.1825	21.9916	15.1924	4.0409	9.2993	0.8376	12.8075	8.3717	8.3094
792.0000	-15.2268	-5.8925	-18.4066	-9.8154	-3.9230	-2.9377	-31.8943	-29.7473	15.5908	5.2092	-3.1216	-1.3142	-0.9456	-6.7794	3.7195	-7.6081
800.0000	-17.0695	-15.9373	-17.4723	-13.9478	-1.4052	-6.6413	-27.1164	-28.9917	1.4079	-5.5778	-10.7859	-7.3216	-7.9039	-9.1140	-5.3587	-22.5072
808.0000	-6.6342	-6.2106	-4.5814	-0.3900	12.7603	4.3303	7.6296	6.8531	1.6000	8.5271	-3.7749	6.1604	2.0045	1.6408	7.4093	0.7562
816.0000	-1.9876	-2.3899	-7.1299	3.2610	0.9181	5.9593	9.2451	7.8426	3.8786	21.1374	-1.9094	8.1070	7.4443	4.2894	9.8950	12.5041
824.0000	-3.2251	-2.9904	-11.3194	-0.9576	3.9384	-4.6444	4.2251	-12.2349	4.1182	18.2492	-7.9230	5.5750	1.1880	-1.6107	0.5324	2.4372
832.0000	-2.7400	3.6203	-10.8370	-0.1224	4.4934	-4.2884	3.6892	7.7904	10.9038	17.2734	-6.2829	9.5950	1.7634	-0.5940	0.1851	0.4585
840.0000	-0.7567	-0.6315	-9.8327	1.3786	-2.7807	1.7969	3.2565	40.6066	14.8412	14.4744	-2.9818	9.9671	3.7864	15.3542	4.5468	4.1479
848.0000	-1.0788	-4.0244	-7.0191	0.3727	9.5125	2.6250	-9.6584	6.0687	16.9826	7.3743	-2.8500	11.4472	-0.3539	16.5458	7.4451	2.3132
856.0000	-6.4429	-2.7394	-7.2479	-2.5129	10.7566	8.3311	-12.2404	-17.3129	15.4201	7.3992	-2.8789	7.3600	1.4625	-4.0271	8.4151	-2.4101
864.0000	-3.5130	-2.6677	-3.4353	-1.4576	7.8702	10.8170	11.0926	24.3312	9.2866	7.9057	-0.1358	2.6427	10.1865	-8.8490	15.2058	2.3951
872.0000	3.5609	0.1823	1.1869	1.6890	6.9317	2.8240	6.5830	7.8500	8.4092	6.8721	5.5584	8.6666	8.9484	-3.2071	17.7406	7.2096
880.0000	2.4674	-0.0512	1.6310	2.2608	-5.7866	1.9460	-11.8994	-33.0998	5.7391	14.0918	7.7521	10.2084	2.6139	-9.7156	11.0174	1.3804
888.0000	4.4615	5.8405	11.2043	9.8386	-1.8496	5.6616	-2.9804	3.2538	4.3879	25.0590	11.7674	14.8648	1.7500	-2.5517	10.5913	4.5404
896.0000	5.1909	8.5920	14.9966	14.2392	8.4750	1.9682	9.5168	21.4837	2.5873	23.4612	14.7407	22.1326	1.5336	12.3387	13.3477	12.8562
904.0000	-0.1344	-1.5996	4.9935	4.7574	4.0641	-2.4037	11.5447	-5.7761	-6.6493	8.8412	7.7459	14.3329	3.6939	-0.8374	13.1667	6.3207
912.0000	-1.6137	-0.8285	6.3603	3.4364	5.7885	-1.5343	4.8574	5.0141	-2.0818	0.6920	7.2269	12.8637	5.9321	-13.4592	11.1199	2.1237
920.0000	-2.8578	3.0009	10.6814	7.3012	11.9356	4.8113	-0.5687	16.3312	7.5507	-1.4210	11.4629	18.2882	6.4406	-6.1970	13.6987	7.9522
928.0000	-6.7854	-2.7232	5.8093	1.6633	6.7499	5.8741	0.7223	-4.9100	4.1741	-5.4324	7.2128	15.1661	8.1182	-4.9041	23.6308	6.0477
936.0000	-8.8670	-5.4161	4.2867	1.0824	-3.0899	-0.3979	-1.8825	-6.8171	0.5391	-4.4331	6.2977	15.8691	5.8030	-4.5939	19.8368	3.1258
944.0000	-6.2254	-6.1492	-1.2319	3.5701	-6.5799	0.2352	-2.9482	9.0702	-5.3533	-2.2512	6.5331	15.4570	5.0416	1.1059	6.8150	7.0587
952.0000	-4.6382	-5.5433	-7.8942	2.7715	-1.8460	2.3319	3.6769	20.8073	-10.3301	3.0362	1.3332	14.4776	8.5710	8.4628	10.6171	11.6512
960.0000	-6.5595	-2.7147	-3.1119	4.6098	3.5780	6.0023	18.7017	17.3509	-6.3336	10.0890	-1.5325	16.4619	8.9024	12.2026	18.2362	15.0989
968.0000	-6.5693	-4.6099	-3.9982	1.4756	-5.7779	9.3463	25.3104	-4.4895	-3.3797	5.9135	-1.9115	9.1158	8.4357	2.5866	13.0886	12.0531
976.0000	-6.8640	-11.2912	-12.9561	-2.0030	-14.8512	-4.5330	10.3303	5.8523	-7.2689	3.8692	-2.9083	6.4870	7.1999	2.6955	5.4162	7.8819
984.0000	-1.6328	-10.8865	-10.3567	1.2582	1.9506	-3.4218	6.7053	24.0796	-13.2130	6.9963	-6.8284	10.4354	5.9783	8.7312	5.3282	6.9958
992.0000	5.3234	-1.9992	-1.1703	4.4289	11.5322	19.8846	11.6683	-7.3595	-3.2659	6.7802	-2.6512	11.7777	6.1306	2.0428	8.6052	7.3892
1000.0000	1.0252	-2.4125	-1.9891	5.7976	-0.2888	13.8148	-1.8615	-15.4051	10.5877	9.0069	8.7605	14.8829	5.2074	2.0063	5.9207	12.4670
1008.0000	-1.6299	-7.1195	-6.9553	0.1336	-2.4582	-3.8884	-9.6421	9.2722	1.2388	3.1317	1.6299	5.1155	6.3681	-5.4897	3.1654	5.7937
1016.0000	0.4674	-8.1320	-4.7306	-4.4778	-2.0210	-4.1327	-1.1810	-0.0478	-4.1969	-2.6129	-7.9204	-2.7043	3.7971	-12.5157	2.3878	-5.8123
1024.0000	0.8526	-12.3155	-0.2345	1.0404	3.2415	-4.8108	12.5482	0.5829	3.7661	2.2941	-1.3496	7.4643	0.5286	3.4390	3.0719	1.9427
1032.0000	4.5141	-6.2855	5.2423	4.5132	14.6835	3.6349	16.5937	18.8071	5.3551	2.7911	2.9184	9.5999	5.4130	8.2992	13.0382	9.4181
1040.0000	2.8556	-3.0614	4.7263	4.7238	-1.1971	8.6245	-1.7484	5.9279	8.9882	8.3216	6.6284	8.7544	1.5536	12.7013	10.9541	6.2760
1048.0000	-2.6613	-14.9776	-5.3147	1.0775	-17.4112	-2.0905	-5.7378	-6.8621	4.8035	9.6252	3.1733	8.7663	-6.0678	17.3010	-3.0768	-1.8317
1056.0000	5.5656	-8.5934	-0.6820	0.2049	-0.4128	4.8519	13.0528	-0.4517	-2.9213	3.1671	-4.6575	6.1700	0.2255	-2.8369	-0.1089	-6.5187
1064.0000	15.5848	3.4021	9.0583	10.5619	13.7141	11.1861	10.8857	1.7252	6.6126	15.3892	7.5815	16.7015	2.9156	-7.1798	0.0201	4.6614
1072.0000	9.2532	-1.5549	3.5390	9.9128	12.4711	0.5915	-6.9470	-5.7685	7.9082	16.5509	13.5777	18.5083	-2.3466	-1.7562	-7.0392	4.6611
1080.0000	0.0679	-4.7548	1.2281	2.4609	4.1558	1.5680	-11.3203	-16.6497	1.3587	4.3112	2.1861	8.0603	-3.7188	-6.7379	-5.2646	-4.7287
1088.0000	-1.9391	-8.8384	1.1760	5.3077	-12.3300	4.9394	-4.4947	-10.0209	5.0572	9.4951	-3.0554	7.1469	-3.6461	-0.5978	-11.0386	1.3925
1096.0000	4.1865	-7.1748	4.1986	8.3231	-9.1126	7.7731	-0.6004	6.1571	6.6873	11.0310	-0.6477	8.9895	-2.3771	0.4681	-12.7005	3.0309
1104.0000	12.5178	2.7612	11.9917	12.6638	2.6918	13.7991	-3.7018	4.5365	12.9212	13.2368	10.2143	16.9513	-0.5165	2.4795	-3.0618	6.3227
1112.0000	6.8363	-1.1811	3.6782	11.1035	-6.7930	9.5120	-8.8077	16.2632	16.0377	12.8995	7.9055	16.5709	1.0938	10.4568	-4.6024	11.4339
1120.0000	4.9612	-4.5641	-1.4485	3.7443	-1.6702	9.8629	-11.1741	38.4006	6.7913	-2.5404	-5.6795	3.2550	0.9434	8.7925	-8.6159	0.9704
1128.0000	8.1449	-0.9386	6.0647	5.4251	15.6290	11.5565	-0.8077	13.3807	8.9468	-1.7499	1.8328	7.4752	-4.4100	14.4283	-4.0370	-0.4203
1136.0000	-2.7089	-4.4039	4.1944	2.1793	12.0722	2.5096	14.9178	-14.7740	11.9465	1.4827	4.8790	8.6668	-6.9401	10.3696	-0.8366	-1.1522
1144.0000	-1.6943	-5.3393	3.1590	-3.3842	7.7026	-1.7881	9.0011	3.1500	4.7778	-4.7625	-2.0972	-3.3281	-3.6710	-6.4964	-1.5992	-11.4501
1152.0000	2.9786	-1.7764	6.2276	-0.4880	3.0543	-1.6027	-12.0334	10.3901	4.3651	-3.4810	2.0675	-0.9107	-3.5112	-5.4997	-1.4761	-11.1790
1160.0000	-4.8647	-1.1008	3.9048	-1.9400	-5.9253	-0.1860	-19.3125	-3.3763	5.8439	-6.3652	0.5620	3.2082	-6.6456	-5.1599	-3.1986	-15.6105
1168.0000	-4.1779	-2.8904	2.7306	-3.5334	-6.2694	-0.8334	-14.1668	-6.5545	2.8020	-5.0247	-1.3518	0.7231	-6.3493	-10.4998	-3.9918	-18.7260
1176.0000	-0.8473	0.8498	8.9700	0.6718	1.0408	-2.5502	-7.2250	-8.6621	-0.0738	-0.5941	4.0314	3.4092	-6.0086	-1.7350	2.4566	-10.0054
1184.0000	4.6403	7.6472	13.9306	3.2287	11.7456	2.1044	-0.1258	-6.8156	0.3774	-4.2239	6.6233	6.5532	-8.3493	7.7583	2.9165	-9.0864
1192.0000	1.0609	1.1942	4.3546	-0.7134	4.7034	-2.2345	-10.4636	0.8108	-4.1383	-7.4996	2.1916	0.2872	-3.6293	-1.8980	-1.0055	-8.2062
1200.0000	-9.8186	-5.2496	-4.4960	-6.3521	-4.8167	-7.9258	-25.9045	3.3740	-16.8797	-13.6546	-8.9735	-10.9232	1.0170	-15.0024	-3.2057	-7.9162
1208.0000	2.3274	1.1172	-4.3350	-4.6360	-1.9501	-5.2072	-16.2127	-0.5360	-17.2848	-10.9533	-9.4766	-10.3564	-3.5594	-11.6213	-14.7311	-12.8845
1216.0000	8.4813	4.1877	-6.1288	-3.0811	-14.0925	-10.7388	-3.4495	-8.9147	-13.1112	-5.3666	-6.1668	-4.8081	-4.8235	-10.5586	-20.7655	-12.4839
1224.0000	4.2405	1.4511	-3.0933	-3.6953	-10.3682	-11.7132	7.6613	-5.0722	-17.9852	-8.5100	-8.0649	-3.4729	-5.2718	-4.7479	-13.6492	-12.8056
1232.0000	7.3623	0.9977	0.6711	-0.7462	8.1082	-7.9861	22.2090	8.1244	-17.6040	-5.6146	-2.4469	1.8738	-5.7561	9.2036	-6.3059	-8.5816
1240.0000	1.2532	4.2614	1.4327	-0.8134	0.9182	-8.4070	14.3113	7.4778	-19.8272	-11.9881	-3.2939	1.6482	0.2081	-1.3628	-1.7819	-2.8951
1248.0000	4.1824	6.2310	4.8349	-1.1921	-1.2564	-0.0022	-2.0191	-6.7846	-23.1513	-17.8471	-4.7239	-3.0044	-2.7474	-5.1218	-5.9951	-8.8907
1256.0000	12.0300	6.5136	6.4633	0.2572	0.5078	0.8932	-8.3750	-22.2537	-18.1489	-8.6333	3.4239	-1.2904	-10.4585	2.0842	-11.3456	-15.4048
1264.0000	8.2643	7.0545	8.6016	-2.9522	-6.3510	-8.0482	-2.1183	-25.0481	-21.0599	-11.6446	2.8208	-5.0061	-7.9645	-13.3759	-7.7477	-19.7072
1272.0000	3.3585	2.9746	6.0902	-6.2736	-2.7338	-8.4911	5.9805	-22.9833	-22.3194	-14.5567	0.0107	-10.9641	-6.1502	-11.6139	-2.8923	-17.7958
1280.0000	-2.4038	4.8005	3.6281	-3.1019	1.4935	-5.1624	-6.0165	-21.9203	-13.2336	-9.2310	-2.7261	-7.3760	-7.6272	0.6275	-4.4423	-8.8844
1288.0000	3.2230	12.8931	9.4646	3.4028	1.2933	4.0452	-3.9192	6.3971	-10.1051	-5.5301	-2.4838	-1.8218	-3.6539	-1.8332	-6.6581	-4.4142
1296.0000	8.9808	12.6410	8.0975	6.4507	-8.9094	8.9757	9.3279	34.3534	-10.0434	2.4414	8.0185	2.5494	2.6283	9.8163	1.5938	4.4523
1304.0000	4.2418	10.2181	4.7016	4.6946	-13.9385	-3.3511	-0.8122	9.4587	-9.9706	-3.5069	5.9252	4.2189	0.8456	14.8020	2.3222	9.0314
1312.0000	-0.4109	5.7001	1.9256	-3.5794	2.3490	-13.4681	2.1744	-20.1418	-12.2695	-21.4133	-4.8902	-7.3179	-6.1855	2.1541	-9.4410	-3.5167
1320.0000	-12.8225	-1.7147	-6.8875	-13.6643	0.9899	-11.2881	13.4880	-5.4651	-12.9394	-31.7685	-10.7948	-22.7320	-3.1632	-3.9997	-7.0665	-9.6909
1328.0000	-15.6355	-2.7203	-9.7236	-13.7562	-15.8219	-6.7634	-1.5498	0.0239	-16.3154	-33.5274	-17.5712	-23.5361	2.7779	-7.4765	-3.4158	-5.4252
1336.0000	-6.8682	-1.3090	-8.9785	-10.1522	-11.5267	-9.0690	-15.8930	-19.1789	-20.3599	-24.4864	-13.7577	-21.1031	-3.1545	-7.8692	-14.1896	-7.9074
1344.0000	-5.2218	-1.8050	-5.1516	-10.6827	1.0820	-14.1875	-6.8692	-9.2699	-20.2532	-19.5455	-7.7808	-26.8306	-7.2527	-6.6355	-15.5405	-12.4937
1352.0000	-3.3682	-1.0571	-2.3500	-13.6226	-5.4928	-11.4008	-7.0715	-9.8111	-21.1694	-25.6234	-13.8368	-31.6886	-3.3973	-12.3727	-6.9885	-15.6925
1360.0000	-2.1578	5.2791	-3.8679	-14.7945	-14.3189	-6.2883	-20.9376	-37.5201	-18.0241	-26.0678	-11.1923	-29.6193	-6.7347	-21.2792	-12.9992	-23.7854
1368.0000	2.9546	12.1229	6.9067	-6.6305	-2.2058	-3.9960	5.2172	-5.5145	-12.2460	-19.8184	0.5296	-18.4277	-7.2660	-15.3146	-13.3743	-19.6523
1376.0000	8.7015	18.3564	13.4029	-0.1551	0.9850	-0.8825	24.5192	26.4244	-13.3164	-15.7124	0.9289	-8.8750	1.6809	4.0424	6.4168	-2.2188
1384.0000	7.4736	26.5818	11.1080	0.0683	1.2528	1.5445	-6.4413	-6.9844	-8.1905	-12.6309	0.9816	-8.7848	-2.7966	5.4188	3.1581	-2.1808
1392.0000	5.2145	17.9811	16.3148	2.0209	8.4717	-2.0686	-7.9402	-10.8671	-7.5799	-9.4982	5.8067	-10.9153	-8.6728	-3.5860	-7.8744	-7.0872
1400.0000	-2.5676	-1.2642	13.1316	-2.5902	-9.4177	-10.1592	10.2121	3.5762	-28.4633	-13.6382	-2.2622	-16.8080	-0.0550	-7.4762	5.1774	-3.6079
1408.0000	-3.7043	-5.4766	12.9064	-3.5512	-10.6830	-6.8349	17.6817	4.5041	-33.9864	-14.5137	-7.8733	-18.5390	0.3606	-8.9704	5.2986	-5.8493
1416.0000	1.4158	0.3673	22.7090	4.9041	4.3289	5.0834	33.0596	20.3469	-21.9207	-5.6860	-2.3411	-12.0050	-2.7305	1.0522	1.1705	-0.1765
1424.0000	0.1822	4.9419	20.7935	4.7691	-3.7743	2.7087	23.2148	-0.0463	-24.1242	-4.8031	-6.0666	-9.0137	-0.0263	2.5350	8.6210	5.4908
1432.0000	-1.6838	6.5955	19.0522	2.1412	6.8502	-4.4667	4.2512	-13.2255	-30.2871	-5.2458	-10.2276	-10.0581	-1.4694	-6.2820	10.1899	-0.5189
1440.0000	-4.4886	16.9037	27.1128	4.9851	18.8389	6.0389	2.1102	16.8422	-33.7471	1.3319	-8.4562	-17.5795	-0.3694	-3.3444	16.3255	1.6187
1448.0000	6.8010	27.0910	38.1062	12.5033	18.8440	17.9348	16.7392	6.4088	-26.5177	12.2482	-0.4870	-17.0015	-0.6617	2.2585	16.6837	10.7601
1456.0000	16.9126	17.0126	37.7032	17.7803	30.1411	7.9489	40.3434	3.2518	-11.5205	22.9063	13.6584	-4.1568	-1.6736	7.6662	11.8206	19.0389
1464.0000	1.6528	10.8662	18.7920	7.2637	13.8148	-2.9167	24.8585	23.7688	-14.7263	13.9578	6.9130	-7.6815	2.8568	4.7364	14.5446	12.8546
1472.0000	-1.2415	14.3876	9.2885	0.4068	-5.3433	5.9035	5.4467	-1.6654	-12.2423	4.2642	-5.8551	-8.7949	-0.6484	1.5138	8.3095	-1.7737
1480.0000	13.6028	9.8216	10.1058	7.5444	1.4176	15.3562	15.2240	-6.8309	6.4065	12.9475	0.8698	5.7433	-0.8763	14.8943	5.7957	6.3703
1488.0000	21.8420	-2.3878	1.5150	9.9445	-0.5948	15.0853	2.0459	10.8963	16.4395	21.6495	7.4684	11.6142	5.5172	23.7568	8.9876	17.2788
1496.0000	20.4320	-20.4721	-9.7802	6.8354	-6.5511	8.7624	-18.1620	-7.4194	21.3357	24.2111	8.1216	12.0360	0.3389	24.3876	-2.8034	12.0343
1504.0000	11.4003	-19.8707	-15.2046	2.7076	-6.9178	7.3525	-7.6697	1.9900	17.1437	15.6111	0.9630	3.5932	1.7469	14.5289	-11.2400	10.5189
1512.0000	14.5430	-5.0643	-6.0310	7.3129	9.7119	20.5406	10.0534	36.7003	16.1194	16.3979	-0.8623	0.4751	11.8745	9.2773	-0.2645	21.7001
1520.0000	20.0000	-7.4390	-0.0542	14.0961	23.9287	19.2485	-3.4072	20.8388	25.5393	28.0115	11.2411	12.6880	10.3438	23.5465	10.4309	32.3432
1528.0000	8.5980	-11.8820	-14.6349	2.0211	-0.1969	1.3944	-23.4487	-10.0504	17.0067	16.4146	4.9579	3.4096	7.7277	10.6002	4.4136	19.4828
1536.0000	-0.5686	-12.2752	-19.2742	-5.8645	-7.3908	-1.6861	-0.8794	-2.2118	9.3749	13.2897	-3.9490	-10.0488	6.5158	-5.0557	-2.9317	6.1423
1544.0000	-7.8105	-15.8383	-13.6660	-2.3732	11.7803	-1.7944	21.4021	7.3532	14.3507	19.0342	0.2016	-7.7871	3.1014	6.7720	-0.5172	13.1017
1552.0000	-20.5589	-17.0376	-18.4612	-8.6480	1.6470	-5.3650	12.7031	3.3342	9.1065	4.3389	-8.5891	-14.0272	5.8873	-0.2743	2.6045	11.1866
1560.0000	-23.8043	-15.3410	-16.8575	-10.3456	-3.7762	-5.1552	1.4517	9.6155	5.7003	6.4266	-12.6472	-15.9560	3.7684	-4.5463	3.8803	1.5609
1568.0000	-13.7536	-4.7834	-7.1955	-4.0705	11.5531	-2.0765	-6.1344	-3.5960	8.3119	16.9630	-6.2183	-4.6581	-4.8630	3.6387	2.9226	-4.7797
1576.0000	-0.8850	4.9425	-2.2100	1.7264	7.9171	12.5476	-3.8305	-12.0171	10.9013	16.6542	-3.7489	10.2939	-1.5149	0.8233	5.1033	-4.2667
1584.0000	8.3544	8.5373	3.3513	10.5444	3.8201	20.2343	0.0115	25.3999	15.7895	23.4115	4.8184	19.6493	8.2627	5.0817	12.1002	11.0454
1592.0000	10.4538	11.9524	4.4760	12.7658	4.7514	11.9598	-2.0822	24.1478	18.2037	29.7282	12.6086	19.0892	9.3508	8.3018	14.2870	19.6148
1600.0000	-1.8033	4.4342	-8.7310	5.3853	-10.1729	3.7229	-2.4015	-12.7795	18.1560	31.0362	10.1123	18.4074	4.6343	6.6984	9.8499	13.0597
1608.0000	-17.1416	-2.1097	-18.7749	-5.3446	-13.4932	-4.8517	-11.0302	-10.6662	11.1715	17.4033	-0.2941	6.1862	0.4930	-0.9089	2.7625	-1.6111
1616.0000	-13.6318	3.2197	-15.0461	-7.3628	-11.6945	0.3659	-19.1089	-10.1703	7.8321	10.3791	-4.5362	-2.0393	-3.6894	-7.9614	-5.1863	-13.4160
1624.0000	-8.1818	0.9705	-18.6858	0.3864	-20.9826	8.5431	-15.2396	-1.9547	13.9580	26.4392	1.3871	7.2039	-5.7738	7.1996	-16.7640	-4.1623
1632.0000	-19.6440	-8.9296	-27.4391	-4.3432	-11.6175	-4.5828	-15.0188	18.9135	8.6761	17.6102	-6.4953	-1.5688	-2.8432	4.8991	-20.1521	0.7250
1640.0000	-21.4835	-9.4398	-23.5103	-9.9989	-11.4390	-3.6468	-16.9231	-4.3717	2.6697	5.3934	-15.2010	-7.7118	-1.4327	-10.8771	-12.3557	-8.8214
1648.0000	-9.3618	-1.5405	-16.1676	-1.6404	-25.3192	13.7691	0.7629	-15.4890	6.7615	14.5900	-8.6212	3.9862	-1.8272	2.4968	-11.6629	-2.1463
1656.0000	-6.7437	2.7400	-11.6408	1.2076	-6.2131	7.2993	17.9600	1.0879	8.9810	13.7265	-6.3589	6.4908	-1.1711	11.7969	-7.7050	5.6976
1664.0000	-3.4865	5.1919	-7.4231	2.4812	9.3387	-5.2019	3.6255	6.1870	11.1569	21.0092	-3.8334	13.3755	-1.7967	6.5668	0.2118	1.3135
1672.0000	2.6137	6.3474	-1.3800	8.1296	6.4261	0.5761	-5.9803	22.6104	12.3298	22.7922	3.0106	15.9164	2.9152	7.6342	3.5846	9.9628
1680.0000	1.7700	2.7190	4.3551	6.6051	9.5166	4.7476	4.6848	14.0100	17.0826	5.1922	5.3353	8.6985	7.1796	8.5596	11.0125	18.8009
1688.0000	6.0700	7.8637	-0.1427	3.8818	-1.3925	1.2799	9.7840	-4.1745	23.3678	2.5044	5.6364	13.7633	5.1701	4.4077	6.1339	11.1291
1696.0000	13.3713	17.4198	-3.0280	6.2705	-3.1104	4.5103	14.4762	12.0617	21.1901	2.1826	9.0539	18.7623	6.8897	3.9377	-1.4453	11.3475
1704.0000	15.3579	14.4028	2.8198	9.4187	12.9721	10.5321	6.3035	4.4758	22.7428	3.7269	19.9739	23.3113	3.5410	15.0066	5.0607	13.5243
1712.0000	12.5150	7.2732	3.1021	9.6553	7.6217	11.1129	-9.8734	5.4874	24.6211	12.1224	23.8401	24.7688	-0.4461	16.9832	5.1745	7.1819
1720.0000	9.5167	4.4067	1.9197	7.2783	-1.6385	4.6923	-5.0534	22.6752	17.8320	8.1100	17.0584	14.1019	4.4677	6.2522	2.6945	9.3187
1728.0000	10.9935	2.0398	3.4950	4.0394	4.3606	-5.1969	-1.4640	-15.7401	10.9756	4.5840	13.1267	9.4410	0.9737	-3.7298	1.0975	4.5700
1736.0000	6.2535	0.0322	4.0112	1.7317	8.8658	-5.8600	1.9160	-20.4614	8.8942	2.5447	8.1476	6.4695	0.0099	-15.3422	-1.3543	-1.7059
1744.0000	-0.1749	4.0365	5.5699	4.0173	9.9471	-1.0839	20.5226	28.3452	14.5036	-1.4548	7.8588	4.2341	7.5018	-7.6898	3.5895	11.1101
1752.0000	-1.3039	9.7493	4.6964	6.4021	14.5383	1.6852	19.5660	21.3048	18.2077	-1.1061	10.5881	13.8111	5.9338	6.8891	7.7903	16.3508
1760.0000	-3.2887	9.7841	0.5577	3.8569	14.7524	3.8130	5.7229	-3.4045	18.2843	-3.3699	5.5540	17.2485	3.4912	4.0754	7.5949	10.1096
1768.0000	0.7245	13.8720	0.1100	1.3432	3.9302	0.1734	13.2606	6.7083	19.7836	-2.9745	3.9755	9.4860	-0.6779	7.4831	-0.1126	2.1135
1776.0000	5.7187	18.7501	6.2833	4.0335	1.6691	-1.0206	18.8573	21.8133	15.7482	-1.0654	6.2998	8.8689	-1.9232	5.8731	-3.7897	-0.6361
1784.0000	5.6191	18.0150	7.0802	7.6300	7.0412	1.6218	9.1542	15.4052	14.4246	-0.2441	8.4656	17.0974	7.8483	-4.3670	7.4005	12.0736
1792.0000	5.7514	23.5850	1.1998	4.8128	3.2330	1.2573	-2.0112	-16.0076	11.4524	2.4506	9.3509	19.7857	4.9164	-2.9678	8.8208	7.3835
1800.0000	6.4406	22.0346	0.6248	2.1670	0.4542	-1.0432	-10.7781	-23.4280	3.3914	2.0239	5.6837	17.7974	-0.8744	-8.8150	1.9746	-6.8539
1808.0000	5.7467	4.6628	-6.4236	-0.1354	-3.8117	-9.2899	5.3130	-7.3215	1.5769	0.3376	3.2373	14.6579	4.9828	-14.0795	-0.1707	-1.7315
1816.0000	2.9750	0.7379	-10.5403	-2.8570	-1.4203	0.5124	33.9015	4.2123	-4.7980	-2.9461	-0.4782	6.4299	3.5481	-2.1072	-3.9579	-1.7097
1824.0000	7.0310	7.3121	0.6450	4.4180	15.1460	18.2587	31.1287	24.3769	-2.5750	1.6514	-0.0047	5.7931	2.4908	12.4892	-0.2352	5.3922
1832.0000	-0.2188	-3.3283	-4.9025	3.3623	10.4956	-1.1661	8.6075	7.5777	6.2841	8.1184	3.7538	4.8393	2.6105	15.5893	3.0715	15.5649
1840.0000	-18.5100	-13.9210	-13.3093	-6.8110	-4.8941	-15.4134	-3.7803	-19.6468	-4.8445	-3.7028	-2.0592	-4.9301	-3.2162	-0.8780	-6.1367	0.6905
1848.0000	-11.2193	-8.8442	-2.7379	-1.9822	-3.1749	-4.1329	7.0085	11.0723	-8.2182	-8.6664	-4.5621	-1.6800	1.8530	-10.4727	-5.4457	-0.7017
1856.0000	-7.8198	-8.0878	-1.8347	0.3509	-1.7049	-7.1804	24.1051	29.7538	-4.1641	-3.0967	-8.4275	1.9268	8.4673	-0.3434	6.6997	11.1046
1864.0000	-14.8920	-8.3235	-0.4209	-1.6188	2.8718	-6.7818	20.7932	24.2509	-9.9190	-7.4364	-15.5372	-1.7000	5.6172	4.7963	10.0686	8.9211
1872.0000	-4.3400	-2.9567	9.6948	3.2006	11.5744	-1.9515	15.1236	17.3026	-2.3861	-6.0611	-4.5438	2.5229	2.8699	6.8325	10.8492	8.6944
1880.0000	-3.3106	-3.3794	6.9680	0.3815	5.8638	-4.8555	16.0205	-5.4520	6.2227	2.0644	4.1294	1.4227	-0.3196	3.9748	11.1343	3.2285
1888.0000	-3.2483	-2.8661	1.6389	-0.6931	-10.7052	2.8298	9.0771	6.9136	5.4096	7.7770	-0.0310	0.0833	1.9329	-4.4030	6.0189	-2.9242
1896.0000	0.3655	-3.5304	-1.6303	1.3173	-15.3890	4.0350	-6.5350	6.5358	4.2370	6.0716	-0.1699	4.5380	3.6005	-0.8762	3.6140	1.4779
1904.0000	-6.4789	-7.1267	-5.5202	-3.1093	5.4522	-1.3364	-16.1418	-30.4805	3.2056	-5.7403	-0.0835	3.0773	-3.8485	3.4354	0.4419	-1.7572
1912.0000	0.3254	-5.7183	-5.2162	-4.5586	11.8403	-0.2006	-10.0769	-22.4826	11.5957	-11.2897	2.9155	3.1973	-2.2575	-0.6487	0.4372	-5.4823
1920.0000	4.5616	-12.5627	-6.9285	-6.7466	-7.6704	-7.1297	-11.4817	-16.9485	13.4936	-11.2330	7.5246	1.7555	1.6531	-7.1120	3.2956	-7.5407
1928.0000	-0.8568	-19.9971	-7.3539	-7.7294	-2.8164	-4.2845	-17.4272	-17.7252	5.3047	-11.8264	4.0595	-2.7385	-2.7309	-5.0873	-1.3642	-12.0642
1936.0000	0.4855	-19.0283	-8.0994	-5.8421	4.2150	5.9746	-15.8489	0.6199	3.8387	-9.8091	-3.6546	-3.8164	-1.0133	7.4892	1.3917	-6.8664
1944.0000	-3.5751	-22.4051	-9.8322	-8.2172	-8.6513	-4.7531	-15.7486	-12.6352	-0.4773	-9.9785	-6.8040	-7.9673	1.8276	-1.0566	3.7627	-3.9140
1952.0000	-6.5188	-20.3497	-0.6193	-6.0294	-3.1816	-11.2073	-10.3208	-9.9694	-0.8384	-11.5561	-2.4996	-10.4600	2.2150	-18.8650	0.2763	-3.9865
1960.0000	-8.0062	-17.6856	4.9605	-4.1570	2.3228	-6.7364	-16.1113	-4.1076	5.3282	-12.9940	-2.6050	-9.5721	1.3140	-9.9453	6.4185	-1.3183
1968.0000	-10.4679	-19.6551	1.2467	-6.4323	2.0355	-11.7531	-21.2451	-20.3359	3.4228	-12.3049	-4.7434	-7.9571	-4.3165	-2.0240	4.9781	-6.2980
1976.0000	-6.5184	-11.2924	5.1566	-3.6740	13.2705	-9.9306	-13.1049	-2.6677	-0.3326	-12.6907	-3.1288	-4.9066	-2.6398	-10.5856	1.7850	-7.8848
1984.0000	-6.3895	-7.3098	6.2649	-3.2388	-1.0469	-4.5098	-20.1359	-6.1289	-3.3450	-13.6645	-8.1031	-5.7379	0.9103	-14.3276	5.0777	-6.2325
1992.0000	-8.2303	-8.7234	1.3834	-4.2235	-14.6483	-5.6754	-14.9002	-14.2619	-4.0771	-5.9843	-9.1154	-2.7731	-1.4080	-5.3503	5.6100	-7.6771
2000.0000	-4.9039	-2.4301	5.5238	-0.9143	11.5614	3.4008	-8.1770	8.6499	-1.0909	-5.5992	-3.3354	4.3169	0.2471	7.5048	16.3682	-3.4724
2008.0000	4.3142	0.7939	9.6435	1.1047	13.0722	9.7479	-18.3596	-16.4798	2.3159	-9.5895	2.8519	5.2528	0.4024	4.8951	16.2983	-1.0630
2016.0000	9.5464	-0.0607	4.4732	1.6111	-11.5004	1.5503	-12.8680	-28.5596	5.5927	-0.5964	11.8443	3.3777	-1.2463	-5.3770	-0.4621	-2.0380
2024.0000	1.4856	-6.3070	-2.3584	1.0361	-3.3233	-0.4449	-19.6987	12.2230	-0.8145	2.9405	6.7472	1.6854	0.1632	-5.3524	-5.0397	-3.0836
2032.0000	-5.2532	-18.0320	-7.7143	-1.2203	3.0392	2.2475	-27.2110	13.5793	-9.7905	-0.0575	-4.9814	0.3633	-1.0556	-2.5778	-6.4552	-5.8478
2040.0000	-8.4580	-24.2295	-12.8249	-6.7054	-6.5220	-5.5638	-17.6461	-12.1526	-12.7551	-5.2923	-7.5341	-7.1671	-3.6986	-8.8995	-13.1893	-10.1356
2048.0000	-6.0882	-20.0547	-10.5897	-9.1426	5.1432	-9.0558	-12.8584	-6.5169	-15.6228	-14.7074	-10.5199	-14.1334	-4.1654	-20.4507	-18.9289	-16.1885
2056.0000	7.7004	-5.4607	2.7850	0.3953	12.2483	3.4007	5.2778	15.2318	-8.2313	-10.0973	-5.3336	-2.8026	-1.2379	-10.4053	-12.4267	-8.4185
2064.0000	12.1732	0.1153	8.6455	5.0562	1.0328	1.0249	3.6878	9.8383	-0.0934	-3.3377	2.6661	6.1979	-0.2896	8.9439	1.5415	2.2183
2072.0000	2.5236	-13.1392	-0.0181	-4.1429	-5.8759	-19.9578	-11.4934	-12.2518	-7.3609	-9.6327	-1.2582	-2.4311	-2.0989	-2.5598	1.3908	-5.8720
2080.0000	-3.2271	-25.1382	-3.2974	-10.1888	-8.7298	-20.8234	2.1651	-19.0896	-14.1181	-16.6969	-8.9956	-12.5164	0.8285	-21.2142	-0.9297	-11.6500
2088.0000	-0.4663	-24.9633	-0.3707	-8.6174	-3.3389	-8.1948	3.2701	-13.4185	-14.9795	-18.8122	-14.6981	-16.0793	1.8861	-18.6249	-1.2815	-9.8017
2096.0000	-0.3395	-19.1187	-3.4225	-5.2298	-1.6140	1.2327	-6.3889	2.4389	-14.2837	-12.2799	-10.6228	-12.8222	-1.6827	-3.1427	-7.3221	-8.1596
2104.0000	-0.7522	-18.0935	-4.5690	-1.9661	-6.2173	12.2579	-2.2257	12.4881	-11.1311	-6.5533	-6.6366	-9.6323	-3.7035	13.6691	-9.3935	-3.6303
2112.0000	11.0928	-9.7563	5.2238	4.3539	7.0554	11.5663	7.3420	16.9451	-5.2005	-6.5425	-4.0445	0.7753	-2.2639	14.9616	-5.9973	1.0928
2120.0000	18.3027	3.2684	9.0577	7.8758	8.6653	0.4884	0.3603	4.1764	2.1686	-4.7672	10.1242	15.0554	1.4502	-0.1312	-1.7658	3.2323
2128.0000	9.7228	-5.7049	-4.0536	-2.6803	-12.7074	-12.1519	-23.4917	-30.5726	-2.4168	-10.3400	8.1226	3.7284	-1.0692	-19.3389	-10.6387	-9.5127
2136.0000	2.4120	-12.6186	-9.8197	-9.1205	-15.4412	-20.9550	-10.4068	-19.3241	-11.6139	-14.6364	-1.0745	-9.5603	-5.4986	-22.0782	-21.6425	-19.0693
2144.0000	-0.6083	-8.4347	-8.0599	-5.9255	-12.7306	-16.1395	2.8319	-11.4914	-10.7130	-9.2963	5.3724	-6.2072	-5.5582	-11.9782	-19.0233	-12.0602
2152.0000	-2.5849	-10.1636	-12.8090	-8.6897	-18.6158	-10.7601	-16.7877	-30.9311	-13.5429	-8.5984	-2.4633	-10.5599	-6.9153	-19.9149	-23.4852	-18.1467
2160.0000	-0.1297	-3.5705	-6.6574	-3.9827	-6.9460	-4.6731	-10.1335	10.1421	-14.7826	-5.3610	-7.4124	-7.7316	-4.9609	-18.1562	-23.3156	-17.6124
2168.0000	-1.6007	-8.5438	-4.5213	-0.5530	4.0310	5.5303	-3.3800	6.1796	-10.8701	-2.0456	-1.1675	-3.5508	-4.6132	0.4039	-13.9275	-6.1481
2176.0000	-12.9294	-20.6230	-13.9648	-10.4125	-9.8965	5.4333	-11.9214	-39.1332	-20.4538	-9.7719	-15.7534	-17.4375	-10.0625	-7.3813	-20.9280	-17.4833
2184.0000	-11.2391	-4.6018	-1.4042	-2.1059	-17.1500	7.5087	-3.4865	6.8367	-23.1415	-2.9956	-17.8664	-13.0979	-7.3329	-11.5073	-23.1057	-14.8250
2192.0000	5.4492	9.5992	12.3480	14.2757	-4.0254	11.8583	9.2208	23.1485	-7.8246	21.4403	1.0441	9.2569	-2.4669	5.3526	-10.4227	7.7852
2200.0000	3.8503	5.2748	6.0902	8.4132	-5.0403	2.8113	17.0378	-6.5508	-6.7775	23.4440	0.5332	8.2907	-3.6636	2.7933	-5.2443	3.3331
2208.0000	-4.7820	0.6278	3.7304	-1.1871	-16.6371	-4.5539	-1.1351	0.8340	-17.8468	3.0583	-6.3047	-6.1567	-2.8991	-12.8588	-5.5535	-10.7473
2216.0000	2.8150	3.0412	7.2313	3.1564	-4.9406	1.5310	-21.9460	-16.3243	-15.7513	2.9057	0.3609	0.8846	-4.8426	-13.3213	-7.8176	-9.5012
2224.0000	8.1291	8.5136	9.3502	11.0593	2.4248	12.8179	-8.4192	-12.2321	-7.3572	18.9497	6.5679	16.5139	-7.6573	0.2241	-9.5765	-5.1441
2232.0000	3.4320	5.5762	2.8722	8.3222	-23.3403	15.9468	-3.6499	13.0484	-9.2229	16.6738	2.4666	12.7143	-0.8191	7.8266	-3.1041	-0.2825
2240.0000	2.0056	4.4415	-5.0662	3.7110	-28.8500	10.4556	-4.6168	-5.1173	-15.2745	7.7545	-3.3528	7.2305	2.6644	4.6940	-3.0896	3.8611
2248.0000	6.1465	3.0105	1.0044	6.9494	3.9406	8.8133	10.2893	9.5938	-14.1746	7.2754	-2.0227	7.8569	1.7604	0.6953	-6.7996	5.5962
2256.0000	0.4922	-4.2382	-1.0773	3.2147	8.5068	8.3807	1.1555	16.6976	-14.6966	3.0383	-2.0368	0.0607	8.6653	-3.4729	5.9186	11.0027
2264.0000	-12.0733	-3.2826	-10.6562	-4.4020	-12.4442	1.9035	-19.9735	-21.0111	-21.5962	-0.7148	-8.5691	-5.9178	5.1704	-2.0214	7.7820	5.9414
2272.0000	-10.7632	-3.1235	-4.0719	-2.8374	-5.0090	-1.8129	-19.7392	-0.2415	-24.0041	2.0750	-10.6448	-5.9276	-4.6908	1.2391	-2.9829	-8.3783
2280.0000	-6.3896	-7.2018	2.3768	-1.4618	6.7874	5.4736	-21.9549	15.6198	-24.1441	-0.8562	-5.1620	-8.6637	-0.9323	-1.6662	4.4574	-6.9449
2288.0000	-6.7987	-7.2660	4.0731	-5.8162	-1.6865	7.6896	-16.8164	-7.8013	-25.7749	-13.4776	-4.0299	-17.0948	-3.2049	0.3356	5.3453	-9.9953
2296.0000	-2.8118	1.1248	11.4716	-7.5862	-4.9071	-3.9566	16.7568	9.9543	-19.6537	-15.8965	-3.5505	-20.8920	-9.3548	7.0575	2.2433	-19.4797
2304.0000	-3.0197	8.4455	15.2232	-4.7457	2.7641	-6.8050	16.5492	-2.2621	-12.0382	-3.2234	1.9862	-14.8822	-5.2064	1.8684	15.3039	-11.6240
2312.0000	-2.6464	7.9975	17.5217	-1.8064	7.5184	5.9535	-17.5124	-20.2540	-10.9106	2.0989	2.3851	-13.3415	-3.5931	-10.9561	16.2520	-11.4053
2320.0000	8.1767	22.9179	22.6804	7.7622	2.6500	19.3736	-2.5287	28.0810	-3.4859	7.6372	11.4215	-3.0818	-1.6838	1.7943	8.5212	-4.7766
2328.0000	12.7179	24.3874	20.3794	15.3336	-2.3208	16.4133	21.0775	18.0798	-2.1189	14.1458	21.0142	10.4380	-1.1411	23.0215	5.3987	15.3401
2336.0000	6.5951	3.3143	12.2036	5.5360	-0.8669	1.4719	1.5786	-23.2849	-21.4080	0.0953	5.1747	0.5447	-6.0939	10.3620	-0.0645	2.0237
2344.0000	4.9161	2.5642	8.1910	0.7215	0.3673	1.9227	-3.6721	1.5319	-29.1900	-8.3233	-1.4682	-4.5840	-6.4139	2.0475	-5.3068	-11.5207
2352.0000	4.9789	-4.7032	8.5371	3.1141	4.7402	1.7091	3.2928	16.3124	-24.6926	-5.7988	3.2412	-5.4709	-5.6602	5.9996	-8.6752	-4.9912
2360.0000	4.2328	-10.7225	11.9825	-2.1979	5.9522	-7.0995	3.5550	19.8989	-31.6898	-12.5077	-6.7537	-17.8754	-3.1426	-9.7053	-4.0486	-12.2589
2368.0000	8.9974	-0.7606	17.0114	0.5992	3.0666	2.2214	26.2439	23.5875	-34.2069	-7.4716	-6.1501	-16.8148	-0.2007	-10.8371	-0.6115	-9.6246
2376.0000	9.1261	-0.3757	19.2738	5.2984	10.4485	5.2642	34.9884	6.0321	-36.6326	2.4524	-2.9748	-14.7562	-2.9701	-1.5454	-2.3510	-0.0858
2384.0000	2.4834	16.9001	19.4448	2.6870	12.9200	-4.1322	16.2990	1.3636	-42.3654	3.7385	-6.5028	-18.2702	-4.6414	-5.2248	2.6272	-4.1810
2392.0000	-3.4771	24.2816	17.2580	0.9859	1.6536	-2.1558	12.6459	-14.9513	-32.3696	4.3956	-1.3179	-16.0453	-6.2750	-4.4259	4.0858	-5.4955
2400.0000	-4.6413	16.6532	14.5791	-1.3314	-5.6054	-1.0004	17.2128	-11.6478	-23.3955	-1.1199	-4.8756	-14.4160	-4.7892	-5.7860	4.2665	-8.0519
2408.0000	5.3553	31.2823	13.7311	2.3085	1.9256	0.6706	28.6622	23.0373	-13.9980	2.6064	-8.6293	-5.1590	1.0592	1.9112	8.7604	-2.3411
2416.0000	11.9330	36.8199	5.6817	2.8051	15.5869	0.1823	33.2319	3.4399	4.8901	8.6659	-5.1635	-3.6279	-0.7281	16.2662	4.5768	7.8462
2424.0000	9.3630	51.7102	-4.1412	-3.1438	10.1690	-3.4546	12.8024	-4.0664	11.0412	1.6663	-6.0431	-10.3571	-2.6285	11.9516	-3.6566	1.5801
2432.0000	11.0378	58.8549	-3.3395	3.4719	-0.7675	7.4432	2.3013	24.7204	16.1440	7.8780	4.0801	-0.1659	2.6917	13.2258	-3.6133	8.7720
2440.0000	11.3896	25.8034	-4.9937	8.1723	1.0863	13.3743	-12.5024	2.0182	25.1959	18.2149	10.8445	4.0364	3.9183	19.7656	-2.0568	22.9198
2448.0000	7.9951	11.2877	-14.1289	3.6830	-7.7584	8.4128	-19.5499	-13.3658	21.8683	20.6395	3.7773	-2.1093	0.4936	17.5636	-10.8090	17.4168
2456.0000	6.9907	2.7126	-16.5467	3.8956	-12.0694	6.7985	13.1012	11.8824	21.5839	23.2657	5.9250	-1.4623	3.2818	20.0668	-12.8882	20.5135
2464.0000	8.4053	-4.9849	-12.7338	2.1023	-2.9718	1.9544	7.7798	12.2713	25.0252	10.3420	8.1567	-4.2017	7.8476	17.7901	-2.5197	25.1204
2472.0000	3.7782	1.5200	-10.5201	-1.1783	-7.3604	0.8220	-24.1595	-7.9219	26.2467	-3.4707	1.5708	-5.1421	3.9811	10.9161	-3.2182	15.0940
2480.0000	-5.9034	-9.5699	-9.0990	-0.3306	-8.0685	1.5143	-17.3531	-6.8951	33.0406	-2.8149	-1.3943	-3.1664	0.7466	8.8173	-9.0753	13.8423
2488.0000	-5.3712	-9.7530	-9.1751	-2.1706	-0.1812	-7.9688	-9.2444	0.2654	32.8711	-3.2756	-0.7514	-9.3508	-0.2657	6.1369	-12.0163	12.7990
2496.0000	-7.7969	-5.5257	-11.5650	-6.8844	8.7545	-15.2134	-1.5699	-10.0943	26.8950	-4.0299	-1.7001	-12.6394	-2.8612	-0.3338	-11.3046	4.2155
2504.0000	-17.1068	-7.2721	-10.2368	-6.3458	19.9317	-8.5176	-1.2041	-6.6690	27.4032	-5.8132	-1.8906	-6.4089	-0.3717	-5.7431	-4.1049	4.8327
2512.0000	-20.2026	0.6051	-10.3330	-6.8722	4.6910	-5.7732	-16.1881	-20.2507	25.6620	-9.7751	-2.5723	-9.0745	-3.2550	-1.7977	-7.4007	3.8583
2520.0000	-27.4565	-13.3739	-18.2167	-16.4863	-6.9848	-18.1803	-1.2154	-44.7465	19.5981	-12.4875	-11.5450	-22.1978	-7.7992	-3.6015	-10.5267	-5.2344
2528.0000	-25.5716	-17.0906	-16.6150	-15.4876	18.1344	-12.6921	9.4840	5.4528	13.4612	-16.0710	-16.1657	-19.7417	-0.8744	-3.9687	-1.6334	-4.6342
2536.0000	-9.6488	0.0251	-4.2695	-3.6153	26.7751	2.6077	-0.9967	34.4972	10.0473	-13.4198	-7.2659	-6.8649	1.2143	8.7719	1.0558	3.0733
2544.0000	-2.6423	3.9575	0.6397	-0.9523	11.7232	-3.4862	7.5506	1.8651	14.7513	-4.5256	-1.0526	-2.4881	0.5642	0.9899	0.6970	4.8778
2552.0000	-1.1093	11.5473	2.7206	1.6776	7.3698	-0.5877	5.1091	2.0411	20.3838	4.5166	3.2003	1.0585	2.5448	-7.3734	1.2301	5.5733
2560.0000	-1.7356	9.4135	4.8841	4.3014	15.5878	2.6283	-7.4038	-7.8243	21.0340	9.0716	8.7020	5.4995	-2.1617	0.6746	1.3890	5.5285
2568.0000	-1.7630	7.0727	4.1410	2.6980	22.6602	-6.4378	6.0397	-8.1394	22.6193	8.0141	8.6972	10.7290	-0.4949	-3.3196	6.8128	4.1146
2576.0000	3.2888	18.0412	5.5766	6.3210	8.1414	3.8610	10.9480	15.3731	26.7856	12.7015	7.6888	14.7740	3.1303	3.0273	8.1401	7.1683
2584.0000	3.0254	12.3186	3.1259	5.0843	-4.0500	5.5214	-10.2276	-2.1017	30.8514	14.6443	5.7471	10.1819	-0.3699	7.8026	4.7496	5.6523
2592.0000	-2.3263	6.4189	-2.9316	-1.8501	1.2779	-5.8538	-22.1653	-3.2690	32.0561	4.5612	5.1549	3.9283	0.8990	-4.6291	4.9066	-0.4858
2600.0000	-5.1499	4.5555	-8.7087	-7.1235	-4.9677	-8.3857	-12.1153	-7.7761	30.4566	-2.0920	6.3979	-1.6346	-1.0479	-4.9840	0.2040	-6.2168
2608.0000	-1.8859	1.9714	-13.8275	-10.7993	-6.1301	-16.2440	3.3279	-19.5946	26.4620	-6.0299	1.1155	-0.5695	-2.8586	-11.9488	-6.8259	-14.1552
2616.0000	2.3671	10.2850	-9.5575	-4.5751	7.4872	-8.2596	3.3794	18.3324	21.7432	-4.5358	-2.6636	10.8056	3.3644	-13.1646	-1.8648	-10.2090
2624.0000	0.6374	10.3111	-7.0469	-0.0662	10.8551	2.3453	-6.9200	14.1408	22.3584	5.7321	0.1575	15.9924	2.7341	-0.6990	5.3217	-3.4595
2632.0000	-3.9260	7.5202	-10.7357	-3.3686	1.2988	-3.5594	-4.8956	-2.3729	23.3126	5.0743	2.9897	15.7672	2.2377	-3.2391	7.0968	-5.1535
2640.0000	-8.0529	6.1609	-11.1650	-1.7321	-8.8963	4.0458	-0.6607	14.6214	18.6267	2.0760	4.1129	14.4862	4.4292	6.7857	7.5577	1.6830
2648.0000	-12.8774	-6.9825	-19.4633	-6.9633	3.3046	0.1530	-11.0008	-17.6474	8.2548	2.6467	-2.6445	5.0983	-1.1908	3.6477	0.0118	-3.3635
2656.0000	-15.1372	-7.0284	-18.3741	-11.8728	16.2442	-13.7626	-21.1996	-29.1592	-5.6480	-2.6362	-10.5896	-2.0742	-3.1133	-26.1132	-6.5215	-18.4537
2664.0000	-5.2892	10.4487	1.3498	1.2887	4.1189	-4.5949	-12.3900	3.0300	-5.8403	8.2090	-4.3479	3.2733	0.4024	-17.0145	-1.3451	-5.0238
2672.0000	2.9029	19.5211	8.7505	10.3867	8.7309	2.4082	2.5086	9.0141	1.7107	22.8161	6.2393	13.2706	2.9291	5.9873	10.7633	13.0898
2680.0000	4.6296	26.8099	14.1545	13.8172	26.2977	7.9478	7.7661	23.0384	2.4832	21.2920	12.7974	22.6336	6.4708	12.0681	23.4681	18.2461
2688.0000	18.1574	35.7118	23.8637	23.3732	25.7344	19.4732	25.3177	36.4124	11.9031	25.6507	20.1770	36.5110	10.3360	21.3953	27.3747	28.7304
2696.0000	21.8788	33.1380	19.6437	23.2081	21.3314	22.8459	34.8449	20.3549	17.1007	25.4901	23.1167	45.8881	11.8263	23.7505	29.8977	29.6284
2704.0000	17.9270	36.8151	15.6551	18.5003	11.5338	20.6260	9.5678	-0.4455	11.3043	21.5887	23.1070	44.2010	8.1973	16.6469	28.5748	17.8680
2712.0000	24.9793	42.0146	14.3490	19.2660	2.2794	8.6304	6.7933	-1.2554	14.0030	27.5115	22.6166	43.4824	8.4508	3.2425	18.2139	15.5556
2720.0000	21.9558	34.2545	11.1899	16.8979	4.9958	0.7007	30.4607	19.2143	11.8623	24.9771	18.2190	37.6339	11.5934	7.1100	19.4984	20.7675
2728.0000	23.4133	43.2892	9.4848	15.4365	2.4552	6.3822	32.2995	14.6446	13.5059	30.2474	21.4986	31.7156	7.5152	24.7621	21.9780	20.6155
2736.0000	26.6382	45.3543	-0.2418	12.9135	-7.9680	5.4674	14.5206	-12.4043	21.5731	35.2771	25.0167	35.9619	7.9814	9.2112	14.7230	14.5714
2744.0000	15.9225	20.1184	-7.0476	7.0155	-11.5429	2.3341	-2.3233	-7.5971	8.1855	14.9408	11.5515	27.5260	11.8930	-4.4288	9.8992	12.0347
2752.0000	17.0693	12.1989	-0.4094	9.4817	4.4725	10.3185	8.2934	18.3093	1.7585	7.3544	3.1425	17.5882	11.6068	9.0385	8.4955	19.1152
2760.0000	17.4120	10.8775	6.0904	13.1579	23.9425	16.6056	26.0846	24.1521	13.0543	12.3419	10.8271	22.6066	13.0013	15.8966	18.0313	26.7992
2768.0000	11.0656	3.8583	1.1085	7.0828	20.5176	4.8873	23.7074	7.5383	11.4874	7.8542	12.3472	19.7184	12.4323	15.4299	24.5815	23.9326
2776.0000	4.5603	4.3042	-10.1674	-2.5175	9.6445	-7.2782	13.7756	-13.8417	5.3042	6.2260	2.5396	9.6724	9.7660	-7.3587	13.9317	7.6086
2784.0000	-7.1536	3.2249	-7.6710	-6.1390	1.1732	-1.2066	-5.9868	-23.0902	3.9537	4.4664	-3.7942	2.9199	3.1695	-29.0013	3.0784	-11.9827
2792.0000	-0.6575	8.6084	3.2703	1.2451	-9.0803	4.6395	-5.8908	-8.6089	6.9314	10.5337	1.4314	8.1362	-1.9743	-9.5577	2.0171	-9.8300
2800.0000	9.2323	10.2522	7.0201	9.8930	-6.6999	6.8969	11.7369	9.5493	10.0221	19.7717	8.5814	22.4012	4.1702	2.8367	9.3126	6.1864
2808.0000	8.8167	10.9316	15.1628	14.2062	2.3871	12.7382	10.8009	21.6566	8.6943	17.3089	12.4301	23.9625	5.3935	1.1570	10.7907	10.3013
2816.0000	15.8428	26.2341	25.1386	21.1884	5.8715	14.1645	12.4928	22.2939	16.8034	22.3562	20.8394	30.1847	2.5421	14.5460	12.5867	17.6061
2824.0000	20.1361	29.0710	23.4494	22.1938	8.5583	9.6634	6.1272	-11.8249	23.7527	27.7669	26.7263	40.7378	2.1493	20.1997	21.0587	22.1172
2832.0000	21.4896	26.2092	17.3387	15.3632	8.7404	3.5918	0.5429	-16.5535	17.1995	23.2089	23.1937	31.8794	-2.0078	16.4671	15.3764	8.8194
2840.0000	22.2819	31.4105	15.9222	16.6284	7.7899	8.2323	18.2232	21.7173	14.0741	29.3327	23.0949	31.3920	3.4963	8.9551	13.4577	8.7472
2848.0000	21.5900	33.5960	15.2401	19.8432	5.8635	13.4997	16.0727	20.5225	14.9819	38.2152	27.8087	38.8922	9.9722	0.7083	20.1125	15.7410
2856.0000	23.3144	37.8330	13.5937	17.6076	-0.0729	11.1489	5.2974	15.7832	14.0675	34.5476	26.8191	33.5222	5.8468	5.1387	14.7033	10.7083
2864.0000	26.8426	40.5064	18.2397	22.4002	1.8221	22.6727	7.1883	25.1092	15.4481	35.4267	27.3555	36.8098	7.3275	9.4153	14.3092	15.8690
2872.0000	35.1685	41.6799	17.6329	27.2430	9.5717	29.2089	8.3662	16.1101	16.9213	44.9086	30.6186	44.9340	10.8071	16.5860	19.9184	26.3964
2880.0000	32.7097	39.2616	7.3888	20.9148	4.2346	23.7859	18.0887	13.3840	13.3963	42.1285	22.8864	40.7023	7.6640	28.6601	18.3403	21.1045
2888.0000	29.8719	39.3834	8.6413	17.8317	-8.6001	29.4455	24.7268	11.6482	8.1601	38.4733	17.4892	34.2926	3.8202	26.8423	13.7049	10.4360
2896.0000	-10.2249	-16.3804	-6.5607	-12.3977	14.4873	-3.5066	-8.1908	-7.3158	-9.9708	-38.1095	-15.0227	-18.9625	-1.1662	-13.2064	-8.7391	-11.1373
2904.0000	-15.2825	-17.5656	-6.3961	-13.8156	9.6361	-11.5749	-9.4820	-18.5441	-2.6472	-28.6207	-12.2861	-19.6437	-5.9124	-1.3903	-2.2994	-11.5131
2912.0000	-18.4512	-18.3740	-5.0658	-14.5207	6.0057	-17.0942	-8.5647	13.2821	-1.0159	-31.2828	-10.3423	-23.5020	-2.8836	2.6361	2.7071	-8.8325
2920.0000	-12.7250	-17.6289	-7.1928	-11.8077	3.7559	-13.2144	-16.5080	25.6600	1.3724	-33.7828	-8.8398	-23.8240	4.7828	-10.3142	-3.1803	-0.9456
2928.0000	-16.4225	-21.4687	-15.1221	-17.1785	-14.2566	-22.3680	-35.1289	-10.8839	-0.7283	-37.0744	-10.0088	-29.5145	-0.3473	-18.1075	-14.0573	-8.4055
2936.0000	-14.6359	-17.2584	-13.4065	-18.2743	-20.9006	-25.2120	-33.1258	-6.4866	-7.1222	-40.5792	-11.5027	-28.0108	-2.3901	-17.9789	-14.4371	-16.1946
2944.0000	-5.6328	-13.6986	-7.7432	-11.7832	-18.3493	-12.2865	-17.5647	-11.8484	-5.0389	-29.4964	-12.7477	-17.7716	0.1365	-16.0608	-10.0781	-11.2025
2952.0000	-9.9907	-5.9634	-10.7012	-11.3482	-16.2923	-4.8329	-25.1404	-15.7054	-5.6880	-22.1372	-11.8336	-17.2380	-2.6870	-6.6292	-9.1456	-10.8735
2960.0000	-10.0576	-4.2322	-11.6367	-12.9069	-6.0075	-11.1313	-16.8454	6.1178	-9.6501	-28.0474	-10.4720	-19.3052	-4.5006	-6.5907	-14.6420	-15.6625
2968.0000	0.6775	-5.2491	-0.6512	-9.5701	6.3505	-12.7167	12.3650	-31.0447	-5.0967	-22.2947	-9.9537	-13.4347	-5.3724	-20.8778	-12.7108	-16.5490
2976.0000	-1.5368	2.7467	0.5122	-10.4283	5.1236	-14.8304	8.9744	-33.2289	-4.9079	-16.0382	-7.9773	-12.5909	-2.8011	-22.6242	-0.9911	-16.0633
2984.0000	-18.2820	-7.2493	-14.7116	-20.2674	-3.3385	-31.4331	2.9253	7.3815	-10.0835	-23.7850	-14.7232	-24.8996	-0.9130	-20.8202	-3.0490	-20.3938
2992.0000	-27.3233	-18.6487	-17.7309	-22.6677	-4.1743	-24.8566	1.7503	-12.2512	-15.4424	-26.3276	-25.4767	-31.7077	-4.5471	-23.4146	-10.4672	-22.9498
3000.0000	-21.8539	-23.5496	-9.8844	-14.9142	3.0757	-2.4634	-6.4536	-17.1336	-24.7539	-25.5753	-24.9546	-25.7814	-5.4907	-17.5534	-12.5263	-18.7220
3008.0000	-20.0196	-27.5491	-8.6250	-13.9802	5.7964	-7.0917	5.4252	-10.8176	-24.3239	-25.2383	-21.6760	-25.1026	-6.1320	-15.0321	-14.3626	-17.0409
3016.0000	-21.8573	-19.0129	-12.1056	-17.9622	-17.9943	-15.9850	-9.9696	-24.2862	-18.0424	-23.6912	-20.0724	-27.7314	-7.9676	-15.1739	-12.9191	-22.3364
3024.0000	-17.2582	-18.6376	-13.1292	-17.5578	-35.2860	-20.6519	-34.7113	-6.3672	-17.5254	-26.6498	-14.9819	-23.6849	-10.9405	-10.3133	-18.4768	-30.4191
3032.0000	-8.4284	-4.3752	-4.5495	-9.6075	-8.3658	-19.9304	-15.2876	10.1177	-12.0969	-17.4512	-9.2255	-16.1293	-12.5755	-8.0706	-23.0120	-24.9786
3040.0000	-1.5431	9.1792	0.0797	-1.2877	2.2737	0.7221	-12.1847	3.9761	-10.6613	-4.9459	-8.3189	-10.1933	-3.8687	-10.8209	-14.8569	-8.0656
3048.0000	-6.7353	-1.8419	-5.9505	-2.7795	-16.0021	12.4575	-17.4718	-7.3268	-17.5488	-10.0717	-14.2995	-9.9312	-0.1938	-8.6203	-12.9100	-4.7171
3056.0000	-5.8155	15.9114	-3.1911	-0.5415	-8.6650	14.8578	-1.2422	-6.7045	-14.8576	-6.8791	-14.5054	-4.2668	-5.6555	7.1501	-13.2540	-5.3645
3064.0000	1.7079	15.4671	3.4351	4.7344	-1.7599	15.6361	5.1181	3.1283	-8.3662	5.2248	-6.0983	4.9857	-1.3694	8.1313	-1.3394	0.6381
3072.0000	-9.7443	-16.1514	0.6956	-2.1189	-14.0168	-3.1277	4.9727	-10.0799	-10.9321	-0.7827	-5.6776	-1.0064	-0.6016	-2.2275	4.2143	-2.6888
3080.0000	-11.2500	-10.2271	-0.9312	-6.7645	-11.7682	-13.8688	5.3675	-20.3102	-16.9055	-12.9922	-8.5000	-8.6876	-12.2417	11.0215	-7.9310	-12.8569
3088.0000	-1.5699	3.0551	3.1845	-4.7092	1.7578	-6.8348	11.6389	-15.6254	-14.3782	-13.9500	-4.0160	-6.8458	-13.6594	5.1263	-13.7742	-18.3401
3096.0000	-8.4952	9.6212	1.5632	-7.0827	7.3505	-5.4418	3.7701	-17.1129	-6.8365	-11.4398	-3.6251	-9.7557	-5.4155	-25.0209	-9.1638	-18.3821
3104.0000	-9.0744	8.3526	-2.3689	-7.8266	5.2696	-4.0761	-7.7536	-14.1835	-6.7592	-13.3525	-7.4486	-12.1556	-4.9297	-23.0455	-12.1385	-17.1866
3112.0000	-3.8496	-2.1894	0.8701	-4.0318	-2.8279	-6.1594	8.0549	-4.6054	-8.4210	-10.0986	-4.9867	-7.0817	-6.0371	-13.3899	-14.4582	-14.0304
3120.0000	-5.4112	-3.4979	-1.2265	-3.1640	-11.6903	-13.4774	-3.1915	4.1249	-12.2389	-4.2031	-5.5382	-7.4418	-3.6211	-16.2290	-14.2186	-10.7205
3128.0000	-4.3071	-15.8660	1.3400	-2.6874	-5.2128	-5.8209	-15.1753	1.3516	-15.2661	-6.9381	-4.7149	-8.1937	-6.4062	-6.4605	-10.8867	-12.3640
3136.0000	-1.2068	-21.8943	15.1727	3.5845	-2.0433	6.9019	1.6284	6.2136	-3.3342	-4.0330	9.8706	0.9624	-7.0965	6.5529	0.9485	-7.3593
3144.0000	1.0352	-33.2542	11.1294	4.9666	-14.8197	3.6898	-12.3914	16.5520	-1.4101	0.4693	9.4826	2.3992	-3.0444	5.7351	0.1155	-2.2778
3152.0000	-2.9457	-55.0799	7.1358	0.8311	-3.9855	-0.2410	-10.1769	2.1440	-15.0684	-5.8548	-5.1593	-4.1450	-4.4352	-2.5441	-4.7099	-7.0185
3160.0000	-7.8352	-48.3686	13.9273	1.6103	7.9308	0.6702	9.7292	-0.5052	-15.4158	-8.4157	-0.8815	-4.5386	-3.9141	-1.7859	2.8514	-2.6249
3168.0000	-12.2657	-63.2941	6.2613	-4.5859	-4.0995	-8.4376	1.3570	-0.9593	-18.7485	-16.2479	-3.5997	-12.8108	-1.8518	-4.7691	2.8679	-4.1499
3176.0000	-17.8504	-78.9029	6.6960	-12.3611	-2.5198	-12.8881	2.7588	-11.9982	-27.1939	-30.8170	-19.5731	-25.1603	-5.1373	-20.1795	-2.1372	-19.4438
3184.0000	-9.7141	-48.9935	18.5166	-6.0255	-7.2887	-7.5973	-7.2420	-2.7001	-16.9537	-27.6996	-12.1533	-22.9425	-6.8559	-19.7204	-4.7053	-18.6068
3192.0000	5.5247	-29.0644	28.0169	3.1772	-12.6867	-6.6844	-17.3726	-14.2898	-6.0289	-14.2838	6.4554	-13.1508	-10.3148	-16.0817	-9.3804	-14.1458
3200.0000	15.0790	-18.9798	39.7632	9.7118	2.0768	-4.0406	0.3520	-16.8321	-5.8096	-3.4283	18.6142	-6.6837	-13.2635	-19.4461	-9.8872	-14.9973
3208.0000	15.0144	-10.3020	33.1933	8.1681	-3.0209	-4.8065	0.4714	5.4065	-7.6206	0.3955	23.4763	-12.1684	-10.7140	-9.7487	-8.3722	-10.5432
3216.0000	7.3847	0.7172	23.3192	-0.0620	1.2362	-10.4309	3.3932	-14.9136	-11.6840	-3.7571	16.3037	-20.2044	-11.7061	-8.1653	-4.5363	-13.7518
3224.0000	0.9638	18.6541	20.3274	-3.7056	13.8432	-13.9478	3.7183	-22.5706	-11.3222	-7.0119	6.7947	-19.6513	-12.1670	-10.6864	0.0969	-17.2779
3232.0000	-7.3315	21.3172	0.8286	-12.0156	-8.1880	-23.7737	-24.2519	-9.9720	-5.1132	-18.6628	-2.0916	-26.0761	-12.3037	-4.4000	-10.7598	-20.5709
3240.0000	-7.1269	37.1539	-9.4198	-18.9326	-14.1051	-27.3689	-28.7945	-33.2565	2.3291	-34.3339	-6.4851	-31.4392	-14.1626	-15.3819	-25.1100	-27.9333
3248.0000	-2.2568	60.8926	-10.8575	-18.0153	-6.4638	-22.5156	-17.7011	-50.6490	17.7000	-34.4883	-2.3232	-25.4672	-7.4616	-28.4208	-21.9907	-20.7606
3256.0000	-3.3107	70.5306	-20.8972	-20.3089	-13.9162	-21.6524	-21.2823	-32.4981	38.8867	-29.4132	0.4317	-26.1610	-2.2889	-28.1232	-21.8607	-16.3727
3264.0000	7.7913	61.7377	-17.1013	-14.6727	-8.9405	-15.2271	-30.6275	3.0812	43.0245	-24.2369	3.6756	-27.1766	-2.2922	-20.6481	-28.9894	-13.7645
3272.0000	17.7171	30.9198	-13.7707	-3.7776	-3.2301	-8.2076	-29.4305	-3.8455	27.9717	-10.8647	5.8677	-15.7469	1.1660	-0.6962	-22.8148	7.3895
3280.0000	21.9356	32.8725	-15.1673	3.1819	-0.0243	3.9877	2.0189	-27.9407	20.5733	10.6152	6.8046	2.1693	1.1269	11.6782	-17.6345	15.7309
3288.0000	36.4514	50.0209	-2.8576	16.1161	0.4087	25.5690	14.0347	3.5205	20.9809	36.1030	13.6785	18.9688	2.1499	16.4743	-14.9762	15.5586
3296.0000	45.3937	47.2530	5.3114	25.1287	-3.6307	29.9362	-4.2851	10.7425	21.7016	52.2000	18.3692	28.3040	8.0304	25.3385	0.0604	29.4755
3304.0000	45.5317	52.9592	9.7345	26.1419	13.1558	27.2025	1.8726	-6.1403	33.8147	54.7667	23.8675	32.6213	10.4350	24.4385	12.5638	36.7915
3312.0000	42.6378	46.3708	15.7808	26.2563	21.1297	28.2599	-2.1153	7.4562	43.8414	48.9633	29.7597	30.1332	8.6596	25.2048	13.8193	34.9153
3320.0000	39.9652	41.2835	11.8644	19.9366	9.2611	13.0448	-10.5291	-4.8430	41.9937	37.5757	27.1917	22.4216	4.4975	25.2910	8.9594	27.9012
3328.0000	32.3384	43.7763	5.8680	12.0494	11.5723	-4.6384	8.2080	-10.0440	39.4951	31.3172	25.7489	18.5723	5.0247	9.4822	8.7418	19.5086
3336.0000	17.2629	36.1425	1.2207	7.8903	14.0360	-4.6213	-5.0680	-0.0236	32.6083	30.7959	22.7276	13.8324	7.5302	-1.9741	12.8922	15.6938
3344.0000	21.5568	51.2325	-1.2509	9.6225	11.6215	5.1384	-16.3610	-12.6545	26.9185	32.2870	21.8989	20.2737	5.6589	-0.2320	8.8769	12.0999
3352.0000	31.2151	65.5031	1.7333	16.8004	11.6176	10.7902	15.9504	8.2921	29.8053	39.3490	29.8094	39.4043	8.2458	6.7143	9.4594	15.8879
3360.0000	23.3327	65.1465	0.1551	16.1579	3.3459	12.8400	19.5526	30.1349	28.6804	42.0952	24.4878	38.0139	9.8815	10.6843	12.4556	16.3309
3368.0000	13.4330	59.7476	-4.6663	9.4958	-0.5036	13.0449	-4.4316	0.0919	22.6801	35.5368	12.6318	24.3890	4.0307	6.6236	6.5855	7.9778
3376.0000	5.1943	42.1338	-3.2995	4.5739	5.3014	-0.5861	-8.8173	-19.3894	17.9358	26.9825	11.2968	16.1950	0.5830	-2.4095	6.2515	3.2934
3384.0000	8.8701	45.1520	4.3166	3.1760	2.1897	-11.5996	4.9625	0.2683	19.2051	21.2053	15.1563	9.8816	1.8588	-9.7029	8.2219	-0.4901
3392.0000	18.0887	53.5660	9.0318	9.0819	-5.8848	-6.0118	11.5223	4.5859	29.3472	23.8197	24.5609	20.8323	2.1351	0.0809	8.1811	4.7055
3400.0000	14.7696	52.3959	5.7334	10.0813	0.2138	-1.3686	-2.8440	-16.9318	33.6639	27.4481	23.8086	29.4879	-1.2987	10.2348	11.1337	5.8582
3408.0000	14.5841	61.1120	9.2587	10.0153	14.5918	8.0501	4.4243	3.2542	33.4724	29.8247	16.9626	24.8217	1.8018	6.4351	17.0666	4.4398
3416.0000	21.5167	64.2314	14.5932	18.8551	19.1315	15.0301	23.7944	26.7179	41.4134	38.0231	25.2296	36.4022	10.9661	12.7180	26.0185	23.4049
3424.0000	24.2808	65.3334	3.5747	14.1170	8.2277	7.3616	5.4500	-5.9369	40.9441	36.0449	26.3048	37.5164	9.1602	10.4147	21.8211	18.8479
3432.0000	19.9199	64.5969	-4.0681	6.3140	-1.5945	8.9090	-3.4544	-5.8968	34.8089	29.5030	21.9619	26.4330	4.0910	-2.5248	7.8620	-0.5672
3440.0000	18.0966	63.4126	-1.2382	13.8333	5.0857	13.8122	11.5500	20.2412	40.7389	35.1900	27.8269	38.0956	5.4613	4.8575	4.5162	9.3870
3448.0000	22.2666	68.1240	-3.4364	12.9109	5.2857	10.0444	2.9272	7.9430	43.7347	31.8550	24.7643	40.4673	6.1439	4.7089	5.6466	9.7401
3456.0000	22.2538	66.1565	-0.8450	10.6944	3.0495	9.2200	1.6201	18.6055	44.5996	26.0357	25.2089	34.9730	7.7161	1.3808	9.1921	6.7777
3464.0000	25.8818	68.0192	2.6065	15.9472	14.8452	6.3341	17.7530	34.9766	47.8856	33.4007	33.1108	44.1717	8.4912	14.5285	14.5695	15.8239
3472.0000	28.0881	66.8831	-3.2922	11.1359	8.4300	3.6511	9.1970	12.3257	38.7353	32.8449	26.5259	40.7781	5.3024	9.4240	10.8150	5.0464
3480.0000	27.0080	43.2639	9.9054	17.8556	-1.6667	12.0688	-3.3225	-11.6464	12.2575	34.5953	24.0869	29.4494	4.4252	10.7592	9.7577	17.3217
3488.0000	31.1997	48.6610	8.0038	16.2005	6.3239	9.1848	-4.7640	25.3482	9.0639	31.2867	21.1937	25.3170	6.5534	11.9603	9.4657	13.3630
3496.0000	36.9534	56.2395	13.8332	20.3605	-8.8608	18.0199	12.4857	25.7826	12.4021	32.7458	24.8480	25.8184	8.9052	21.0986	11.7392	22.3145
3504.0000	33.7152	51.2878	11.7135	20.0340	-11.0474	18.1229	11.0659	-9.7707	16.3679	32.8273	29.9169	32.0976	3.0589	20.4235	5.8497	18.8549
3512.0000	34.8871	53.6765	13.9263	18.3101	13.5479	14.2610	18.0653	6.7931	15.2862	31.1824	25.4990	31.4854	3.1206	5.9981	5.0152	9.3015
3520.0000	25.6654	50.2932	13.8679	15.6925	18.0020	6.8136	27.0667	22.7398	15.0771	27.9291	19.8673	26.8585	8.6364	-3.4439	11.8219	12.7997
3528.0000	15.5449	38.5633	6.3777	8.7043	0.5362	-2.2556	14.4903	-0.9005	8.1781	16.5987	15.4613	17.0762	4.0396	-8.0956	2.0017	6.1412
3536.0000	21.5314	42.8077	8.0301	9.9110	-4.6689	4.0626	6.9264	-4.0919	6.9610	15.4250	18.5455	14.8301	-2.7553	-0.9746	-9.0911	-0.4697
3544.0000	20.6861	44.8544	11.2545	12.2846	10.4495	5.8858	2.9367	14.9825	10.7201	17.8869	21.1183	15.2491	-3.2839	4.7523	-6.8724	2.1697
3552.0000	19.0963	43.7246	15.1784	8.8795	16.9613	-1.5675	10.2731	7.3526	9.5656	10.4317	17.9068	8.2385	-3.7874	-1.7430	-3.6919	-0.9021
3560.0000	25.6874	49.0487	20.6625	10.0160	9.8704	-3.6046	21.7989	-1.6498	17.6160	12.1228	23.9038	13.4944	-3.6135	3.3433	4.4858	-0.3350
3568.0000	18.8022	40.5525	14.6617	7.4072	5.2665	-9.2318	9.1690	-4.8430	19.4742	12.2306	20.1935	16.2141	-1.1425	2.8352	10.6841	0.9855
3576.0000	6.3886	28.4099	3.4735	-1.8890	-8.5953	-11.8954	-1.4988	-18.3790	8.7412	-0.9960	2.4377	4.1837	1.1836	-16.2453	3.8715	-7.1797
3584.0000	4.0635	29.9920	-5.1351	-5.7237	-21.3671	-10.2614	-5.5424	-4.2573	4.7998	-6.7735	-0.7444	-1.4229	2.4431	-23.8965	-6.9127	-13.0917
3592.0000	4.0010	33.3783	-2.9113	-2.8248	-9.2133	-7.2076	0.1116	10.3390	2.6676	-5.9444	0.0904	-1.3940	0.8355	-14.1502	-8.9439	-8.7231
3600.0000	8.7638	32.7514	5.8094	0.9391	9.2828	0.9681	17.9461	2.8896	5.1567	-3.6721	-0.2850	0.7664	-1.4120	-1.6451	-2.3748	-3.8049
3608.0000	15.1327	35.5435	2.8504	-0.4672	7.7263	1.6229	11.3518	1.7733	10.4410	1.1727	7.0574	0.3531	-2.1596	2.3861	-0.3636	-7.1369
3616.0000	16.6469	42.3140	5.4659	0.6471	1.8211	5.0652	6.9156	-2.4098	10.2771	2.8714	9.9642	-0.7964	-5.0341	9.6781	-0.6704	-7.6939
3624.0000	18.7851	37.2833	12.3375	5.7321	9.8814	7.0528	14.6557	2.1267	12.8646	6.5200	9.6722	5.3183	-7.1127	18.3774	0.3615	-3.4924
3632.0000	5.5345	20.8354	3.3142	-1.9469	5.6041	-8.5969	-3.5125	-7.3120	8.8513	3.3754	2.4212	-1.7004	-4.8510	-1.0029	0.9883	-8.9413
3640.0000	-12.2690	13.1803	0.6252	-10.8763	-1.5825	-10.6442	-15.8422	-20.6454	-1.4699	-10.2748	-10.4137	-16.0114	-3.8128	-23.9914	1.1010	-19.2342
3648.0000	-10.3202	10.4766	-1.0744	-9.4185	1.5579	-1.5192	-9.1244	1.3199	-7.4175	-12.8620	-8.8274	-16.9209	-3.7635	-21.8871	-7.2855	-20.2054
3656.0000	-10.3403	15.5178	-15.5744	-12.9329	-25.1306	-5.1236	-13.3152	-19.8319	-11.5256	-9.7550	-6.7591	-16.1636	-4.4157	-18.1706	-15.4869	-20.4336
3664.0000	-8.2644	34.1471	-11.8826	-12.7433	-36.4198	-6.2401	-17.3844	-28.8150	-6.2983	-9.4297	-10.8766	-14.0406	-8.1589	-21.8692	-19.4099	-28.3525
3672.0000	0.2919	32.4746	7.1608	-0.9516	3.3611	1.1115	-9.8945	24.3091	-2.1776	-4.1015	-3.9552	-9.8811	-6.8833	-17.1534	-16.8669	-19.2475
3680.0000	5.3063	24.1793	17.0377	6.8551	19.6345	12.5356	3.4201	13.6132	-7.3535	0.8075	4.6070	-5.2507	-1.3376	1.9156	2.3847	3.8258
3688.0000	23.5897	45.3153	21.1448	11.4781	13.6879	16.2218	20.1658	6.9977	-5.2979	9.7967	9.4983	8.6517	2.7594	12.9507	15.7784	8.3206
3696.0000	35.4877	55.6652	23.2649	16.5410	18.9094	11.0462	25.5769	41.8691	-0.2977	20.3659	16.8088	20.2471	7.8562	7.1513	17.6850	8.8208
3704.0000	32.8287	47.1966	24.8905	17.3257	14.8953	12.4711	11.3493	20.8878	5.1113	17.1302	21.6344	21.4543	6.3598	9.2464	18.6294	12.4460
3712.0000	25.8289	40.6529	22.2438	12.8221	6.3466	4.8736	-9.0495	-0.8690	10.3367	8.9562	19.9277	15.1670	-3.2616	14.7834	9.0049	4.0279
3720.0000	8.0082	22.5981	14.2200	3.9442	-1.1101	-6.3836	-19.5196	-8.1974	1.3930	0.7238	9.8238	0.8771	-9.1960	7.2523	-0.8794	-7.0239
3728.0000	8.5728	19.7327	16.8200	1.8275	2.1530	3.2681	-7.4462	1.3033	-11.7942	-6.3146	-0.0306	-7.4570	-7.1166	0.5065	-0.6584	-12.2566
3736.0000	13.0473	25.1149	22.2714	6.8451	19.2971	4.6546	3.4316	16.5945	-15.8202	-0.2479	0.8624	-3.8742	-3.7076	0.5021	3.6293	-4.7384
3744.0000	0.3745	11.7801	14.8270	4.2128	18.1544	-9.6819	-13.4421	-28.7237	-17.5910	5.5184	4.6008	-1.3118	-7.0028	-11.5892	0.2037	-3.9984
3752.0000	5.3402	14.7208	15.1064	1.5480	5.3763	-4.0202	-20.8437	-21.6894	-22.7970	-3.0457	3.7070	-2.6592	-6.5848	-24.5476	-4.7627	-17.9096
3760.0000	11.4685	12.1113	23.8983	6.8723	4.5072	7.6912	-8.8575	29.3582	-23.1413	-8.1470	6.1115	-1.3886	0.2162	-10.0009	4.8752	-8.5404
3768.0000	7.1468	-6.9058	22.4011	9.9907	3.2380	3.1505	-5.8069	9.1645	-17.4680	-1.2223	13.0994	1.4023	-1.5827	0.7931	3.6367	4.7622
3776.0000	11.7604	8.6333	25.6212	12.6484	2.4943	2.9662	-0.9450	7.9883	-21.6138	4.5576	12.1627	1.5398	-4.7130	-7.9064	-7.2736	-0.2211
3784.0000	14.7323	28.0798	33.3563	15.5349	11.3743	4.7110	1.9682	6.8517	-24.8679	8.7026	10.5161	2.7923	-5.5473	-8.1388	-2.7643	-0.2782
3792.0000	14.0757	23.9784	30.1254	12.8132	7.7120	-0.7114	-8.2031	-29.9839	-16.3879	15.3795	17.9618	5.2929	-9.6573	-10.6045	-0.6678	-5.0756
3800.0000	12.1921	24.8522	24.1674	11.2653	-8.1862	3.9825	-18.4964	-5.9928	-13.0974	16.7962	18.2104	5.0641	-7.1825	-9.6835	-1.8408	-8.4887
3808.0000	12.3808	25.3373	15.9804	12.2598	-3.5310	9.4186	-17.6602	21.8795	-5.4256	15.6017	14.7105	7.4098	-4.1477	4.3603	-4.7877	-0.3366
3816.0000	11.9757	17.4399	4.0776	7.3874	5.3708	3.5654	-3.4515	-9.5757	9.0581	16.4841	15.5932	8.1902	-9.7843	8.1414	-14.7218	-2.8992
3824.0000	-0.9536	6.7706	-9.9102	-4.2642	-3.7789	-3.5101	-8.7818	-28.1679	8.2249	10.4815	4.8714	-5.3858	-11.8026	5.1339	-16.1058	-11.2608
3832.0000	-10.7021	-1.7364	-22.3539	-11.8252	-8.4704	-4.1666	-29.3596	0.3449	2.4563	-1.7770	-7.4139	-21.4198	-4.4340	0.2836	-16.3347	-9.0766
3840.0000	-7.4039	-4.4831	-24.4457	-10.9342	-0.0617	5.0655	-11.7579	12.1998	4.8279	-7.2317	-8.7583	-23.4100	2.1307	-1.2810	-17.0436	0.0526
3848.0000	-7.2273	-8.6138	-31.4502	-14.1496	11.0393	4.3394	8.9774	-5.6837	6.7854	-2.6063	-12.5003	-21.5017	2.7575	1.4263	-12.5050	0.8662
3856.0000	-14.5763	-13.9948	-39.8049	-17.1934	6.4569	-5.5783	-7.8230	10.4274	4.0155	-1.4715	-15.9857	-24.1429	2.4632	-2.3333	-18.1145	-2.6910
3864.0000	-13.4323	-9.0965	-29.5557	-9.7098	-7.0500	3.8934	-14.8987	12.8806	2.7164	-1.4784	-12.4337	-21.8105	0.4947	2.6358	-23.9881	3.2330
3872.0000	-3.5810	7.5134	-19.3111	0.2392	-8.9999	17.1628	-7.8510	-5.6675	12.6009	19.9604	-3.7594	-5.9106	-1.3251	11.1139	-17.4732	8.6883
3880.0000	-0.4267	10.2766	-16.8987	8.5402	-18.8142	13.6802	-10.0366	1.7412	23.3333	40.6736	6.8053	12.4689	-2.1037	17.5507	-16.5932	14.0097
3888.0000	-0.4228	-3.6111	-13.5059	6.0129	-18.2418	1.5806	-9.9045	-31.3908	18.2900	24.5649	6.1018	10.8740	-7.8945	17.6212	-20.9766	10.7466
3896.0000	-0.5101	-0.9130	-5.0311	0.9004	3.3293	-0.1671	-9.9940	-38.6898	12.7288	5.2662	1.7401	3.0548	-6.0406	-3.6456	-13.9083	0.5178
3904.0000	1.5151	5.3664	8.3344	11.7395	1.5258	13.7846	5.7166	15.5120	22.4013	14.0363	10.9443	9.8983	3.7640	0.0049	-3.8956	17.2216
3912.0000	-0.6684	-7.1198	5.3894	10.0126	-0.6209	8.6908	19.3494	6.7851	25.2899	17.2964	13.4417	8.6539	2.3682	17.3134	3.0871	23.3163
3920.0000	-14.1147	-16.3456	-5.2377	-6.3401	4.6744	-12.9899	-12.3022	-9.1461	11.8529	2.8752	0.8399	-1.5544	-1.5355	-1.0804	10.4494	-3.6626
3928.0000	-11.7059	-13.3014	-3.1051	-4.4472	-5.8705	-14.5195	-12.9414	4.3224	9.5841	-0.3693	-0.8859	1.6504	1.5310	-6.2303	8.8150	-3.1612
3936.0000	-6.3874	-11.0690	-5.0650	-0.4819	2.2976	-8.6278	33.4479	-5.9478	17.4596	5.9716	3.6786	5.3552	2.3453	3.8662	2.7293	10.8144
3944.0000	-19.5023	-16.8023	-11.0635	-6.2556	8.2928	-11.7098	31.9189	2.2742	13.8703	3.6874	-3.5125	0.1860	-0.9692	-0.0841	0.0626	0.8705
3952.0000	-20.5069	-18.5805	-11.4175	-7.6485	-10.4615	-13.2839	12.2134	6.1103	8.5413	0.0209	-8.6344	-3.2257	-1.8299	1.4680	-0.9720	-3.5369
3960.0000	-15.7090	-11.0018	-11.0767	-5.0458	-17.4805	-6.0207	14.7580	-7.3895	9.6299	3.1032	-2.9595	0.1447	0.4552	0.4337	-0.9133	1.6271
3968.0000	-12.1618	-8.2144	-8.0894	-1.1776	-14.4237	-0.4340	13.0989	-4.7099	9.5946	5.7560	2.3711	6.3832	-0.6835	-0.0459	-4.4165	1.1551
3976.0000	1.7158	-5.2917	-3.4567	1.0054	3.7826	-2.6862	15.2313	-8.2212	10.9912	4.2454	3.9740	7.5306	0.6013	0.7862	-1.4767	4.0995
3984.0000	5.5362	-1.2875	-1.8921	1.4109	24.1776	2.8112	12.4543	-11.0998	15.4480	2.5684	4.7774	7.1781	6.0572	-1.0829	9.3186	11.1085
3992.0000	1.8694	-3.5861	-4.2098	1.3069	10.0244	4.6036	6.5196	-7.0152	16.2705	3.2550	5.9478	11.4064	4.8457	9.8578	12.0356	10.5528
4000.0000	-0.2916	-6.1072	-8.4390	0.0139	-3.8901	-6.9868	11.1756	7.4713	16.0946	4.5918	8.4729	14.8660	4.8690	7.7646	8.1368	7.0976
4008.0000	-6.9905	-11.8977	-13.1985	-1.1056	3.3225	-11.3534	3.8228	19.8047	18.7050	-0.4247	6.4385	11.1791	8.7180	-5.5878	1.4446	11.0298
4016.0000	-6.5964	-15.9681	-10.8744	-2.6952	10.6686	-10.5393	-6.3875	-2.6525	16.9200	-11.5200	-2.3092	6.7364	4.9736	-4.3266	-1.3678	8.8632
4024.0000	-1.0278	-14.6356	-0.4714	-2.1184	11.0539	-4.8131	3.0384	-12.3881	15.3509	-12.6020	-2.2835	7.9054	1.9249	-5.8150	4.2223	-0.1580
4032.0000	-2.6878	-13.0743	-1.6622	-2.4231	-4.6001	4.5056	5.6883	-6.3957	15.1783	-2.1829	5.7392	3.7385	3.8591	-7.6889	6.7176	-1.0298
4040.0000	-3.6238	-7.6652	-5.2615	-2.8006	-12.0382	4.2456	-8.2713	-20.6846	6.1503	6.7005	3.8413	1.1266	-2.1104	-2.7070	0.3510	-6.0252
4048.0000	0.0695	-5.1518	1.3315	2.1772	5.3876	7.3553	1.8995	-14.8816	-0.4872	14.1114	0.6628	7.6702	-8.1389	4.8171	-3.2138	-9.6810
4056.0000	-0.8824	1.4907	-1.2348	3.0269	11.3742	10.6280	19.5886	6.0983	-3.5867	18.9204	1.2323	6.0272	-0.5727	9.9708	6.0137	2.0115
4064.0000	-2.8759	11.1989	-2.9989	2.6251	0.3690	0.2823	7.2815	11.3152	-8.9496	17.2471	-5.5258	8.2785	4.3713	2.4264	9.9496	4.5406
4072.0000	-1.0655	5.5964	2.0722	2.9385	-5.4000	-7.5834	-0.4223	2.6091	-5.2640	7.1537	-9.3242	15.6620	0.1033	0.1960	6.5608	-3.4011
4080.0000	3.9156	8.5746	0.1585	-1.7711	-5.4398	-5.3705	-4.4178	-8.8794	-2.4107	-7.5094	-6.6122	7.5822	0.0600	3.1903	7.0051	-5.3765
4088.0000	14.6151	21.9296	3.8569	3.5470	-6.8774	1.6694	-8.4202	7.2750	-0.0687	-5.5224	-2.0372	9.8705	2.4734	1.7932	1.2043	-1.5382
4096.0000	19.7346	18.4015	10.3315	13.3407	-12.4050	9.7421	12.9442	23.3263	9.8072	7.7072	7.9013	24.6713	7.6676	9.8044	6.6313	13.2861
4104.0000	15.3286	10.4403	7.9683	11.0060	-13.1894	9.0034	21.1974	6.3882	8.0635	7.1010	9.4230	22.6475	13.0046	10.7236	19.4328	22.2526
4112.0000	9.4172	5.6478	1.3919	4.8387	-6.2071	-2.3986	9.8197	0.4859	3.4831	1.4846	3.3068	15.6086	10.7906	7.2361	17.8476	16.4081
4120.0000	7.0279	4.9464	-3.6122	1.4406	-5.8406	-5.8124	4.0888	17.3246	7.6213	0.0310	4.4868	12.7716	11.0314	12.8602	20.4039	13.9075
4128.0000	12.5958	12.3288	1.6909	4.2072	-12.5175	6.2765	1.0413	22.8429	8.6691	2.4512	5.3946	10.5350	10.6984	12.0363	17.5748	11.9100
4136.0000	12.3163	14.9636	5.3639	8.4421	-5.9875	12.2003	5.9597	10.4379	13.1286	11.1945	6.9705	11.2974	3.4867	19.6079	8.1992	13.3043
4144.0000	6.6193	14.4813	0.8435	6.7782	10.9005	8.4083	4.6891	1.2816	18.4788	11.8046	10.2615	9.3939	2.2670	21.9900	8.2171	17.8245
4152.0000	4.6129	14.9035	2.6112	5.4358	9.1916	5.3875	-0.3711	5.1256	20.0220	4.8133	8.9580	7.0721	8.1467	0.4524	8.8817	17.1037
4160.0000	1.3436	12.0247	4.8045	4.9463	-0.5406	2.7713	-0.6905	-2.4568	24.7711	5.5452	12.3462	8.0084	11.4626	-2.1751	18.3100	20.9361
4168.0000	6.7581	13.8964	3.0454	3.7071	4.1296	5.4735	-7.8384	-23.6862	24.2241	7.9699	13.3766	10.0399	7.2382	3.4311	19.2050	15.1423
4176.0000	7.9289	18.0587	0.4564	2.3249	2.2395	2.8681	-11.2823	-16.2712	19.1937	7.8249	4.8127	11.8014	2.8486	-4.7776	7.3758	1.2686
4184.0000	-0.5481	17.8821	-1.8286	0.9268	-2.5957	-3.3978	-10.1197	16.5849	17.4854	9.0694	0.9636	8.3138	5.0165	0.8435	11.2157	3.3826
4192.0000	3.7761	25.8207	4.7869	3.8072	8.3616	7.3841	-7.7380	17.4532	17.0044	8.6263	2.7675	5.9427	4.2983	4.8203	12.4969	5.6705
4200.0000	8.8125	36.6474	12.1692	8.7755	16.5746	13.9643	-13.4318	-5.7661	21.4025	9.8843	9.6178	11.3462	1.2467	2.9589	9.5350	7.9784
4208.0000	11.0359	33.0497	11.3289	11.4065	18.6413	4.3304	-20.4394	-4.5882	26.3041	14.7240	17.8835	15.1630	1.5652	13.2839	12.3092	17.5942
4216.0000	12.5263	27.5206	8.9653	9.4856	23.5124	-0.3416	-1.3258	5.7524	20.3505	12.5329	14.2451	15.5502	2.2725	12.6002	11.6950	14.4586
4224.0000	6.6969	25.1439	7.5266	6.6339	25.4758	5.2626	13.3783	10.2967	11.2550	9.1488	7.9854	17.6960	4.6315	7.5465	18.0407	8.6880
4232.0000	6.8443	21.5476	6.6706	10.2360	19.2095	13.5987	11.3049	14.9770	11.9700	18.4658	10.3264	21.2045	7.3684	12.4030	20.4455	15.7751
4240.0000	8.8612	22.8070	3.1415	12.1603	8.9830	6.9895	13.7860	11.5743	11.4442	23.1927	12.6171	22.0056	8.7026	6.8899	11.3124	21.1691
4248.0000	10.6220	19.4340	1.9177	7.3033	11.6652	-3.3413	16.8799	4.4536	1.9467	11.0878	9.0173	15.0963	7.3246	2.0928	8.6807	15.1840
4256.0000	16.2314	22.0855	8.6764	6.4806	16.2821	5.3713	17.4082	-9.4649	3.7942	5.9153	9.2509	13.3245	2.1948	4.5128	9.4294	5.5871
4264.0000	20.6299	37.5039	10.1896	11.9078	5.1280	10.6102	-1.0928	-7.8406	16.4068	15.5383	20.3386	27.2723	2.2309	-2.2493	5.5646	3.3346
4272.0000	26.2886	39.1009	5.5167	15.2508	-3.3235	6.8514	-15.4249	22.1335	21.0778	20.9712	26.1004	33.9496	5.9588	-1.1572	0.9663	7.0662
4280.0000	28.2343	35.9165	5.8984	12.7981	-2.7253	5.4111	-0.6748	18.8502	23.4984	18.2899	22.7967	26.5988	1.5057	10.6815	-1.2682	5.2023
4288.0000	31.9354	38.1445	8.9614	10.7480	6.5726	4.3961	11.9164	-14.6283	25.1848	16.9722	25.4445	27.0738	-3.1714	7.6221	-0.2571	-1.2995
4296.0000	34.1637	37.1574	9.0497	12.3522	18.7727	10.1364	14.3938	-17.6159	22.0569	19.3590	28.2052	32.4189	2.5996	1.0557	8.0819	3.5463
4304.0000	23.7909	37.4747	5.0271	11.6967	10.8208	8.8949	4.4386	7.9984	19.9153	19.1660	24.4199	28.8444	7.0507	10.4688	14.9425	12.3294
4312.0000	16.8573	34.4457	3.9999	8.6271	2.8472	1.6692	-2.7163	18.3636	17.4890	14.7793	19.4900	20.4093	3.5849	13.7962	10.4927	8.3322
4320.0000	12.9380	32.9364	8.1236	6.1821	11.2456	3.0389	0.7003	-10.2233	18.0854	13.4574	17.5906	14.2093	3.1549	-4.1021	11.7615	4.5101
4328.0000	9.8584	36.0115	7.8202	3.1219	5.9863	-1.3663	-6.5533	-11.4027	20.8822	9.9969	19.0436	10.6020	7.0557	-14.7258	17.7125	3.6547
4336.0000	11.8298	40.4875	4.9478	2.4013	-4.4503	-3.2471	-2.2852	19.6203	18.3829	3.5560	17.2970	9.6001	5.8532	-4.8054	10.7126	0.2332
4344.0000	9.5353	46.1851	4.0583	4.1447	6.9318	2.8172	1.9616	-7.6524	16.3395	8.3493	14.9998	13.0147	-1.4739	1.4248	2.9834	-0.9406
4352.0000	8.1825	42.3617	1.2374	3.1827	13.9871	7.8447	-2.2400	-21.9322	12.0574	14.4133	14.1304	15.6193	-3.4979	1.7235	5.6200	-5.3432
4360.0000	12.8397	24.2176	16.0715	3.6331	6.0144	-3.8141	6.3578	-2.0356	11.1590	5.5541	9.1232	-1.1434	-11.5532	-9.6601	-13.9035	-17.2973
4368.0000	6.5505	21.3493	10.0849	2.3615	10.1589	1.0408	14.1045	13.0336	10.2096	7.4347	4.5326	0.1439	-5.0959	1.9884	-0.2579	-7.6541
4376.0000	-5.3444	14.5929	-2.7684	-6.5080	5.4274	-3.0372	-20.4636	-3.8355	-7.4031	-2.1692	-13.5705	-12.5586	-2.8699	-7.6489	0.2537	-11.9114
4384.0000	1.1380	23.8700	3.5445	-1.4876	4.8807	-6.6830	-8.7563	22.6491	-11.4952	-4.3437	-14.6136	-11.5950	-3.1514	-6.8039	-9.2707	-9.3065
4392.0000	13.9821	36.9783	12.6677	5.1285	-8.6555	-2.1494	-23.8684	8.4099	-1.1314	1.3342	-5.7146	-6.3143	-3.8598	-0.7035	-7.8455	-3.6132
4400.0000	19.2434	32.8290	14.7082	5.0892	-17.1803	1.9944	-55.9409	-30.5597	5.5832	5.7098	1.8420	-3.5402	-11.1897	-17.0477	-18.0553	-18.8835
4408.0000	22.5117	38.9192	23.1650	8.3641	-7.8548	-2.1585	-36.2975	-20.6731	9.3840	9.8244	10.7608	5.6419	-13.6634	-28.8026	-21.1634	-26.8591
4416.0000	21.6240	53.6979	26.3716	6.3118	-4.8548	-2.9117	-21.8339	-47.9802	11.3802	14.3669	12.6547	5.4425	-14.8703	-26.2555	-9.2253	-27.5034
4424.0000	21.1535	60.0939	21.2702	9.9291	-12.5098	5.9441	-15.5520	-26.8099	17.4600	29.5067	21.5757	12.0825	-14.5176	-11.6654	-9.7772	-22.2914
4432.0000	25.0260	70.3449	16.1854	18.3055	-9.1890	11.3585	3.2751	46.4470	18.8428	35.3162	26.4030	22.6052	-3.1344	3.6256	-10.0656	-1.3855
4440.0000	23.0400	68.6079	13.5946	14.9986	9.9209	11.7338	21.7548	29.6526	15.4740	22.3333	17.8779	15.2888	1.4718	13.0566	-0.2526	12.2323
4448.0000	21.1452	63.3860	11.8576	12.9957	5.3840	13.1162	23.6790	8.2960	26.2609	20.9389	20.1397	14.3694	0.4624	24.0680	5.9444	16.7168
4456.0000	20.1021	59.5528	-2.0101	9.4650	-11.6976	11.6348	-4.7079	20.7506	32.4139	22.7823	17.2190	13.5661	5.5318	19.7431	3.1567	16.2324
4464.0000	14.9752	46.8589	-13.8015	0.6784	6.3884	10.8980	-11.8295	0.1916	23.8827	14.1732	6.1257	1.2137	2.7133	14.6700	-2.7745	8.5874
4472.0000	24.4125	57.0926	-9.2082	2.7448	13.3990	16.6600	3.3912	-10.4157	27.8134	14.9921	10.1174	2.5168	-1.2607	23.1298	-5.1473	7.6491
4480.0000	34.9337	65.2082	-11.3242	7.9333	-10.5610	14.1741	-7.3729	-0.5347	38.1330	25.3976	16.1884	13.5782	3.4027	22.8378	-7.2825	13.4161
4488.0000	28.3362	52.2748	-16.3256	6.7592	-12.1793	3.5039	-12.3867	-2.6343	36.9895	30.2843	15.5752	14.8652	4.0562	13.5260	-10.1832	13.5112
4496.0000	21.4396	47.0777	-14.3501	2.3545	-7.3832	2.8053	-9.2637	-2.9428	33.4190	26.0250	9.6490	3.0086	2.1903	0.7984	-13.1620	5.1945
4504.0000	12.9591	40.8466	-18.4464	-1.2439	-8.1514	0.0047	-4.5893	9.8224	31.5586	22.5949	2.4479	-5.0678	1.0084	3.4344	-16.6478	3.7443
4512.0000	6.6831	42.4794	-17.5417	-0.1983	9.8857	-7.0979	18.3765	5.4557	30.4864	24.8148	1.8322	-0.1702	-2.7678	15.8622	-13.7796	8.8354
4520.0000	1.0465	37.7938	-13.4705	-4.2266	8.4098	-7.8272	-1.1192	-32.0898	31.1190	17.1527	-2.5784	-5.0213	-6.1966	3.2317	-10.8698	0.2071
4528.0000	-13.8341	20.2374	-18.4077	-12.0749	-14.3515	-14.5912	-36.2163	-46.4214	29.5290	-1.0241	-5.8211	-16.8147	-7.6090	-11.5723	-17.3110	-8.1487
4536.0000	-13.8247	30.7541	-15.0777	-9.4939	-10.1608	-13.8892	-12.7445	-16.6945	29.5534	-10.0326	0.8274	-12.6470	-3.8079	-10.3829	-18.2853	-2.5410
4544.0000	-5.5327	40.4217	-7.9470	-5.2026	-13.4161	-6.6745	3.1920	-3.3894	33.5221	-7.2012	4.2918	-5.6254	-2.0939	-6.4842	-14.3172	-1.8613
4552.0000	-6.1697	39.1987	-5.0673	-5.4859	-30.3313	-9.8010	7.9279	-4.4010	36.3031	-1.2829	7.8738	-7.7633	-5.3892	-1.0464	-13.5242	-5.1454
4560.0000	0.8725	54.3107	3.5665	1.6960	-12.0492	2.4872	10.1473	-3.3730	41.6843	7.8012	16.8198	2.1695	-4.0224	6.3752	-3.7100	2.1732
4568.0000	4.7041	58.6368	4.1749	8.2547	2.4265	9.5633	-33.2722	-30.7531	47.4790	16.5787	20.1095	18.4691	-8.0080	14.1121	-1.8672	5.2983
4576.0000	-2.5797	49.5089	0.7071	4.3726	-0.9090	-2.2968	-21.5387	-19.7109	45.5986	17.1684	18.1730	14.0141	-8.4106	5.2268	-5.5674	0.1132
4584.0000	-2.6506	44.8365	4.3185	4.0270	5.1872	8.4340	28.1828	21.8561	42.4268	15.9942	18.8265	11.3779	3.7030	-0.4856	8.7598	6.3718
4592.0000	-3.2367	38.7888	-0.9436	3.7697	-3.9349	12.4753	9.5402	-10.9545	39.5840	15.0665	17.0612	16.1607	-1.7262	12.6905	5.9192	5.7479
4600.0000	-12.1856	32.2026	-3.3046	-1.7307	-6.1215	-4.1555	2.0246	-18.1398	34.3609	6.6812	10.2677	6.7887	-9.0144	8.7316	-4.4666	-3.6295
4608.0000	-13.9262	30.7649	-0.2410	-1.5653	1.6672	-8.5075	-0.1474	9.1339	31.4963	-1.3006	8.8994	5.7508	0.7019	1.3787	7.6656	4.3651
4616.0000	-13.5489	29.8954	-8.1492	-6.2890	-12.6731	-14.2742	-26.8195	-37.9716	28.2466	-5.1364	9.6007	5.2616	-0.0168	-6.1026	7.5578	1.0746
4624.0000	-16.5274	34.8862	-6.2497	-9.7768	-11.6039	-11.0163	-18.9380	-41.3380	28.1792	-5.3456	11.4387	-0.1998	-1.2754	-18.0514	7.8107	-8.8637
4632.0000	-6.8036	51.8902	5.2269	4.7237	-0.4227	8.7901	-18.5900	12.1932	35.9820	5.6473	24.1077	20.8038	3.5259	2.9850	17.2982	4.7760
4640.0000	0.0130	55.2485	6.5886	14.1616	-5.7041	16.4392	-23.7718	31.8800	40.3445	15.8304	31.1141	34.7963	1.4757	23.4896	11.4004	13.4243
4648.0000	-14.2443	44.3873	2.4823	7.9852	-9.0303	12.7583	-16.0620	25.1906	39.2007	10.2545	25.5078	22.6390	0.6668	21.2766	11.4770	13.0896
4656.0000	-28.9665	39.7240	-1.4381	-1.1791	-3.1380	6.1756	-14.9740	-11.8541	35.2864	-3.9377	19.5586	11.6263	-3.1805	16.4117	14.1007	7.9317
4664.0000	-27.3162	42.8672	4.0110	-2.2703	18.7749	5.8240	7.0744	7.7100	32.1487	-7.7323	16.1709	7.4519	-3.8156	12.3974	15.2010	2.2546
4672.0000	-22.2706	51.1638	7.6589	4.0067	21.6992	6.9747	-1.1016	27.2494	33.0323	2.0903	22.6718	15.7296	-1.4353	25.2892	23.0078	11.4056
4680.0000	-36.1529	41.4859	-1.4737	-2.7276	1.4666	-1.5873	-22.1427	-27.7033	21.3759	0.0935	22.6735	10.4224	-8.8665	15.1612	13.8285	2.1387
4688.0000	-49.4935	32.3360	-1.7349	-10.4346	9.9153	-2.7862	12.6666	7.6306	4.4183	-10.7994	7.1906	-9.3170	-4.2011	-10.5671	9.3481	-7.4662
4696.0000	-45.8290	43.5659	1.1796	-6.1729	13.7103	-0.8732	13.2427	29.2997	6.4707	-10.6167	5.6160	-3.2934	1.9613	-0.7602	19.3739	4.0840
4704.0000	-44.4808	49.1958	-0.5935	-6.5298	-2.7394	-2.3613	-17.9145	-27.7459	15.7416	-9.7736	13.7373	7.0648	-10.6885	-1.1141	7.1932	-9.7561
4712.0000	-36.0998	62.0549	4.6604	-1.2764	-4.1231	2.7621	-13.3976	4.2329	22.4335	-7.4203	18.8223	11.4889	-13.3129	1.3942	-4.1906	-13.6414
4720.0000	-28.2192	67.0203	4.6772	3.8389	-8.0984	5.1599	-32.7782	2.8625	25.5933	-7.5264	23.2607	18.4692	-8.1441	17.6824	4.5732	2.8271
4728.0000	-31.3688	60.6944	2.8498	-2.2824	-12.2322	4.6756	-48.4275	-28.6341	22.8742	-17.0372	19.5574	14.5468	-10.5033	4.1168	4.6898	-9.3279
4736.0000	-21.1075	72.8877	11.3911	2.7649	4.7439	3.2239	1.9465	12.3301	28.1662	-12.8731	23.7121	20.3874	-7.4457	3.9557	4.3298	-6.6102
4744.0000	-16.4407	67.7080	10.9616	7.1836	19.0149	-0.6244	27.1366	5.6868	33.7686	-3.4569	34.8982	29.0370	-0.5268	9.4899	15.1280	12.4786
4752.0000	-29.3084	62.1380	-3.5413	0.4495	8.9897	-1.6487	-9.8240	6.2481	22.9072	-7.3089	31.6435	20.5341	3.4664	0.1292	14.8112	10.7508
4760.0000	-35.7446	73.3780	-9.0554	1.4240	6.6343	-1.8180	-14.4121	27.0081	7.2763	-10.9859	27.5809	19.9606	4.5280	5.8089	8.5197	15.4708
4768.0000	-33.5645	71.3197	-5.2950	4.5842	6.4738	5.2913	5.7511	-2.6343	-4.2247	-8.5934	30.5974	27.9276	5.6888	1.0598	11.5734	18.8101
4776.0000	-29.9279	77.5714	-10.3340	4.9241	-24.6763	11.4396	-13.1791	4.2165	-15.1775	-0.5197	34.3379	30.2318	6.0801	0.7163	8.1344	11.6300
4784.0000	-26.6687	79.4010	-6.9481	8.8793	-12.0355	9.5444	-9.3236	14.8397	-25.1454	7.1505	38.1599	31.2916	-0.1982	11.5142	1.7716	10.6108
4792.0000	-16.8513	81.8456	14.4115	16.4547	29.7848	18.5716	42.3576	6.4061	-25.8395	14.0083	42.4106	40.8412	0.2813	6.8477	16.1681	13.5802
4800.0000	-15.9759	90.3048	22.0249	21.2883	10.6791	22.3461	51.3675	4.9263	-17.9517	22.1836	49.7389	50.8629	5.8996	7.5735	30.0540	21.7423
4808.0000	-29.4343	81.4138	17.2113	17.2777	4.2025	10.0197	14.4161	-25.8732	-15.2329	20.0121	48.2946	41.1326	-1.6620	1.2622	18.7198	18.5262
4816.0000	-28.5368	92.3630	18.8424	18.1826	14.2676	6.1621	-5.8503	-8.1973	-13.8256	21.1832	42.4245	37.5946	-5.1157	-0.9706	11.2020	13.3593
4824.0000	-25.2198	100.4790	21.5206	26.3186	-0.0554	4.3722	-3.4781	26.2883	-8.4987	25.4373	48.2619	52.5753	-0.7793	17.1781	15.5265	27.1401
4832.0000	-30.0722	96.5503	24.6688	24.8372	14.4259	6.3835	19.4954	-8.1593	-8.2559	13.2804	49.7619	53.2203	-3.2301	13.6512	15.0139	28.9310
4840.0000	-30.0530	104.7981	25.9968	21.9882	14.5172	19.5842	33.1059	-7.5586	-8.2397	8.3512	47.1261	48.4882	3.6344	2.0778	23.9325	27.6425
4848.0000	-25.9289	97.7688	28.4556	26.8580	0.1252	14.4775	19.9710	25.5378	-7.3509	12.1773	54.8429	52.3519	9.7837	8.9944	29.6790	38.3137
4856.0000	-15.1508	106.1489	39.1495	30.1213	20.0366	5.1738	39.8862	20.0946	-12.6131	7.8179	60.8523	54.4057	2.8685	17.6770	26.3828	36.7124
4864.0000	-6.3743	109.6601	45.3878	31.0579	32.1652	13.8674	63.4629	10.0418	-13.7490	11.1191	63.1494	56.8669	7.9918	13.0540	40.3587	38.5246
4872.0000	-1.0899	95.7808	41.4105	30.0475	27.8247	8.1005	44.6825	-1.8848	-12.2896	16.0697	69.2736	60.4675	8.9684	14.0813	46.0122	37.8985
4880.0000	1.6813	108.3710	31.8139	26.6245	-0.0550	0.9267	45.1442	3.4531	-20.4525	18.1337	73.9276	66.0175	0.9843	31.6093	37.7227	24.0579
4888.0000	-2.9766	108.3096	17.0634	24.8847	-23.7024	7.6626	50.1450	13.2396	-29.5513	28.0775	71.9078	65.7996	11.2323	19.7966	36.2768	29.7743
4896.0000	-10.8974	8.8866	3.9268	-8.1962	-19.3368	-19.1664	-16.6789	3.0351	11.1931	-41.4114	-0.1134	-10.1261	-7.3501	-10.4944	-16.6509	-14.7009
4904.0000	0.1151	29.9955	13.2694	-0.4858	-7.6045	-6.1233	-2.9764	-0.9092	25.1724	-31.6602	10.4824	1.1280	-4.7245	-8.1880	-9.6897	-6.7902
4912.0000	8.7775	32.6615	13.3516	6.3206	-2.8917	-6.2290	10.9071	8.0779	35.5343	-19.9150	20.4578	16.2606	-0.3472	2.0217	-4.0704	6.2610
4920.0000	4.1483	21.5517	3.1334	1.0208	-7.4728	-17.3861	5.5407	-3.3588	28.5740	-26.2856	12.7687	17.1643	0.6836	0.7468	-3.5776	4.3141
4928.0000	6.8232	18.3853	2.8513	-1.8329	-0.5291	-12.3753	3.2738	8.3491	22.2791	-32.8746	7.5961	4.4373	4.1652	-1.9089	-1.8175	4.7795
4936.0000	8.6805	25.3377	5.1584	-2.6966	4.6993	-5.5351	10.1047	20.3425	24.3877	-30.2613	11.0471	-3.0866	8.7695	-1.2259	7.7976	8.6998
4944.0000	4.9257	34.5874	8.7689	-1.8019	5.6063	-6.9961	10.6382	16.2492	25.0895	-27.0305	14.5085	-0.7914	5.9968	1.2906	10.6865	7.3951
4952.0000	5.9896	34.3475	10.3808	0.3323	12.9893	-9.2564	16.5182	16.6588	24.6010	-21.4639	19.3377	-0.8965	3.7897	2.1008	6.5974	9.2711
4960.0000	6.3101	28.4124	1.2649	-5.7706	8.6894	-19.0526	13.7156	-3.2868	21.1156	-19.0334	16.1772	-6.9536	4.8202	-2.6701	8.6654	6.6624
4968.0000	4.0382	28.8613	-2.6669	-12.1562	-1.6214	-26.7609	-1.9833	-15.9868	18.9773	-23.6547	7.7719	-13.4999	1.8804	-10.5525	6.5095	-5.7931
4976.0000	5.4873	42.7986	5.1189	-9.0831	-0.5804	-18.0181	-7.5235	-12.8081	28.2089	-20.9900	11.9125	-10.7357	-2.8188	-17.3948	-0.3170	-14.5079
4984.0000	14.5482	56.8334	11.9587	-1.2716	2.5550	-10.1420	1.3276	-11.1275	46.0098	-9.1242	25.8261	1.3064	-6.6537	-11.0996	-5.7994	-12.4914
4992.0000	18.5226	52.5086	12.0588	0.6307	4.0175	-11.2630	11.7164	-2.5181	54.2969	-4.5664	28.3435	3.8655	-4.7959	-4.1341	-3.2343	-6.2903
5000.0000	12.4801	48.7147	6.0024	-3.4380	-2.8990	-10.3837	-0.9296	-16.5251	45.1053	-8.9709	19.2037	-0.6112	-0.6196	-10.9819	1.6576	-5.3660
5008.0000	7.6504	52.6781	-0.7442	-2.8572	-10.7324	-11.5264	-11.6865	-17.8619	34.2067	-11.4956	16.5167	2.3730	-1.7854	-10.7763	-8.3552	-4.4681
5016.0000	3.4630	52.6418	-2.3921	-2.8390	0.3999	-14.1473	5.0535	6.0270	27.9550	-13.2979	15.3720	1.4653	-0.1778	-6.8573	-8.5017	-0.7970
5024.0000	9.2047	62.2116	3.4218	-3.3141	12.0959	-12.1312	17.0754	2.5654	30.2091	-11.7914	16.5999	1.3589	2.6316	-9.4368	4.0718	-1.4858
5032.0000	18.9598	70.2503	9.5381	1.5971	11.4626	-15.2732	25.7820	5.5824	41.0933	-5.9256	27.3384	11.0770	1.8502	-8.4112	3.3747	-0.3305
5040.0000	8.9736	59.4760	4.9306	-3.7913	5.7785	-23.9651	29.5426	-1.2526	36.8656	-13.2860	23.9661	5.4486	3.4158	-14.5935	5.4276	-0.8556
5048.0000	-0.9385	53.6786	1.4856	-10.1311	1.4448	-22.5297	20.0627	-17.3882	27.6741	-23.2414	11.7676	-5.9993	4.3298	-19.5398	9.1641	-3.4891
5056.0000	2.7515	58.5601	5.3090	-3.2227	8.7471	-15.4340	22.2502	7.1400	34.1011	-17.0100	13.8520	0.8370	5.4501	-7.3062	8.9541	5.7367
5064.0000	1.0045	59.1698	0.5435	-5.8646	8.8684	-20.9537	20.8287	0.8048	32.5224	-17.9124	14.3519	0.9672	6.8996	-3.9605	14.4639	7.7162
5072.0000	12.5836	38.4895	8.2334	4.6295	15.7388	-2.2302	2.5641	5.9973	-24.5413	5.9092	5.5247	7.3961	3.6495	2.4771	15.2230	2.1723
5080.0000	17.5171	59.3078	9.1374	7.6263	10.6240	6.3357	7.1673	-0.3497	-15.8151	19.0786	6.4288	15.6772	2.4621	-0.8344	13.4349	-2.2051
5088.0000	24.8721	68.7136	5.2122	10.4867	1.4932	6.5559	5.0318	-6.1429	-6.6372	35.4024	6.5350	25.8502	3.8570	-1.2528	13.6575	-1.5535
5096.0000	17.8218	40.4302	3.7451	3.0381	-2.8415	-6.9402	7.8055	-11.8528	-16.1168	9.9096	1.6815	10.3130	1.0850	-4.0841	5.4923	-5.0811
5104.0000	18.4289	40.3160	14.7218	5.0419	10.2921	3.5202	27.8054	-3.9891	-12.1170	-6.4932	3.5056	2.4292	2.6412	0.8427	6.9143	3.7222
5112.0000	18.7201	48.1327	9.9799	5.4281	8.3664	5.2965	24.0352	10.2857	12.9744	-1.9809	13.8247	8.1081	7.4787	6.3434	13.4807	11.2557
5120.0000	7.4116	39.3096	-4.6612	-5.2520	-8.7996	-5.9163	-5.1444	-4.5926	25.6240	-12.8334	15.2522	1.3165	3.2167	-2.2867	3.8996	-2.0548
5128.0000	8.6730	46.5735	-4.8262	-7.6605	-5.8061	0.2989	-12.9949	-25.7668	25.5750	-13.3157	7.5328	-2.2908	-1.9182	-15.8381	-6.0263	-15.6375
5136.0000	12.4468	44.3330	-5.4232	-3.3238	3.7817	-1.2469	-6.8728	-4.5933	29.0187	-2.2641	8.0955	6.6785	-1.7749	-11.6356	-7.9576	-13.6278
5144.0000	5.8333	29.8418	-9.5407	-4.2024	-6.5377	-8.8105	-21.6358	-2.7526	26.3193	-5.7119	7.7584	6.7920	-2.9570	-7.5697	-11.1799	-11.8524
5152.0000	-0.7515	20.4032	-6.4631	-4.6852	-14.0915	-7.3047	-30.5375	-20.0798	21.0276	-8.2569	1.9998	0.9014	-4.6085	-14.7635	-14.0062	-12.6413
5160.0000	-6.2421	10.4169	-2.1710	-1.5601	-1.1002	-3.5024	-11.5103	1.5273	21.6609	-4.6817	0.7677	-0.6878	-3.2292	-6.7123	-10.5361	-3.6356
5168.0000	-6.2130	17.2463	-3.3487	-0.6875	2.6136	6.5106	2.7470	0.9295	21.0359	-1.7003	2.8425	-0.8701	-0.8866	4.2874	-4.0009	4.0309
5176.0000	-5.6080	20.6515	-10.3518	-2.5343	-4.8637	10.8242	6.7392	-10.3132	20.7428	0.3325	4.7843	1.1563	-2.2203	4.3673	-9.2038	0.2036
5184.0000	-5.8885	9.2275	-14.6615	-5.6826	1.5706	7.0385	14.7857	4.3666	16.5484	-4.2040	-2.6473	-2.4470	-4.0921	4.5718	-15.6496	-6.3648
5192.0000	-2.4797	13.5973	-10.6338	-7.4432	7.5735	7.9915	15.0794	-6.3612	13.2632	-4.7192	-5.8394	-4.3263	-1.7279	1.1118	-3.3922	-8.5095
5200.0000	-1.6631	17.3163	-8.9642	-5.1835	3.3942	3.4744	6.1134	-9.4053	20.6856	0.1389	5.4135	5.4124	-1.1684	-1.6325	0.7424	-8.1417
5208.0000	2.7521	11.8281	-12.3331	-6.0214	-5.3273	-9.0859	-6.4998	-2.0113	20.6186	-6.8557	5.1282	4.1365	-1.8905	-5.0478	-9.8098	-9.9584
5216.0000	9.3961	16.3045	-7.0842	-6.1476	-11.3518	-13.5616	-16.5776	-17.6429	19.6344	-15.2129	4.0447	-1.0588	-1.5756	-10.9338	-11.0394	-9.4673
5224.0000	14.0852	21.7356	6.7519	-0.0944	-2.4400	-8.0431	-8.2303	-12.2985	30.0494	-14.5178	13.5624	3.4426	-3.3272	-9.7764	-9.2492	-6.9861
5232.0000	18.7214	23.4756	15.7690	0.1208	3.0410	-4.6368	2.2446	-7.2624	33.5127	-15.3115	15.2350	-0.0721	-2.8986	-8.3667	-0.3566	-8.8586
5240.0000	13.0593	20.1797	11.3760	-3.9699	5.9710	-6.0540	3.8037	-11.5575	34.5090	-14.2569	15.9941	-1.2005	-3.3940	-7.2441	5.3450	-12.5958
5248.0000	7.6116	7.2613	-4.7696	-8.1134	15.7478	-8.4191	13.0828	5.6756	30.8091	-12.9535	9.3420	1.9568	-3.3699	-5.6428	-3.0668	-16.7721
5256.0000	13.3095	1.3037	-12.9767	-11.9924	7.1922	-6.8864	12.5041	3.3308	14.2491	-17.4179	-2.4381	-0.5393	1.8866	-6.2054	0.6517	-18.3423
5264.0000	13.4447	3.0398	-11.2951	-8.1622	-0.9801	-0.7298	2.7973	-5.3637	8.8086	-15.2504	0.6270	4.4542	0.6297	-3.6841	-2.5300	-15.8613
5272.0000	1.5225	-1.7841	-18.4662	-7.6352	0.0657	-3.2054	-0.9086	7.7531	11.9709	-10.7925	0.5768	4.8800	-0.9122	-1.3236	-11.6618	-11.5556
5280.0000	-8.0477	1.0741	-20.7741	-11.4044	-12.2780	-6.7117	-15.0656	7.3171	10.6855	-12.9797	-2.5111	-3.1933	1.7079	1.9525	-2.2897	-7.8045
5288.0000	-3.3923	11.8728	-11.3239	-5.3095	-13.3630	3.3246	-19.1582	-0.1574	16.0676	-6.8617	1.8256	-1.6664	-3.5188	6.4005	-8.5290	-7.2390
5296.0000	4.2155	8.2282	-7.8117	-0.6803	-4.9365	3.3192	-6.3151	-4.4621	20.6329	2.5885	1.0633	0.9153	-5.8986	8.2649	-15.2288	-3.6873
5304.0000	-1.5288	-2.7645	-4.8968	-6.3777	-4.5045	-13.6974	-3.1033	-8.0173	10.0828	-5.9344	-3.2607	-5.3317	-3.3805	3.3448	-0.5504	-6.0380
5312.0000	-11.3361	-8.5082	2.7926	-9.5031	-0.3687	-19.9396	-1.4953	0.9436	-7.1585	-17.3824	-6.9462	-12.1697	-5.1852	-8.4406	2.0640	-15.8639
5320.0000	-3.2160	-4.8405	11.9409	-1.4629	-1.2177	-9.3739	-0.5329	4.1726	-14.1751	-8.7775	-1.3785	-7.1073	-4.7968	-7.2038	0.9128	-10.9956
5328.0000	7.5940	7.1832	16.4784	4.6382	-4.1345	-0.8717	0.4700	1.0093	-14.2537	1.5726	8.6482	0.5180	-2.4278	-1.5889	6.0406	-4.3592
5336.0000	-4.1909	10.4934	8.0751	-0.0283	-1.7188	-3.7544	3.5134	-1.1342	-20.7984	-1.0531	4.5599	-3.2814	-3.4742	-8.0026	0.7537	-8.2743
5344.0000	-10.3147	10.7732	2.5979	-2.2892	-2.1092	-4.6979	-0.4267	-13.5204	-27.2578	-3.0093	-3.2861	-6.6088	-6.1565	-9.4763	-6.4399	-10.1865
5352.0000	-3.5202	19.5423	5.0289	-2.0631	-1.4323	0.6045	1.1292	-9.2733	-27.1170	-3.8857	-6.5141	-7.2636	-2.6659	-7.1095	1.2049	-9.0049
5360.0000	-4.3931	22.8658	-0.6546	-4.0561	-2.7618	-1.7744	3.6486	2.6190	-22.3291	-4.1190	-3.3753	-5.6486	2.4979	-4.6588	8.3648	-4.7027
5368.0000	-4.4137	18.3554	-7.8853	-7.8879	-6.4292	-11.6968	-0.6061	-14.6316	-19.0161	-6.3342	-1.9961	-4.3606	-1.0675	-8.2481	1.1430	-11.1323
5376.0000	-12.7851	12.9528	-5.9477	-14.7715	-6.0224	-18.7659	0.6728	-18.8519	-21.0968	-20.2094	-14.9707	-15.3644	-2.9091	-21.4055	0.0155	-22.0471
5384.0000	-22.8289	14.4594	3.1753	-12.0932	-2.3450	-15.8810	3.6704	0.4712	-13.3503	-25.2497	-16.3017	-20.6068	-2.3435	-17.4695	2.6765	-13.8770
5392.0000	-22.7618	26.0288	12.5300	-4.9833	2.4924	-6.6473	-3.1103	-1.3814	1.0021	-14.9196	-6.7400	-15.7181	-6.4821	-8.3120	2.6499	-8.1027
5400.0000	-28.2952	29.3783	12.2585	-5.1480	3.3257	-5.7031	-12.2051	-9.2783	2.6864	-7.6909	-9.1985	-15.8255	-8.4352	-11.3807	3.3900	-10.5142
5408.0000	-24.4906	23.0558	7.6319	-3.6968	3.8260	-10.0935	-2.4625	-4.3105	-5.2891	-2.9068	-11.4061	-14.0957	-6.2506	-9.7416	-0.3640	-5.1664
5416.0000	-15.6540	23.9863	12.7867	-0.7283	4.0275	-7.0730	3.2967	-1.0092	-15.3154	-2.9409	-11.5871	-11.1674	-0.9012	-8.5994	9.1150	0.2173
5424.0000	-12.6693	26.6321	21.2034	4.9780	0.9335	-0.0077	-12.4610	-0.0760	-19.8962	-3.6053	-5.1946	-5.9306	0.5586	-7.5455	13.1747	5.0354
5432.0000	-7.6119	23.9260	18.3388	9.9521	2.0732	6.1432	-14.3753	6.8664	-22.7714	0.9622	4.6866	0.4334	-1.6822	-0.7448	1.4170	8.5675
5440.0000	-12.4073	23.1810	12.3920	7.2214	4.4376	9.9330	-6.8016	14.0928	-29.8233	0.0143	-2.3679	-2.6140	1.9293	4.6219	7.4972	11.9696
5448.0000	-6.9452	29.5551	14.5253	8.3801	5.6034	11.0776	-5.4313	8.5884	-25.5513	0.7196	-6.7742	-3.8797	4.6143	8.6140	12.7132	18.3864
5456.0000	9.9860	42.5542	19.6235	12.4722	4.8813	11.8872	-11.0242	4.1636	-12.3318	8.3119	2.1012	2.1195	2.5199	9.8583	10.0748	15.6825
5464.0000	13.3425	49.5782	24.4625	12.4604	2.0951	7.3097	-20.6101	3.3083	-4.1856	13.1417	6.9911	4.3698	-3.1996	8.1889	8.8575	4.4766
5472.0000	16.6058	45.1605	29.6352	11.5354	8.4822	3.0897	-8.4529	-1.8210	0.8080	14.0746	7.7080	0.5178	-5.4190	2.9101	8.5755	0.0520
5480.0000	16.4216	38.1591	29.6560	13.4471	16.0926	9.6030	3.4382	11.7934	6.0285	17.8835	10.4095	3.2113	1.4871	7.7137	19.8200	11.0005
5488.0000	10.6224	20.3506	13.8493	13.6678	10.9338	9.3853	-4.7336	13.7691	7.5785	23.1318	13.0657	9.7690	1.5617	21.1428	12.2050	19.4341
5496.0000	4.2530	-1.0514	-8.4727	1.6049	1.2417	0.7195	-18.8230	-14.3395	-3.2407	11.9306	4.0577	-2.3224	-2.0980	10.8168	-6.1257	7.3166
5504.0000	-6.2860	-6.3939	-14.5964	-5.3987	-2.7446	2.5035	-32.1320	-10.0973	-9.9039	-1.6518	-4.1038	-13.2614	-2.6392	2.4530	-11.1495	-1.4558
5512.0000	-5.6324	-9.0775	-13.3694	-0.5867	-3.8332	6.3418	-19.5882	9.2168	-0.5623	2.5870	1.5056	-6.4281	-5.6478	17.8291	-17.3530	3.3155
5520.0000	5.7553	-3.4254	-10.4969	1.4379	-6.5463	14.0417	-4.8068	5.5882	7.1082	6.5277	3.5483	-0.7944	-1.3633	22.8012	-7.7277	7.1109
5528.0000	18.5943	10.2802	-0.2640	10.1052	-3.6806	25.4751	-2.8238	9.3611	17.4999	12.9590	9.8304	10.6240	2.7834	23.6894	-2.1524	15.2315
5536.0000	18.1930	0.1568	-5.4128	10.6205	-2.9280	13.0203	7.3717	6.5016	24.0415	16.5722	15.9381	15.1819	2.2839	20.7434	-9.9609	19.1265
5544.0000	3.7921	-9.3657	-19.4363	-3.7577	-11.8012	-3.0668	0.7658	-8.4082	15.0011	5.8718	3.3105	2.3929	5.4056	1.3495	-4.8624	7.0587
5552.0000	2.6572	-3.2960	-16.0880	-3.0426	-10.5614	2.1278	3.2924	-4.8098	16.8433	7.4955	0.1638	3.5183	3.0078	-4.2566	-8.5363	0.1117
5560.0000	2.8526	-16.1338	-12.7072	-1.3428	-3.1194	-3.1515	19.4453	2.8931	23.8715	8.1432	9.1926	6.3065	1.0267	1.0254	-9.1972	2.7430
5568.0000	-1.1437	-31.1326	-17.6145	-10.4564	-3.9147	-15.3022	9.3953	0.4560	16.4522	-7.0809	6.2164	-3.4159	3.4607	-5.3803	-1.2950	-3.9612
5576.0000	4.8990	-24.9698	-16.8361	-9.4571	-6.5249	-5.2588	12.7708	-1.5940	12.3411	-6.7642	2.3150	-1.4284	3.1773	-9.9188	-5.7210	-9.7685
5584.0000	5.1448	-19.9965	-14.8139	-2.4987	-8.9383	6.0785	23.6808	4.0028	17.4919	5.9980	6.6185	9.8116	5.2524	-2.5004	-3.5136	-0.3614
5592.0000	-3.2581	-27.9402	-18.0890	-1.8065	-6.7398	1.2767	16.1860	7.2084	19.3996	9.0880	8.1002	12.6677	4.4856	7.2505	-0.8892	6.1751
5600.0000	-13.8432	-35.3089	-18.4901	-6.7897	-1.5331	-3.8577	13.3927	-0.0175	14.0770	0.7714	0.0313	2.5424	-0.7068	5.7465	-4.6301	-0.4506
5608.0000	-16.6354	-34.7817	-8.9758	-7.9056	-1.0192	-4.1054	7.9442	3.2140	11.3464	-6.8137	-6.2037	-6.0411	-3.0961	0.3123	-3.4009	-6.6637
5616.0000	-8.4663	-35.6990	1.0093	-2.9266	-3.8405	-6.1337	6.4382	4.7236	12.3248	-6.0478	-5.1659	-1.1092	-4.2497	4.9166	-1.1694	-4.8608
5624.0000	-3.8678	-32.1634	7.2804	1.3016	-7.0866	-5.1160	8.1666	-12.0742	7.5852	-6.8283	-5.0285	5.3765	-4.4216	5.4811	0.0176	-0.9326
5632.0000	6.4809	-16.7680	17.9427	9.2530	1.2176	4.0545	8.1912	-3.1083	9.5130	-2.9114	2.3606	12.4091	-2.3063	0.6939	-0.4411	3.3841
5640.0000	20.5725	-4.7514	24.5001	17.1395	14.8735	10.6457	21.8331	21.9223	20.1011	8.1669	16.0725	21.9571	3.0801	8.7588	7.5471	14.6779
5648.0000	20.4131	-2.2216	15.3112	14.8700	14.4006	8.8802	21.8278	13.8211	19.6534	8.2939	19.0948	21.8184	7.7161	16.1749	13.9756	24.0491
5656.0000	12.9057	-11.8626	-2.6502	6.7952	9.6274	4.7968	8.9167	1.3700	10.3332	0.3719	12.1944	14.5127	9.9187	8.2807	6.4070	21.7367
5664.0000	9.2123	-26.3832	-14.9212	1.2746	6.2019	2.4204	6.9356	7.9588	1.3574	-4.8128	5.9662	11.8260	14.8086	0.3410	5.1195	19.2573
5672.0000	12.0269	-25.2933	-17.0403	0.8983	2.4344	4.7858	2.1724	13.2349	-7.5304	-7.7925	6.0359	12.1249	18.1156	-0.1624	7.6910	19.8777
5680.0000	15.5096	-19.8067	-18.8714	-1.0411	5.4981	2.2055	-0.1464	9.6355	-12.0036	-9.9818	6.3475	7.5458	16.3868	0.8985	4.9504	16.9766
5688.0000	19.2415	-18.8280	-18.7551	-4.5534	5.4358	-6.9931	1.0417	0.5921	-9.9640	-9.6685	1.3033	1.2421	12.5559	-1.2272	2.3346	9.2733
5696.0000	22.2808	-8.9229	-8.4614	-1.9560	-0.3420	-1.2265	-0.7453	7.7315	-5.9336	-4.4345	-2.6605	-0.1687	8.7030	-2.7201	1.4389	1.3712
5704.0000	13.5398	-2.2657	-1.4669	0.8519	0.6371	8.1602	3.3316	17.6968	-0.5441	-0.0376	-5.6100	0.5116	4.5590	4.7124	2.3386	0.3402
5712.0000	-5.8334	-10.6589	-6.5927	-4.5994	4.9444	-0.8160	-1.6118	-1.6749	4.0794	-4.4112	-13.6093	-4.3644	-3.0074	7.6295	-2.0852	-3.6457
5720.0000	-21.9634	-18.0461	-10.8399	-12.2134	6.4658	-11.2841	-9.9212	-7.9916	3.7933	-14.5673	-22.1863	-15.7602	-8.0512	1.2395	-7.5292	-12.1833
5728.0000	-19.2092	-17.0148	-8.2810	-13.0805	7.0342	-14.5118	0.5629	7.1455	4.3414	-19.6108	-21.1837	-20.1434	-5.7004	0.9395	-5.4558	-11.0493
5736.0000	-11.0375	-17.1604	-9.5324	-13.9046	7.1507	-15.2182	4.8832	1.3766	4.0161	-21.4919	-16.5047	-16.3699	-2.0206	-2.0368	0.0765	-11.1927
5744.0000	-13.7414	-18.4720	-17.3848	-17.4849	4.2872	-11.8712	-0.3126	-6.1018	-1.3117	-23.8550	-17.4402	-14.8852	-0.3847	-9.3119	-0.5599	-16.4706
5752.0000	-7.4783	-9.3501	-16.2865	-12.1174	-1.3355	-6.2608	6.2167	-8.5616	-1.9792	-13.7954	-14.5531	-8.2650	-0.4270	-8.4665	-6.3124	-12.7070
5760.0000	3.5969	1.5754	-6.0100	-3.6828	-5.4465	0.9235	7.1149	-14.2973	-0.0016	2.1724	-8.3386	0.1210	-0.1862	-6.2603	-2.4526	-7.9186
5768.0000	3.6984	-5.1141	-3.8710	-3.2109	-11.9520	-0.4735	6.5545	-12.7825	-0.8026	6.6436	-8.4235	-1.2173	-0.4233	-4.4394	0.2758	-7.9635
5776.0000	2.8519	-12.7345	-3.0825	-3.9646	-15.8112	-7.0387	13.1681	-15.1002	0.1380	5.5819	-8.5989	-3.3900	-2.3023	-3.3159	-2.2229	-8.3277
5784.0000	2.4707	-8.4196	4.8544	-0.2048	-4.2203	-2.4013	7.9523	-4.6828	5.3982	7.6578	-3.2952	0.0295	-2.7353	0.4545	3.8372	-5.9357
5792.0000	-1.9325	-16.3605	4.8290	2.7507	2.3071	-2.1662	4.1733	11.4922	13.0698	9.6105	-0.8615	3.8462	-2.0049	9.3810	5.0973	2.1297
5800.0000	-4.6966	-25.9167	0.3936	0.2346	-3.3680	-7.2139	4.9267	-0.2025	14.1886	5.3466	-4.6733	2.7976	-0.5040	5.1928	3.8298	3.6694
5808.0000	3.2648	-15.8206	5.3100	1.5413	4.3974	-0.2951	1.1912	-2.6687	14.7137	4.5744	1.4708	3.8029	0.9751	0.5367	8.0974	1.5660
5816.0000	9.0986	-9.8197	10.2636	7.4381	9.2174	5.1478	5.3519	12.4116	19.0396	10.3351	11.5738	8.9663	1.0672	9.1348	7.7562	8.0187
5824.0000	4.0656	-10.7816	11.3759	8.8014	-0.1271	8.4523	7.0349	14.6327	15.7344	11.1953	9.4851	9.4287	2.6435	9.4208	8.9480	11.6731
5832.0000	-1.6479	-14.9393	7.3612	8.1048	0.9359	8.3083	2.6622	9.4794	12.6151	13.9119	11.2702	11.7327	3.8383	7.7553	11.5313	13.4511
5840.0000	-18.7427	-32.1613	-8.4901	-1.5456	1.6012	-9.3491	-2.1681	-3.3724	5.8105	6.5279	4.2994	5.8968	1.7423	2.9070	6.8468	8.7917
5848.0000	-28.6121	-35.5736	-16.7505	-13.4024	-1.3754	-17.3319	-9.9171	-10.8955	-6.1498	-13.0405	-15.0781	-10.8976	-0.3379	-13.6702	-1.4650	-7.4611
5856.0000	-16.7032	-25.3314	-11.7385	-11.6276	2.8118	-11.1555	-10.1714	-12.8345	-1.6749	-14.5351	-10.5130	-10.9229	-1.6138	-17.8031	-5.8233	-12.2259
5864.0000	-19.7311	-23.2177	-13.7775	-13.5657	-2.5050	-15.9690	-11.1319	-22.4228	3.4763	-15.6015	-4.4150	-8.9451	-3.6616	-17.6253	-5.8438	-14.8598
5872.0000	-22.3261	-12.3073	-10.9490	-14.0414	-4.7897	-13.1989	-14.4825	-12.2349	4.2391	-19.4748	-8.6307	-9.7437	-3.8277	-18.2055	-4.1473	-18.5458
5880.0000	-8.3172	-2.2389	-0.5242	-3.6214	3.2596	-7.6306	-9.0427	0.3399	13.2071	-8.4555	0.3469	3.1531	-1.6668	-6.4565	1.6840	-6.8859
5888.0000	-7.4797	-0.9811	-2.0180	-6.1188	-0.8765	-15.2666	-9.8781	-13.3448	9.4301	-13.8203	0.6841	1.4201	-0.6905	-7.7551	4.6530	-6.0624
5896.0000	-10.3708	7.6173	-1.7248	-8.7146	-1.6703	-8.1701	-14.3500	-12.9796	0.6984	-24.5059	-2.7539	-5.3746	0.8052	-14.6372	3.8116	-9.4268
5904.0000	-6.9436	6.0108	2.4646	-0.5341	6.2869	2.6663	-6.6521	7.9003	0.3311	-17.5984	1.3717	2.5313	2.9838	-4.4206	3.1046	1.9680
5912.0000	-5.8064	2.4094	-3.5160	-0.9045	2.6579	-0.9745	2.3197	10.0784	-2.4299	-14.2429	-2.8312	2.1248	2.4604	0.0169	-3.2037	3.8922
5920.0000	-6.6629	8.2195	-6.1621	-2.4386	-4.4463	-2.9447	4.0172	-3.8560	-2.6340	-10.3653	-1.0240	0.6527	0.0534	-5.0659	-8.3380	-0.2984
5928.0000	-8.6423	-1.1368	1.3789	-0.7643	-6.2010	-7.5414	4.4407	-3.5578	-10.5537	-9.5259	1.1241	-1.3467	-2.1190	-8.7343	-8.1445	-2.0540
5936.0000	-1.8050	-4.3217	12.1347	2.9474	-0.0045	-4.3557	3.6680	6.4539	-22.4327	-12.3035	-1.1144	-5.1902	-0.0922	-8.5788	-3.1631	1.1741
5944.0000	5.9626	8.1369	15.7997	10.0802	6.5148	6.5844	2.2753	5.2588	-17.1457	-1.8163	7.7670	4.8034	3.4432	-2.0320	3.2178	12.1174
5952.0000	5.1335	10.2069	8.7581	6.2733	-6.9022	2.1278	-2.6843	-5.8998	-12.6213	0.7457	6.5048	5.3793	2.3503	-2.6780	2.3495	6.7174
5960.0000	12.8468	17.5155	8.6212	2.1530	-19.1165	2.6981	-18.9084	-21.6920	-11.8611	-3.3814	1.3486	0.0075	0.0186	-9.6419	0.3280	-6.0870
5968.0000	24.3774	27.9661	14.0214	7.9288	-3.9376	7.4660	-18.2425	-18.7542	-6.0065	3.3725	12.1680	8.0956	-2.6620	-9.2475	-4.7091	-6.9914
5976.0000	23.6763	21.8912	11.8413	5.4520	12.8551	-1.4594	5.3031	1.9182	-12.1457	1.2727	12.3674	4.7852	-3.8529	-7.1339	-6.9567	-9.7490
5984.0000	17.9475	17.1342	11.0774	0.4289	10.8759	-1.9381	5.7765	-2.6929	-22.7641	-4.9348	1.8720	-4.2085	-2.3335	-7.5988	1.1401	-12.2855
5992.0000	14.5800	22.8349	17.3037	5.2832	8.5783	5.1928	-2.6175	-8.9841	-22.2841	0.8072	4.6434	-0.4713	-3.1118	-6.1554	3.0732	-7.4294
6000.0000	13.9752	27.8814	24.9332	10.4069	16.8639	7.0442	8.7633	8.7297	-20.4370	4.5659	11.6288	0.2091	-1.8890	0.2954	6.2917	2.2073
6008.0000	14.1457	26.3035	24.5946	9.5179	15.9609	5.6027	11.9995	8.6009	-22.8101	2.0042	9.6917	-4.8382	-0.9622	5.9100	8.3525	6.5958
6016.0000	13.2848	25.8408	15.6133	4.4302	0.6419	0.8720	0.4033	-10.4394	-28.1164	0.5543	5.6874	-7.6861	-4.3906	-1.5326	-1.3053	-4.1540
6024.0000	13.9871	33.1125	12.2766	1.6165	-3.8106	3.3275	-7.0056	-14.0738	-33.8468	0.9514	5.0328	-7.7885	-2.1038	-11.8399	1.3684	-11.1029
6032.0000	16.7488	40.7492	18.5309	7.7310	4.3804	10.6601	-1.2672	2.6744	-29.7791	5.2419	6.6003	0.0335	0.8631	-3.5986	8.0513	-2.2849
6040.0000	20.8016	44.6879	24.6378	13.7244	6.3706	9.2266	5.3354	8.4616	-18.0662	8.8111	9.4372	9.5326	-1.9887	5.2405	4.5069	2.2534
6048.0000	19.7161	40.8805	22.9022	7.4674	2.5667	0.1442	2.2748	-9.0415	-16.4980	2.8318	6.1225	3.5182	-1.5592	-7.9183	7.2984	-5.6772
6056.0000	10.7843	36.4577	18.4985	0.1790	1.1873	-6.6051	2.5384	-12.6230	-21.4758	-2.9127	-0.4181	-8.2967	-0.5853	-16.5055	9.9784	-10.5467
6064.0000	5.2916	40.3395	17.3430	0.3942	3.0271	-4.2442	-0.6827	-6.1607	-19.8340	-2.1010	-1.0393	-10.9682	-4.0292	-11.4475	4.1410	-10.8945
6072.0000	1.1107	40.1308	14.4109	-0.8865	3.7129	-0.1101	-10.3541	-3.3333	-18.0000	-2.6000	-0.2118	-11.9159	-5.5620	-11.9964	1.3718	-14.4793
6080.0000	-2.4375	39.7177	12.8237	0.5110	3.4873	2.2007	-10.0815	10.2594	-18.5826	0.7612	3.6590	-7.9426	-3.8673	-7.9766	4.1887	-11.3314
6088.0000	1.4732	44.4981	12.7558	3.8742	3.7309	3.1938	-6.8354	8.4088	-21.4763	4.3718	6.6965	-1.5417	-3.0356	-3.5405	3.9523	-6.2977
6096.0000	0.3699	46.5802	10.0910	0.8933	1.1408	-0.7002	-5.9504	-2.7852	-25.9208	0.8351	3.6892	-3.8765	-3.9664	-7.6888	2.2569	-10.2882
6104.0000	-3.4356	48.1157	12.5523	-0.3572	2.0646	-2.5047	-4.1008	5.7151	-24.0530	0.6913	3.8738	-7.8242	-6.2599	-5.5629	3.2992	-13.6292
6112.0000	-4.4416	45.5868	17.5285	-0.5150	7.7049	-1.8406	-3.2484	7.2106	-20.5222	1.2829	0.7255	-13.9351	-9.5078	-4.1198	2.4292	-16.0822
6120.0000	-9.0531	41.9780	18.3182	-1.5664	5.0715	-3.0453	-3.4548	1.5525	-13.1875	2.1365	-3.8787	-18.4833	-11.0023	-3.0379	2.0268	-15.0150
6128.0000	-8.4729	34.0920	15.5000	-0.4107	-5.9533	-2.4333	-7.6019	7.3501	-2.1013	6.2327	-2.9600	-18.3757	-10.4149	4.1044	-0.4320	-9.8155
6136.0000	-9.3281	16.7353	8.5104	-2.8402	-10.3525	0.6310	-10.5085	8.6332	-1.2237	4.9106	-10.2909	-23.7520	-10.8173	3.9656	-8.5839	-11.4247
6144.0000	-12.7554	10.6760	-0.2371	-4.2605	-3.3014	5.2343	-4.7062	5.2735	0.1008	7.0658	-15.5942	-23.5193	-9.4022	4.1683	-12.3545	-8.3860
6152.0000	-8.6169	7.2302	-10.6353	-4.0190	-2.2351	5.5933	-0.3653	8.9345	4.3255	10.2008	-11.4516	-20.3635	-4.2144	10.8314	-12.7069	2.3242
6160.0000	-11.0665	-6.1476	-19.5195	-7.0519	-12.0924	2.8479	-6.1001	6.4717	1.4398	5.7375	-13.5813	-24.6024	-2.9030	13.2667	-17.4184	5.0787
6168.0000	-15.3043	-9.7163	-23.6065	-7.3163	-15.8908	4.4052	-9.5913	-4.8311	1.7649	7.6453	-15.2791	-21.6355	-4.3844	10.9958	-22.0496	3.9426
6176.0000	-12.1287	-6.7720	-24.9098	-5.8707	-14.1698	2.7023	-7.3924	-4.2062	3.1621	10.2003	-9.2325	-14.9502	-1.1079	7.7945	-19.0097	7.0163
6184.0000	-9.9565	-7.4252	-20.6336	-4.2394	-13.7578	-2.3713	-8.4869	0.1632	3.9059	7.8555	-2.4195	-10.4066	1.1778	6.8600	-12.7846	9.7730
6192.0000	-5.7949	-9.3388	-14.0871	-0.6525	-11.5223	0.1625	-4.4948	-1.0893	9.9586	9.8945	1.9850	-3.2701	1.2931	8.7621	-8.2642	11.3585
6200.0000	1.0360	-12.3473	-10.7570	2.1487	-4.3011	3.4626	3.8399	2.9283	15.7834	12.2069	5.7852	2.7849	4.8172	13.0150	-0.0644	16.9019
6208.0000	7.9975	-14.4354	-9.1165	2.3133	7.4117	1.2421	9.3483	2.4229	19.3151	11.0274	8.5044	5.3239	7.5216	11.2950	5.8410	18.4890
6216.0000	11.8324	-11.4797	-6.2648	3.4262	15.4115	6.6570	19.6397	8.7376	19.6380	8.6257	7.6528	5.9329	8.2192	9.2184	4.7434	17.5296
6224.0000	9.8087	-10.2985	-6.4673	6.8299	15.9938	10.7175	20.9140	17.6910	21.4271	10.2601	7.9432	11.0672	8.8988	21.1234	6.0715	25.5932
6232.0000	3.1927	-22.7668	-14.6574	0.3187	4.4153	-0.4318	-0.4055	-3.3747	18.2118	4.9455	3.3840	8.3292	8.5710	16.6493	8.8746	20.6017
6240.0000	2.7852	-20.9349	-10.1334	-2.5327	-7.2192	3.1590	-15.2400	-9.3101	9.1638	-4.9159	0.2160	1.6176	5.5571	0.0700	1.7754	5.3561
6248.0000	15.8018	-2.1748	4.3620	12.0347	4.0906	15.6064	-3.5234	14.1240	19.1732	9.1832	14.3349	16.7534	0.5535	10.6329	-9.0993	10.9302
6256.0000	11.1049	-10.0437	-1.5196	10.5471	7.1942	2.9465	1.9281	7.2202	25.5701	18.3304	16.1849	20.8903	-0.2686	14.7028	-5.6004	13.8158
6264.0000	-8.8752	-21.5662	-7.5698	-1.8688	-9.9825	-5.6421	-10.6386	-11.1845	11.7905	3.4501	-0.0962	4.1910	-1.2058	0.5264	-2.0644	0.8892
6272.0000	-9.2765	-15.7443	0.4006	1.8285	-9.2744	3.7387	-7.4358	-4.5957	12.4302	2.5206	-4.0586	5.0367	-4.3241	0.4215	-7.3668	-1.8304
6280.0000	-4.2553	-13.2203	3.2110	6.9465	-2.2722	9.3863	5.5135	7.2375	21.1468	10.7629	-0.5178	13.4255	-2.4912	7.9282	-4.3090	5.0258
6288.0000	-2.0030	-14.1322	-0.7252	7.9365	-7.1987	7.6227	7.1973	8.1752	23.2288	12.8385	2.7064	17.8613	-1.9524	15.6711	-5.0572	9.2512
6296.0000	-7.7386	-29.4995	-14.7676	-1.2449	-17.0458	-3.3371	-1.1293	1.6353	16.8979	2.5500	-5.9386	10.8472	-1.8384	11.4379	-9.5895	1.8155
6304.0000	-19.9732	-34.6325	-22.3088	-11.1527	-24.1846	-2.9312	-12.5761	3.0539	6.0714	-13.3665	-19.4131	-2.3885	-1.0320	0.0706	-10.5044	-10.0737
6312.0000	-10.5588	-14.0852	-13.6206	-1.8987	-12.5730	9.6233	-4.9692	7.8784	15.0286	-3.2827	-8.8588	8.4195	-5.0043	5.4808	-17.9396	-7.6235
6320.0000	-1.2169	-11.8441	-15.3889	-0.0189	-2.7583	8.4263	7.1956	6.2365	20.0821	5.4804	-3.2243	13.6756	-1.8941	6.0573	-14.3355	-2.7117
6328.0000	-2.7750	-14.8814	-16.2553	-3.2784	-4.9449	9.3201	8.5082	10.7375	11.1764	1.1953	-9.8503	6.6718	2.5853	3.2445	-6.4564	-2.3246
6336.0000	2.0427	-13.2471	-8.6567	4.0579	-1.1852	12.8253	16.3516	10.4052	17.2193	9.8568	-0.9067	17.3044	0.4776	12.0584	-5.7679	3.7261
6344.0000	0.5286	-24.4890	-13.1199	0.0466	-6.7000	7.4763	13.5180	0.7518	15.4100	2.8949	2.0187	16.3462	6.2050	8.3816	4.1237	7.3100
6352.0000	-1.1312	-24.7241	-17.6265	-4.9403	-7.6897	6.2357	10.0913	5.4850	4.8403	-9.2866	-0.9515	8.1594	9.6063	3.5231	5.3223	5.4901
6360.0000	1.4287	-20.8613	-15.8172	-3.6538	4.9980	1.3003	20.8513	7.3005	3.7755	-5.2562	0.9563	11.2425	4.6686	5.0003	-0.2282	0.9566
6368.0000	7.0241	-18.2910	-8.2188	-4.6831	0.6704	-1.6712	14.8173	-3.7625	-4.9837	-8.9776	-1.7312	6.9592	5.2089	-6.0530	4.5927	-5.6105
6376.0000	16.4698	-4.4815	6.9082	4.1164	1.0663	4.6833	9.0869	4.3249	-10.4856	-3.6377	4.3498	9.6904	5.4647	-9.3536	4.2767	-1.7846
6384.0000	14.1231	2.6780	11.2393	11.0321	13.9841	3.9414	16.8743	13.0574	-4.2228	9.5373	9.6071	18.1131	4.2762	0.2926	5.8148	8.8063
6392.0000	11.3418	7.1535	8.9260	8.9172	10.4197	5.7443	14.6810	3.3597	1.6594	9.9099	5.7584	18.8605	5.5373	2.4272	12.5153	9.1696
6400.0000	5.3713	1.8560	2.8286	5.8372	2.8214	4.7062	10.3985	6.0063	5.3912	10.0272	5.4593	19.1837	3.6252	-0.0159	7.8654	2.6561
6408.0000	-14.5863	-22.7855	-15.5491	-5.7564	-3.2178	-8.9396	11.6806	7.0369	0.3046	2.2184	-4.8653	6.3291	3.6977	-4.9735	2.0885	-1.3190
6416.0000	-19.2303	-24.0954	-19.0067	-11.2931	-6.2073	-4.9123	12.4751	-4.9092	-1.8444	-4.7481	-14.7301	-3.9086	4.7386	-9.6183	3.4017	-4.4095
6424.0000	-9.8510	-7.2750	-8.1217	-2.3019	3.8717	4.9273	11.1156	-2.5689	10.1829	6.7373	-5.2481	7.7218	-0.1599	-3.9973	-0.1458	-4.4390
6432.0000	-9.4262	-13.5607	-9.1779	-0.7423	7.9597	-2.9883	11.5682	3.2831	14.3793	7.2562	0.5851	9.1120	0.0699	2.5179	-1.1299	3.0609
6440.0000	-12.0734	-21.1368	-6.2142	-3.3570	4.7448	0.4776	12.2565	4.1500	7.3705	-4.5591	-3.4512	-0.5765	5.6525	2.3649	9.1033	8.8241
6448.0000	-8.3364	-14.8058	0.5425	1.0082	4.8962	7.3427	6.8546	0.0423	10.1347	0.4840	-0.6845	3.5731	2.8472	6.6534	9.1423	8.6565
6456.0000	-4.1413	-16.9366	-6.4207	-0.7742	2.1959	-5.4039	3.1224	-6.6908	13.9686	5.0711	2.9216	4.1509	-0.9588	8.3722	0.5496	5.3465
6464.0000	-3.4957	-18.7848	-10.7538	-6.7322	3.7231	-7.3915	0.1538	6.3757	7.1037	-4.1477	-2.3116	-5.4681	1.5184	0.1575	0.3389	-2.2299
6472.0000	-0.6373	-14.7122	-9.4360	-4.1509	8.0153	0.4268	-3.1121	7.4220	8.8369	-2.9899	-3.6447	-3.3119	0.8175	2.6418	-2.6336	-1.1576
6480.0000	-5.5140	-23.3660	-12.1656	-4.5493	5.7922	-8.5385	-5.1450	-14.0256	12.0428	-3.1695	-1.0196	-2.7977	-2.4178	6.6107	-6.4551	3.5457
6488.0000	-15.2764	-31.6088	-9.3361	-10.3803	5.5533	-17.3008	-10.8320	-8.5068	4.1827	-17.6919	-8.6405	-13.4198	-1.5542	-4.1330	-2.1479	-2.6856
6496.0000	-14.2098	-30.7035	-4.8719	-9.6793	9.3932	-16.4706	-5.8378	-0.1669	6.7593	-20.7790	-14.6195	-11.2918	0.7470	-5.9818	3.3236	-2.7708
6504.0000	-14.0556	-33.8070	-6.7407	-9.1259	10.4850	-14.0977	0.4943	-7.5621	10.9507	-18.4475	-14.0277	-5.7222	1.2878	-3.0078	5.6786	-0.8038
6512.0000	-10.2417	-29.5070	-3.2910	-5.3668	8.4268	-7.2709	-4.3355	3.9486	9.6522	-15.8957	-11.4150	-2.7976	3.1242	-3.3342	5.5415	1.2648
6520.0000	-2.0490	-24.2679	-0.2976	3.0250	6.8925	-5.8831	1.2086	10.5966	14.4837	-4.2745	-3.2280	6.8844	7.7153	4.4744	7.9860	17.5407
6528.0000	-12.4383	-33.6740	-10.4281	-3.0847	3.0156	-13.7725	3.7845	-1.7534	4.4359	-6.4335	-7.7644	-0.2658	10.4523	-0.2118	10.2377	19.9505
6536.0000	-18.7406	-31.1447	-12.2705	-7.4123	-1.1279	-14.2174	-2.3102	-0.8603	-7.1454	-11.4701	-13.4703	-8.7154	9.9883	-6.2114	10.0323	13.3934
6544.0000	-6.9622	-17.3479	-2.8077	1.9701	4.7730	-8.5548	0.9981	1.8425	3.9198	-1.2634	-0.0451	4.6848	6.9008	5.1041	8.9155	18.6559
6552.0000	-7.5692	-20.7908	-7.6796	-0.6770	7.0884	-10.2325	-4.1846	-7.9159	8.9157	-0.1964	-1.7816	6.3955	2.6774	0.6416	1.9891	9.2962
6560.0000	-10.0845	-28.2714	-14.1636	-6.0235	0.6743	-12.8649	-8.7052	-9.4354	4.9210	-3.9405	-11.7229	0.6414	2.6071	-8.5932	-2.6869	0.3825
6568.0000	-2.0151	-28.0762	-11.9034	-2.9348	-1.3064	-10.9863	-0.3983	-10.0323	6.1170	-2.2964	-5.8646	4.9636	4.6310	-4.1566	-0.8601	5.8178
6576.0000	-16.8581	-30.2970	20.9319	-1.6814	9.4034	-1.9038	11.7706	4.2107	-26.9526	-8.4283	-1.7435	-18.5017	-3.4060	-5.2418	14.4298	-4.3194
6584.0000	-10.8873	-32.5218	21.8870	0.5539	9.4188	-0.3765	8.8935	3.8661	-29.6862	-5.4831	0.1426	-13.7760	-4.6040	-0.7912	13.7957	-5.2805
6592.0000	-7.8398	-27.1851	23.3057	-0.9247	4.5168	0.1972	-2.6846	-2.2853	-32.8835	-3.2512	2.7187	-17.5517	-5.9375	-3.3520	16.0496	-11.2488
6600.0000	-8.7087	-41.6104	15.8192	-5.6300	-0.5342	-7.5370	-9.8035	-12.4449	-29.2749	1.4375	4.2216	-21.9189	-9.7833	-11.7903	7.5139	-21.2837
6608.0000	-14.5685	-61.3033	8.7334	-11.1110	-1.6288	-14.4169	-5.1983	-8.9892	-24.8177	-0.3126	-3.9316	-29.8119	-13.5132	-16.0217	-2.8126	-29.3725
6616.0000	9.7123	80.0640	-14.7580	2.8675	-16.0928	3.6290	-9.6777	-1.6075	22.5367	17.7919	14.9385	10.7577	5.7987	6.6516	-2.7334	12.2047
6624.0000	3.7072	75.7268	-14.0528	-0.5175	-2.8549	-6.8692	-8.9524	0.2580	20.0358	12.0103	7.8981	6.5184	1.3145	0.8621	-7.0205	4.0486
6632.0000	0.7856	59.3458	-10.3472	-1.8761	1.2124	-7.4250	-6.9306	-0.9697	17.3334	-0.7419	5.9495	1.3868	2.2048	3.9745	-3.0497	7.6006
6640.0000	5.8512	55.1147	-7.5283	3.3968	-8.4932	-0.3048	-10.4159	6.3341	20.0279	-3.3416	8.2813	6.0115	3.7578	11.4378	-7.1638	15.6289
6648.0000	2.7975	57.9232	-11.3458	4.2176	-6.4373	-0.2855	-11.2172	6.9528	21.6747	2.9115	8.5179	12.4341	4.1949	12.0893	-6.2528	16.6134
6656.0000	-9.8750	45.3522	-18.7721	-4.7397	-17.6590	-6.1461	-15.3304	-2.1766	15.1634	-0.1981	1.9174	4.9495	7.6116	3.1128	5.0254	10.4660
6664.0000	-10.4899	41.4350	-16.9122	-5.9783	-23.5779	-5.1086	-17.2680	-5.8852	13.4423	-5.0348	-3.7365	-3.4108	3.5594	0.8869	-4.6575	5.5505
6672.0000	-2.2666	43.5375	-8.4455	0.2589	-4.8049	-0.5499	-12.6647	-9.1901	22.6346	-1.4236	4.3327	1.4365	-2.0213	4.9308	-12.6729	6.8485
6680.0000	-1.1615	36.8681	-7.7526	-0.3326	-4.8213	-4.3974	-12.0725	-12.2834	25.7293	0.2984	9.6072	6.2512	0.9065	-0.5101	-4.4460	6.2244
6688.0000	-5.8307	30.7807	-13.9744	-3.7504	-14.6860	-4.6819	-13.6260	-12.0182	20.1093	-4.5943	1.7788	3.0657	3.2557	-3.1138	-5.3338	5.3818
6696.0000	-6.0371	31.1062	-11.8324	0.2973	0.4290	4.8731	-10.7177	-6.3608	19.8255	-4.3973	-1.2244	5.3275	3.7021	4.2704	-6.0036	13.1215
6704.0000	5.9362	36.1214	-3.0688	8.2297	20.4535	4.9792	4.0805	2.8943	23.9238	4.0385	5.8619	16.0321	7.4437	9.3018	2.1157	24.4527
6712.0000	10.8546	35.4548	-2.0095	8.5931	16.0325	1.5218	11.8962	0.4175	22.9451	4.4003	7.2135	18.0180	11.1965	9.5386	8.7143	28.4682
6720.0000	7.1148	34.5655	-2.4716	9.1742	0.6443	8.8888	4.2149	1.1036	22.6975	5.4118	3.1167	17.5619	9.9583	9.3782	4.0885	25.8577
6728.0000	11.7771	37.5848	0.1244	14.8523	4.3275	14.6375	9.7454	11.5103	25.9911	18.3389	8.8744	26.8162	7.8357	13.4412	0.5121	25.7750
6736.0000	8.0086	33.3431	-6.3676	10.2261	12.5401	12.3509	10.2193	4.5982	24.7044	19.9112	13.4642	28.0785	8.2577	15.6673	9.5927	22.3245
6744.0000	-3.6589	24.5392	-18.3395	-0.4319	3.9677	5.3542	-6.3964	-5.6153	19.1626	7.6976	5.3602	17.5699	6.3538	7.3459	5.6427	10.2371
6752.0000	-8.0255	14.3801	-22.8361	-5.0111	-5.0763	-1.2576	-12.4935	-8.2145	9.9662	-3.7794	-0.5597	10.1702	4.0596	-2.7671	-6.2843	2.1575
6760.0000	-5.0778	12.3559	-19.5720	-4.2434	-5.5678	-0.0160	-9.7561	-13.0534	3.8159	-7.9074	0.6160	11.9803	4.6917	-6.7466	-5.5535	0.7356
6768.0000	3.4596	21.1509	-10.8874	1.2553	-1.2838	5.6933	-0.4978	-4.1903	8.0172	-1.3163	4.8860	19.3435	5.8425	-5.6321	-1.1876	2.3004
6776.0000	1.7301	21.3938	-1.6783	5.3012	5.9452	11.1917	9.0454	5.6669	7.5003	2.7378	8.8147	19.9640	5.7492	-1.8565	4.3620	6.4474
6784.0000	-6.4614	13.5709	-0.1565	4.3094	9.1389	14.7783	15.2067	6.3745	-2.1357	2.9877	6.6513	14.5736	6.1734	1.6734	10.5758	9.1228
6792.0000	-9.2414	5.5355	-4.4569	1.0690	7.7541	9.8002	19.3580	11.8516	-6.7282	3.0138	1.2419	9.5315	7.6546	6.8094	15.1306	10.4609
6800.0000	-12.8104	-1.4765	-7.4235	-1.3142	6.7325	-1.2842	4.4331	3.5033	-6.3755	-3.6436	-6.3105	3.9125	2.8585	9.3244	6.1677	8.8710
6808.0000	-9.8999	2.5913	-3.6399	2.3005	7.9355	-1.5691	-8.2587	-3.7002	-4.4914	-6.3079	-8.5599	5.4995	-1.7938	5.6648	-7.2718	7.3921
6816.0000	-4.1423	13.0707	3.2339	7.5023	9.3435	5.7053	-3.9497	11.3009	3.6429	-3.3826	2.6958	12.3293	0.8947	8.0888	-2.8598	12.2298
6824.0000	-3.3847	11.6226	1.0685	6.8412	3.9467	1.8266	-0.1987	10.8675	10.5145	-4.1818	7.5867	11.5182	0.0446	14.9701	-4.3476	15.1221
6832.0000	0.3464	4.8660	-1.8796	4.2997	-5.0971	2.2177	6.3929	-2.2454	7.6245	-5.8043	0.7396	7.1154	0.3510	13.0122	-6.8901	12.8995
6840.0000	1.8089	9.8789	2.9483	6.0719	-3.3846	14.1870	5.0710	-4.2637	9.5664	-2.6386	2.7969	11.0311	3.0750	11.2725	2.9950	12.6872
6848.0000	-1.7761	11.8648	0.6115	8.0250	5.7183	12.2670	-2.6527	-6.6343	15.0846	4.9586	5.7512	17.6653	0.0803	12.7039	-0.2589	12.9234
6856.0000	-1.5647	8.4640	-4.4094	5.0256	6.7661	6.5155	-0.4172	-7.2783	8.9841	6.3500	-1.1683	15.7300	-0.6571	6.2175	-4.4506	6.4537
6864.0000	2.0424	15.2926	-1.6847	4.9053	2.1666	11.9255	3.6136	-6.7434	5.8692	7.2398	-2.7939	16.6493	-1.3211	4.5962	-2.9244	-0.0344
6872.0000	-0.0810	11.6031	-2.7981	6.3408	0.5037	8.5911	10.0353	-1.8171	6.2663	12.3398	-1.2863	20.5506	-2.2100	8.7462	-4.0548	1.9916
6880.0000	-8.4133	-0.7129	-6.4830	0.5825	1.0769	-3.3653	12.9549	10.7990	0.0185	4.8858	-5.3826	11.1296	0.0749	0.7647	-2.5866	-0.3138
6888.0000	-10.6307	-0.8931	-4.9273	-2.1838	3.7530	-6.1697	12.6956	5.8444	0.3818	-3.7273	-3.9057	4.1558	-1.6986	-2.0720	-4.5863	-2.8174
6896.0000	-3.7583	-2.3261	-1.9235	0.3260	8.5719	-3.0330	16.6851	-3.4975	4.0184	-2.7946	1.2856	7.6932	0.4861	3.2690	1.7216	4.1315
6904.0000	1.8393	-2.3244	-1.3838	-1.3631	10.2363	-6.8736	5.5247	0.7146	6.3302	-5.7064	1.2622	7.4557	3.9757	-4.4376	7.4146	0.9059
6912.0000	-1.1526	-3.8672	-6.6258	-4.8373	5.1239	-13.3692	-6.9587	-6.4207	5.9589	-10.3487	-0.5066	5.2266	-0.9286	-9.5517	-3.6192	-8.3451
6920.0000	-8.0792	-14.3039	-11.2848	-7.3678	0.8484	-7.9826	0.5808	-12.5832	-4.6403	-13.6689	-5.6461	0.7845	-2.0961	-7.2830	-7.1178	-9.4359
6928.0000	-10.0053	-9.3995	-6.3824	-4.0767	3.0235	3.7630	6.5600	-3.2548	-4.6502	-9.2511	-8.5004	1.7189	-0.4092	-5.7884	-3.5744	-6.1414
6936.0000	-8.0547	-0.9946	-1.4684	2.5953	1.5155	5.1423	5.6068	2.5672	5.4977	1.7630	-4.1698	10.7148	-0.6514	2.3501	-1.9487	1.9532
6944.0000	-7.1974	-7.4359	-4.4785	0.7217	-3.0396	-1.5670	2.4698	2.6547	2.3636	-0.3169	-5.4695	8.1225	1.4017	1.2301	-0.7075	3.4137
6952.0000	-3.9382	-8.5876	-4.9900	0.1079	2.2260	-2.9843	1.4041	-3.2941	0.8669	-4.5977	-7.1730	4.7177	0.3598	-4.9017	-8.0418	1.6072
6960.0000	1.7651	-3.8651	-0.9494	4.2588	8.9365	-2.6208	13.0881	-0.3663	8.0933	-0.3736	-2.2056	9.9239	-1.7341	2.0942	-10.7648	5.2310
6968.0000	-2.8906	-4.1053	-2.3586	-0.7498	5.9086	-8.7882	14.2294	10.6079	8.3008	-4.3138	-4.5984	6.2383	-1.0087	-0.5292	-4.4281	-1.8411
6976.0000	-9.6414	-7.2794	-5.5430	-6.3821	-3.5555	-11.2216	-1.7859	-4.6284	4.2121	-11.0827	-8.7470	0.6864	-1.7108	-13.3648	-4.9635	-11.2523
6984.0000	-2.0223	-7.4079	-4.7948	-5.1132	-15.1229	-6.7029	-3.0371	-11.6802	5.0263	-9.3402	-4.1104	1.9206	-1.2471	-14.6568	-7.2583	-12.2873
6992.0000	2.8127	-3.6033	-4.3992	-3.6341	-14.5820	-6.4076	3.0147	8.6653	8.3750	-5.3381	-0.7743	5.3150	0.8479	-11.0274	-4.4931	-11.7035
7000.0000	4.4695	0.5435	-0.6181	1.0426	-3.4838	-3.9667	0.4315	8.1387	8.4622	-1.6721	0.0941	11.6767	1.4351	-11.1077	-3.9234	-6.4130
7008.0000	16.8490	10.2996	10.1032	10.1084	-2.1678	10.7395	0.3249	8.6380	10.2353	5.3745	6.0338	20.0478	3.6133	-8.2245	-1.3238	0.7194
7016.0000	23.0329	12.7493	15.6932	16.1207	-2.2710	18.4546	2.8140	17.9364	15.0375	14.2836	13.6819	28.0762	6.5667	1.4666	7.4593	9.0683
7024.0000	17.4796	-1.1306	8.3528	11.6618	-2.2708	9.1907	1.6290	-3.2176	12.7514	13.2650	13.3821	24.5242	4.5331	3.0024	6.7745	9.3400
7032.0000	9.0148	-7.3590	-1.7366	1.8457	-8.7562	7.1314	-3.0250	-17.3315	3.8378	2.7734	5.4370	9.8245	-1.0580	-4.7116	-5.5086	-5.4318
7040.0000	1.2016	-8.5728	-7.1861	-2.4635	-4.0495	7.4855	2.1766	-6.9391	-4.5283	-2.2091	-0.7113	2.0377	-3.2538	-4.4898	-11.2034	-10.7542
7048.0000	-1.9339	-12.2689	-8.6491	-4.4087	-3.2984	-2.2850	10.1244	-1.3677	-9.8947	-4.8277	-4.8201	-0.8144	0.0513	-6.0088	-6.5023	-6.7867
7056.0000	1.1994	-5.1313	-4.4210	-3.1299	-12.8258	-0.9388	2.8643	4.8795	-13.2327	-8.3733	-7.3942	-1.4187	4.5129	-10.3503	-1.5719	-4.4614
7064.0000	12.5486	0.9608	-1.2820	2.7991	-4.9558	0.8362	5.2132	6.8101	-13.0747	-2.5192	-3.2138	5.8544	5.7367	-2.2480	-0.8250	3.6268
7072.0000	20.1908	2.1904	-0.1846	5.7344	2.0194	-3.4542	10.4412	4.5963	-6.8633	5.3711	3.3685	12.8569	2.8315	3.5627	-2.7621	3.8550
7080.0000	21.8031	7.3671	7.6548	9.4452	0.5503	6.1323	3.5166	9.2111	-0.9686	7.8506	8.1592	17.0329	0.2979	-0.3602	-5.0454	-1.4655
