Time	Fz	Fpz	C3	C4	T5	T4	O1	O2	F7	F8	F3	F4	T3	T6	P3	P4
0.0000	-25.1913	-30.3671	-33.8826	-72.9086	-10.4309	-43.6823	-49.3695	-62.3654	18.3837	-45.1497	115.7344	-46.7564	25.1241	-40.6130	120.1045	-33.8950
8.0000	3.1279	9.2649	8.1211	16.9835	-18.1206	-4.7458	-10.1506	-71.4362	12.9959	-7.8364	24.6552	-2.3759	-2.9664	-15.7559	-25.2344	-21.6801
16.0000	0.6539	10.2437	5.6565	22.2955	-12.2247	4.9581	-8.8032	20.4648	11.2639	-6.7520	20.7997	-4.6631	-0.9492	-13.4622	-23.4191	-4.5589
24.0000	1.5794	12.8793	3.2421	20.1275	-14.9815	-32.2894	-35.9819	9.5543	13.3326	-10.4997	14.8040	-10.7283	-8.7455	-11.4205	-34.1304	-4.4235
32.0000	6.7616	18.4730	7.2965	19.4019	-17.5544	-23.5543	-28.6071	-21.4623	16.7439	-1.1117	24.0155	-2.8885	-5.8384	-19.9579	-31.6016	-11.5546
40.0000	1.1428	14.3939	4.2645	14.2952	-3.5743	-5.9723	-3.4428	39.6190	17.5828	3.6012	25.0006	2.4578	0.8136	-3.8435	-25.9599	-3.2832
48.0000	-1.4349	11.0222	2.5949	3.1885	5.9619	-22.5965	15.9289	21.7053	16.6721	2.9967	20.8783	1.6500	-0.2700	4.0559	-21.1702	-1.0873
56.0000	7.0515	16.8444	8.9020	1.0405	-0.0764	-8.1108	22.2036	-18.6622	14.3636	5.4049	22.9840	9.2059	2.0035	-8.1306	-13.2863	-6.4113
64.0000	6.5650	17.0340	4.7268	-2.4710	-1.1158	-1.0256	-3.8735	7.9462	15.2343	3.9604	22.4752	13.3403	4.5201	-0.7510	-10.9679	-7.4007
72.0000	6.2306	17.5221	2.3380	-2.0339	-2.0955	-7.9514	-18.3227	18.4672	13.9460	4.3040	17.6005	10.5243	2.3904	1.7769	-11.6214	-4.8626
80.0000	10.6978	20.5360	7.5495	5.7007	-6.9727	-1.3764	-10.5217	20.9615	9.9260	2.5661	12.5929	7.9515	0.2133	-5.1956	-15.2076	-0.8216
88.0000	3.6591	16.2900	4.1950	2.4246	1.5105	-11.2485	7.3233	-0.6589	13.4565	0.4521	17.8024	5.7479	0.4883	-1.8357	-14.2594	-2.4784
96.0000	0.7060	16.3515	2.7150	3.0838	5.5787	-9.5781	23.5063	-28.7886	15.7579	2.2023	24.7258	5.0453	1.8469	-4.0300	-8.8581	-5.4676
104.0000	1.6582	17.8626	2.5205	6.9044	4.5292	0.0369	19.2852	5.8226	14.3137	3.9455	23.3809	5.9339	3.5777	-3.5759	-5.0402	-1.6036
112.0000	-9.6817	7.5693	-3.9693	-1.1958	10.2193	-4.8080	8.7283	28.6185	12.4577	4.5346	20.5473	2.6137	5.3617	0.4186	0.9468	2.6107
120.0000	-10.7530	5.2945	-3.1209	0.1386	-0.0369	1.7894	-14.9025	12.4522	5.6150	-2.5850	12.4369	-4.6480	2.3733	-2.5762	-2.4051	2.4967
128.0000	0.6846	18.2512	3.9521	10.3403	-8.0703	7.0289	-13.5291	19.5261	5.3850	1.3394	10.3229	-0.4597	1.0004	-2.5253	-4.9721	0.8026
136.0000	-0.0467	15.4898	3.8625	7.4099	0.7438	3.6015	9.9118	39.8994	7.3484	10.1455	12.1308	4.6352	3.7614	0.7293	0.4859	2.7543
144.0000	-6.7439	0.7142	-2.2103	-4.7038	-4.4964	-2.2186	-29.6547	18.7799	0.4091	-3.4248	1.0874	-5.0393	-0.1086	4.5525	-5.5658	1.8587
152.0000	-2.4429	7.3567	-0.4252	-8.4464	-7.4077	-0.7767	-32.7997	-25.0108	0.6487	-2.1031	2.5311	-2.0704	-0.5002	2.5911	-3.4911	-3.1185
160.0000	6.1924	17.3750	5.8414	-5.2735	12.1903	12.9082	52.6079	15.1237	4.4689	12.1756	11.5424	10.3387	6.8831	3.8887	14.5507	7.0260
168.0000	4.4528	9.1031	0.7493	-8.2188	21.8454	10.6014	63.3928	76.8824	-0.4820	5.4835	1.4546	6.1940	7.0556	14.6463	22.5125	19.4474
176.0000	5.1604	9.1733	-3.2774	-6.8502	10.8159	7.0500	12.7703	23.0421	-3.9117	2.9438	-8.1696	4.3778	1.9245	8.9240	17.3845	12.1631
184.0000	12.3424	15.6396	-0.1104	-3.2788	4.6753	7.8143	0.6802	-45.5741	-3.1250	4.4579	-11.9393	11.9670	-1.1963	0.6129	9.5667	2.7486
192.0000	6.3231	8.0264	-4.1218	-4.1912	6.4405	6.8130	-14.4491	-17.9721	-4.4436	2.9391	-17.7407	13.2105	-0.2316	4.9531	10.2111	3.8428
200.0000	1.7633	3.8909	-5.9961	6.9270	-0.8360	20.1640	-33.7981	10.3732	-10.5909	3.0802	-24.5470	4.0536	-1.7012	1.8259	9.0333	8.8452
208.0000	6.3236	7.6620	0.0361	15.6966	-9.3251	4.6556	-22.1215	-39.6021	-14.5284	-2.9278	-30.3214	-6.0900	-9.2488	-1.7360	3.5001	5.2379
216.0000	4.2840	7.2500	2.6446	17.6279	-7.9551	-10.4902	-3.6544	-34.8934	-11.2009	2.0457	-24.5114	-4.5963	-7.9713	-1.8879	9.7117	0.4768
224.0000	0.8768	4.1099	2.4779	21.9305	-7.6772	15.1601	-1.9397	32.5401	-13.7679	5.1330	-23.2789	-8.3026	-4.3357	0.2523	7.2106	10.7777
232.0000	-5.6882	-4.3026	2.3415	11.8548	-9.6090	7.8390	-7.8872	-12.5660	-19.0426	-2.3379	-31.2238	-17.3427	-8.4969	5.6780	-2.0103	9.6630
240.0000	-8.4096	-9.2722	1.9281	6.7219	-6.3079	-10.0088	-4.3989	-31.8370	-14.5353	3.2019	-27.2880	-9.6233	-6.8576	2.8572	2.4164	0.7798
248.0000	0.8836	-5.5098	0.7918	9.0830	-2.4175	-5.2614	-6.6504	26.6309	-11.6050	2.8097	-25.3489	-3.4051	-5.2523	-1.9440	2.2121	9.2873
256.0000	6.0824	-4.1945	0.4803	-0.5215	-1.1689	-9.2606	-9.0107	-8.6011	-12.6518	-1.6182	-27.5489	-0.7210	-6.3653	-3.9668	4.4078	8.1872
264.0000	10.3256	-1.5026	2.8086	1.7667	1.1145	6.4762	8.0959	0.6402	-12.3324	0.4035	-26.7229	9.0605	-1.8697	1.4488	12.9223	4.5828
272.0000	12.3348	-0.7790	1.6182	5.6691	-1.3752	18.3540	-7.7918	25.1323	-16.0051	-6.7366	-36.2716	8.0847	-3.3436	9.1969	6.4584	9.0098
280.0000	8.6016	-2.7837	0.3623	0.5503	-7.1927	8.0305	-31.4498	-41.6297	-18.3450	-6.5887	-40.7665	4.2746	-7.4260	2.9872	2.1539	2.8761
288.0000	10.2392	1.6962	2.8669	5.2856	0.6567	10.6790	7.9671	-13.3963	-16.6699	-1.6352	-35.6053	4.6957	-5.0747	4.4723	9.6009	9.0578
296.0000	8.3948	-0.5968	0.0432	5.6222	7.1854	9.4951	15.8233	31.5279	-15.8768	-0.9917	-36.2820	3.5208	-4.0666	12.2818	10.5577	15.4943
304.0000	7.5426	-4.5698	-2.3039	4.8212	-1.2243	9.7402	-22.0551	6.9773	-14.0315	1.2857	-34.4775	7.2825	-4.0768	5.6666	5.7874	5.1850
312.0000	10.7859	-4.0667	1.6508	10.7599	-0.6487	16.2163	3.5831	9.0202	-15.2436	-8.0090	-33.2166	6.3221	-3.7674	1.3479	7.8353	6.9893
320.0000	5.9262	-8.5978	1.8794	14.9551	-1.1302	9.1827	10.7870	5.0545	-17.6834	-13.6429	-37.5313	3.2934	-4.6323	2.9615	12.5559	4.7983
328.0000	6.1523	-0.9984	-1.0837	23.7389	-12.1588	3.5830	-42.0509	9.2128	-12.7163	-8.4342	-37.1704	5.7386	-6.9289	6.4971	1.4776	-3.6604
336.0000	10.9524	7.7149	1.2682	29.6536	-5.2165	11.9083	-10.5409	7.2961	-10.2156	-7.5412	-33.8854	1.8102	-9.3590	8.4855	-11.4577	5.6745
344.0000	8.9728	0.3738	3.3064	26.1430	7.4171	24.0306	49.0808	-14.8929	-13.7210	-1.4642	-32.2656	-1.8358	-7.6870	6.4388	-6.1279	12.4103
352.0000	2.2401	-5.4734	-4.9631	12.0019	7.6249	10.9596	8.9906	-41.8916	-10.9147	6.1022	-29.4966	-0.1120	-7.0387	5.8573	-3.6263	5.9579
360.0000	-5.6877	-14.9693	-9.0250	-3.3765	7.7912	-6.2896	-12.5357	-71.3409	-9.0303	6.3566	-24.8341	-1.4627	-6.6946	-0.4505	-3.0354	0.9994
368.0000	-5.1164	-22.9569	-2.2919	-4.2271	5.2652	4.0574	17.6787	-10.4104	-16.6072	-2.4358	-26.6495	-7.7335	-3.5078	2.7630	7.0461	7.6444
376.0000	-2.7464	-20.2495	-3.1943	-6.5124	2.3685	3.8601	5.6020	21.8189	-21.0279	-13.3896	-33.5834	-13.4955	-5.0029	13.5914	9.8707	13.4522
384.0000	-0.0668	-19.9108	-5.7754	-3.9583	-0.2643	0.1386	-5.7357	-30.7443	-21.1087	-11.6588	-35.5620	-13.3912	-7.9498	9.4170	9.9459	6.3906
392.0000	6.9018	-17.1350	-8.7611	6.7003	-7.6930	5.5353	-34.9523	-32.0772	-19.1163	-7.4439	-35.4974	-13.0108	-10.5348	7.4155	2.1868	1.4817
400.0000	4.7454	-16.9957	-16.4232	4.0123	-1.6081	1.2895	-60.3310	-59.7220	-9.4234	-0.9944	-28.7228	-6.3247	-11.3235	4.9699	-14.0830	-2.4686
408.0000	4.0342	-18.2146	-9.2893	6.4456	9.4838	1.5101	6.9022	-59.3512	-7.3175	3.9751	-22.7882	1.2942	-6.5690	3.8983	-3.0357	-3.4195
416.0000	8.6949	-8.8812	-1.9377	8.8443	2.4395	-7.0332	17.4307	-29.5364	-12.9915	0.3609	-29.1519	-1.4762	-6.9393	11.0735	11.4311	-1.3164
424.0000	10.4134	-3.3800	-4.1951	3.0131	-3.0802	-6.1619	-23.8419	-91.9547	-7.6162	11.7696	-24.1666	9.8219	-6.3629	-0.9723	6.1375	-12.6533
432.0000	15.8450	-2.1901	-1.8352	6.0439	1.0926	11.9597	-3.0551	-77.1139	-4.5689	20.4533	-16.3367	20.1856	-1.1172	-10.3700	11.0392	-12.4088
440.0000	13.2736	-3.7075	-5.1053	-2.4784	3.1773	4.8719	-18.4362	-8.3879	-7.9983	13.8552	-21.8643	9.9069	-2.7772	-0.7186	7.6861	3.0395
448.0000	5.7789	-11.4531	-3.9703	-14.1266	8.0921	7.6685	-4.0525	-7.7939	-8.0648	13.5479	-18.3786	7.1450	-0.8245	3.3150	1.0889	5.8612
456.0000	4.4488	-15.5514	-1.1948	-16.1303	5.9286	12.8314	16.6784	-45.4503	-11.5624	6.8443	-15.2221	4.9964	1.1364	-1.1726	14.3252	-0.2990
464.0000	4.7041	-15.3016	-9.7472	-19.7157	-2.9001	1.9945	-48.1721	-89.3307	-8.6183	5.6524	-14.3913	5.5942	-1.9508	-9.5020	11.0641	-9.7797
472.0000	8.7272	-10.4578	-7.1967	-11.2451	6.1618	22.9687	-12.4427	-11.2449	-1.8513	14.9794	-3.9210	13.2562	4.1366	1.6870	6.9572	-4.0540
480.0000	2.3724	-11.3048	-6.7382	-7.6303	19.7341	25.1574	42.1899	46.4500	-5.5223	13.2412	-7.1682	4.7829	5.7997	17.9145	17.5367	10.4068
488.0000	-4.4464	-17.9584	-9.7442	-10.7852	14.8843	2.1773	6.2638	-8.1879	-7.8999	12.9595	-18.1227	3.0763	0.0938	7.7559	10.5112	5.2720
496.0000	3.8183	-14.8846	1.3099	-4.6819	3.6566	12.4611	15.8072	6.4663	-10.5779	8.5436	-18.1934	7.1416	1.4060	1.9490	9.3249	1.3108
504.0000	1.7807	-16.1140	-0.6841	-6.8584	4.0432	13.0907	20.0174	3.3032	-12.7320	4.5402	-16.0440	1.4603	2.0553	1.8392	19.3771	2.6722
512.0000	-2.2194	-19.3810	-6.2369	-1.4971	8.9202	1.9812	14.8432	-21.7821	-10.1424	9.4878	-17.9018	2.1721	-0.3021	-3.4729	17.8577	0.6394
520.0000	-0.0857	-17.1293	-1.3483	8.4690	-3.3572	10.0540	6.8069	-25.2238	-16.0317	4.8298	-23.8755	-4.8455	-3.1593	-4.7523	14.8693	-0.7453
528.0000	-6.0363	-22.5165	-3.0105	1.8882	-8.4327	11.1215	-16.1601	-30.2069	-16.0066	11.4083	-20.5295	-8.2629	-2.3803	-3.3452	10.5135	-4.7372
536.0000	-9.0393	-23.9255	-3.0714	-1.5090	10.3552	0.6472	30.8735	43.3287	-8.0254	19.7991	-12.3403	-3.1368	1.8856	10.1859	9.0868	4.4414
544.0000	-10.9779	-21.8599	-3.9640	0.8183	10.1587	-0.0180	31.4156	35.3232	-9.6618	11.5918	-13.6857	-9.5021	-0.1630	8.4636	8.6670	8.4623
552.0000	-11.7670	-24.5450	-6.6301	6.7809	1.7060	12.5514	-3.2756	-13.6955	-9.1963	16.2468	-14.1909	-4.3315	-0.4350	-2.9983	3.7123	-2.6714
560.0000	-10.7279	-23.3606	-4.7972	7.2832	5.8916	10.0768	12.2449	8.5613	-7.6750	21.0978	-15.4339	-0.1189	0.6777	6.9087	2.9855	-2.4692
568.0000	-15.8338	-21.3659	-0.9181	3.0693	0.6527	-1.8661	4.6692	0.3942	-7.0931	26.5760	-11.9889	-3.9434	-0.1508	1.0021	-1.0496	-2.8275
576.0000	-20.8799	-22.8191	5.1379	10.6991	4.5594	2.2585	38.3624	98.0714	-4.9924	31.0815	-4.6108	-3.9059	5.2432	0.4646	1.3826	6.8813
584.0000	-36.1313	-32.4710	-3.3040	-0.8031	2.3623	-1.6729	8.2431	101.5375	-10.7543	3.0207	-8.4172	-24.6317	2.5652	14.1539	-0.4281	12.6851
592.0000	-48.6105	-37.3934	-9.9923	-19.1064	-16.7622	-9.6541	-83.2766	-38.1518	-4.5776	-12.5100	5.4326	-30.9263	-1.0861	-1.4599	-23.6382	-9.9113
600.0000	-44.3925	-24.9143	0.8416	-17.0787	-1.8473	-6.5917	-8.6719	54.9335	11.4327	-6.3272	34.4667	-16.0148	9.8282	-1.5593	-22.2005	-3.6424
608.0000	-48.2762	-12.6550	1.4391	-24.6443	14.3453	-11.5423	46.4110	84.0129	16.7271	-17.5303	49.8989	-19.1439	15.0202	6.0529	-4.2310	8.2004
616.0000	-48.6234	-2.4445	2.6424	-28.8112	7.4347	-21.3465	26.2535	-0.9362	26.8142	-20.1641	68.8547	-10.6120	17.1001	-12.0114	-1.3669	-9.0742
624.0000	-45.5160	2.9289	5.4201	-30.6869	13.7532	-24.1063	48.7871	54.3921	34.2127	-18.1740	82.2200	-1.2960	23.3943	-13.0721	7.6621	-7.0558
632.0000	-48.4984	3.6492	-1.1913	-37.8720	8.6877	-21.4855	5.3521	10.5845	32.5607	-25.3277	79.7273	-4.6596	21.4329	-14.8803	6.6698	-9.9488
640.0000	-32.2443	16.0491	6.4309	-21.0574	-1.6526	-27.7724	-5.3403	17.4749	36.0871	-25.9633	76.0771	6.7624	18.2371	-22.8296	-2.3174	-16.6739
648.0000	-18.2884	23.3027	10.0734	-15.6857	8.5410	-30.2760	34.3324	110.0279	34.9491	-28.8482	68.8360	10.6875	18.3597	-11.3169	3.1301	-0.9577
656.0000	-14.7269	22.7294	1.3288	-27.9987	10.5358	-18.0424	5.4994	31.7767	34.9149	-23.4548	68.0739	13.0445	16.9856	-10.2297	0.3012	-6.5198
664.0000	4.7259	31.7447	6.0672	-16.4618	0.3350	-21.9118	-9.4408	17.0153	38.0693	-11.0117	66.0283	22.2454	12.9473	-14.2090	-9.8530	-16.4245
672.0000	15.7627	36.3142	10.2563	-5.1443	-5.8260	-19.8525	-7.6173	50.7446	31.5277	-8.9316	52.1770	16.8056	7.5360	-6.9456	-16.2745	-9.7767
680.0000	9.2307	27.1907	5.0780	-8.3666	-5.0448	-13.5879	-23.3800	-3.9183	27.3856	-5.5208	43.5056	12.5307	4.2671	-6.8287	-25.2587	-11.6603
688.0000	10.1084	19.8786	6.2555	-3.2554	-14.3998	-30.4207	-49.7840	8.9623	24.2609	-9.5849	33.6875	6.4261	-1.7715	-11.2200	-38.6234	-12.1579
696.0000	16.5184	24.5586	12.2474	9.7986	-23.4303	-19.3674	-39.0850	18.8753	18.5284	-16.6393	27.3118	-3.3176	-5.8985	-4.5131	-46.0430	-9.7061
704.0000	13.4318	22.8173	8.0737	9.6502	-2.3457	-10.9084	25.9181	-26.5010	18.2261	-5.3823	27.1939	-1.6397	-3.8619	6.1541	-31.6262	-7.5179
712.0000	12.1877	17.0382	4.7742	5.3622	-1.0272	-30.8196	11.6153	-20.9240	14.3738	3.7662	17.2436	-0.6683	-5.5743	0.1013	-20.7224	-5.4479
720.0000	22.6011	24.4683	15.9019	16.3538	-21.0614	-19.8337	-7.4617	31.0642	7.2122	1.1878	9.8176	-1.8101	-6.4758	-5.2338	-21.6930	-4.0204
728.0000	18.6846	18.7301	15.6035	12.3452	-8.7388	-13.3497	35.3655	44.4577	-0.2481	-2.4835	0.4013	-6.3267	-5.6064	1.8098	-10.3678	7.9966
736.0000	8.1943	7.8194	6.5949	0.3292	-7.9282	-14.3132	0.8399	-3.2985	-7.7491	-5.8909	-11.7172	-12.6684	-8.1072	-1.6752	-6.6547	9.9793
744.0000	15.5507	13.4069	8.1783	13.4635	-21.1551	-1.5212	-25.0002	-12.9091	-6.9387	-6.0713	-10.0353	-10.8657	-9.1246	-4.8819	-11.4212	0.6732
752.0000	19.7902	12.2822	9.1350	23.3283	-11.8625	-10.4705	11.0850	33.9709	-5.7273	-5.4756	-13.0140	-9.0177	-9.6172	-1.7929	-8.1194	7.1390
760.0000	11.7365	7.2212	9.8437	16.7876	-9.2038	-3.6305	14.6393	44.8243	-10.8315	-6.6878	-20.8774	-10.2023	-8.2263	4.5045	-7.9350	12.2784
768.0000	1.1609	2.1344	6.5439	7.2287	-10.4731	7.2920	5.7126	0.9019	-15.6098	-7.5814	-24.1851	-17.3740	-7.8355	19.5236	-7.0828	7.6038
776.0000	0.4355	-0.6265	4.7515	4.6399	-7.1531	-10.2794	7.8238	9.1996	-15.6033	-3.6845	-26.5110	-20.3737	-9.9485	19.8276	-5.5442	10.4468
784.0000	4.0986	-0.4047	7.5910	8.4975	-7.7309	-7.0696	11.3543	64.5775	-14.0089	-1.3432	-22.7570	-15.5035	-6.9314	11.2481	-2.9225	14.9180
792.0000	-2.9257	-9.9222	-1.4590	6.4137	-10.9895	5.5179	-21.1370	17.0803	-17.6973	-10.7917	-25.3743	-22.4211	-8.1812	8.5314	-2.4891	10.4449
800.0000	5.4160	4.2469	2.4027	13.1365	-16.9352	8.7462	-29.6680	-18.2437	-14.9364	-9.9539	-24.8012	-17.4582	-10.5818	5.8143	-10.3552	5.8408
808.0000	14.2109	21.4182	9.6888	16.4117	-4.2527	8.2656	25.1292	23.2906	-6.4203	3.4422	-14.8022	-1.6259	-4.7993	11.7430	-1.5016	9.7559
816.0000	2.8773	5.2414	-1.6588	10.5705	4.1992	5.9104	11.6870	1.3980	-11.0948	1.1030	-24.1123	-5.8987	-5.6828	9.3933	5.5530	12.5983
824.0000	8.6486	7.2813	5.0167	22.3679	-6.6457	17.6893	-0.6874	24.0976	-15.0276	-2.5680	-33.3986	-3.5835	-7.6548	5.9009	-5.9537	12.8523
832.0000	8.6743	11.8285	9.3699	18.5512	0.4726	10.8615	32.2003	74.0381	-10.3267	3.5886	-25.0946	2.0291	-2.6770	15.8887	1.8642	14.9178
840.0000	-4.0364	0.1007	-0.5327	5.6839	-1.3262	-3.9924	-9.8612	44.9276	-11.2580	2.1430	-22.7507	-7.4136	-3.8462	7.3095	5.8717	13.1995
848.0000	4.9017	8.0026	6.8549	15.0032	-12.0310	7.5346	-15.7332	44.2742	-12.6939	-0.9387	-25.1322	-7.2650	-6.4083	3.4665	-7.1675	12.6082
856.0000	9.2722	11.0103	8.3888	12.3211	0.7005	12.3975	31.6548	46.0066	-10.7943	0.1514	-23.8917	-1.8078	-4.0804	19.1573	-2.6281	14.0920
864.0000	9.2454	11.8198	4.9123	6.7569	1.3415	9.3040	16.0665	30.3154	-9.2411	0.7858	-21.8340	-1.7660	-4.5644	16.6868	-3.2997	13.8403
872.0000	12.0548	16.0960	5.8730	3.5375	-4.1121	2.1092	-7.2180	-11.6012	-7.6234	3.2394	-21.2921	0.4663	-7.2689	4.6796	-11.0595	10.5210
880.0000	10.1290	10.7913	4.0020	-8.3020	-2.9289	2.2412	-11.6646	-75.2658	-6.8046	5.6733	-17.3054	7.9105	-4.4627	-2.8434	-1.9610	-0.0699
888.0000	21.4786	23.1582	14.8643	-5.3421	-10.0055	19.0899	5.1819	-15.3678	-3.9566	7.4078	-6.4632	17.1625	2.0298	0.3168	3.8490	-1.6440
896.0000	19.3833	23.1823	14.9574	-11.1789	-0.7744	5.5399	24.5167	53.1540	1.2515	7.7828	0.6024	18.2611	5.0866	8.7711	5.6379	5.8584
904.0000	4.1063	4.7364	2.6669	-24.0598	4.5306	-7.3619	-8.7441	19.8627	3.0907	2.1320	1.7577	15.8674	5.4185	4.9275	5.7314	0.4852
912.0000	10.0553	10.2030	6.0026	-14.4138	-8.9536	8.4989	-29.3620	-25.4857	0.5737	-0.8036	-1.6601	14.2953	2.0528	3.5788	-5.1748	-7.9452
920.0000	16.8664	14.1632	8.9464	-5.8055	-4.0485	4.2470	2.2843	-57.7833	3.1314	7.1432	-0.7495	18.4642	0.0235	-2.5900	-6.8300	-9.9497
928.0000	18.8551	14.1445	10.6829	-3.1339	-0.4465	2.5248	12.5400	-5.3346	8.7038	10.0588	7.3516	27.5067	4.6503	-8.7826	-2.7316	-8.8518
936.0000	17.8118	16.3434	10.9242	-2.5398	-8.1998	14.3365	-12.1334	35.0610	4.9066	4.4310	2.8331	20.6039	3.9475	2.3007	-9.9175	-4.0605
944.0000	10.3427	5.1596	5.4942	-2.6653	2.4540	3.7449	11.3044	-10.6169	3.2563	3.1143	-1.2543	13.5587	0.4997	-0.5492	-10.0073	-2.2145
952.0000	12.3130	5.5842	8.3023	4.8677	5.1411	-10.4120	35.0726	-6.4851	5.7208	-1.2535	0.3977	15.5948	-0.1818	-5.3576	-6.1995	-3.8133
960.0000	12.0514	10.6354	7.2467	4.5189	-15.9317	1.1067	-37.3613	-25.7551	1.0281	-2.0844	-5.5350	8.8493	-3.6651	-3.5653	-17.7656	-9.4803
968.0000	5.1157	3.7459	3.5540	1.1144	-16.0332	15.0788	-48.2328	-53.8316	3.0359	6.4240	3.8722	6.8769	-1.4411	-14.5059	-22.4633	-11.9007
976.0000	1.3251	0.7546	5.8952	3.0266	4.6444	-1.4778	38.4354	-0.1451	6.1259	2.2706	13.0487	2.1628	1.7871	-9.7603	-6.1784	0.2836
984.0000	-1.9562	0.3648	4.8177	2.2103	5.3208	-10.5443	42.5474	5.9686	-0.5422	-2.2175	3.4309	-6.4701	-0.7357	-5.2376	3.7925	6.7749
992.0000	-2.9522	-0.8945	3.6589	-0.5029	-1.8492	0.9496	5.1295	-26.9418	0.1825	2.0425	3.6713	1.5381	0.7458	-16.6522	-1.0708	-0.7286
1000.0000	-6.0411	-3.3014	0.5897	-5.3114	0.5006	-6.3831	-4.5302	-13.6610	3.2182	-0.1710	6.3958	3.5224	2.1065	-11.9899	-0.3531	-2.5394
1008.0000	-0.1392	3.1725	3.6423	1.6426	-0.7008	-5.1236	10.8368	35.3354	0.7300	4.9452	3.9551	0.2983	2.0664	-2.9279	6.7657	2.9776
1016.0000	11.3632	11.7367	10.3164	12.8304	-0.2600	4.8852	44.3263	57.2132	0.6171	5.8561	3.7500	4.1771	2.4162	0.2137	8.2651	4.9842
1024.0000	2.3079	-0.9512	-1.1806	8.8325	1.4906	-3.4996	6.6012	-1.6429	0.6327	-5.9191	-1.4101	2.5987	-0.5309	-6.3774	5.6337	-1.6626
1032.0000	-3.5491	-6.7173	-7.0350	11.2655	-0.9928	-8.4191	-30.0647	-48.3532	1.6717	-2.7424	-5.7504	6.4601	-2.6659	-20.3243	0.4155	-8.1348
1040.0000	3.6219	-0.7623	2.2467	19.2762	-2.5483	-9.4530	1.7333	-37.8392	-0.7709	-2.9842	-12.1505	7.5477	-4.7643	-14.1848	-4.1941	-6.5950
1048.0000	-1.1728	-7.8272	0.5053	13.8730	-5.3845	-3.9875	-7.3205	-24.2432	-5.9166	-8.9707	-16.3850	0.1292	-4.5526	-4.0154	-2.4752	-5.5742
1056.0000	-6.0809	-8.1925	-2.8629	6.7418	-0.7377	-2.9790	-14.4328	-11.7480	-3.1485	3.8317	-11.5842	2.0308	-1.8633	-2.3436	-1.6103	-3.2170
1064.0000	-3.2279	-5.1217	5.1705	9.5641	1.2297	-8.8785	21.8378	21.9689	-6.0290	3.4700	-15.6140	-1.2829	-3.0473	1.6718	-2.9679	4.9512
1072.0000	-1.4752	-5.8050	10.5288	13.6198	-11.8299	4.3006	8.3519	32.4898	-12.5447	-11.5570	-20.0531	-6.3263	-3.5510	-2.5838	-4.0160	4.7675
1080.0000	-1.3812	0.2599	2.4762	7.7000	-12.2689	2.0476	-34.2361	-31.2114	-5.2803	-7.5050	-13.8862	-0.0534	-4.5287	-5.9363	-10.6845	-4.4074
1088.0000	-2.4917	-0.6322	-1.8157	10.1265	-10.9336	2.5326	-40.9607	-23.1693	-3.7290	-1.4221	-12.4588	-5.1387	-6.0108	2.2381	-16.2500	-3.7579
1096.0000	-1.9826	-0.5457	5.6461	19.8281	-21.1021	23.5305	-27.9060	24.6298	-11.2606	-2.7973	-14.6561	-14.7452	-4.9677	6.2938	-14.8882	1.0617
1104.0000	-5.3122	1.4144	4.6031	12.8826	-9.1323	1.6886	-2.5016	-26.5285	-6.7169	0.6441	-11.9688	-8.1073	-4.8977	0.5729	-7.2337	-1.2133
1112.0000	-10.4829	-7.1911	0.4343	6.0911	7.9804	-13.4541	32.1973	-8.0764	-3.9723	-1.3835	-10.1170	-2.8729	-1.4662	1.5316	7.0658	2.5420
1120.0000	-9.4137	-8.3451	-1.7633	1.7940	1.9035	3.9897	9.1555	-28.7457	-7.9490	-5.3042	-12.4201	-3.3578	-0.4347	3.5548	10.2315	-1.1502
1128.0000	-6.5502	-6.4775	-5.9334	4.1790	-6.5363	-2.8601	-39.8542	-112.6936	-1.8655	0.2351	-9.9968	4.5843	-3.9939	-10.1087	-2.5710	-17.4521
1136.0000	-4.8388	-11.0008	-0.0656	24.4111	-7.2311	-1.0024	-13.9212	13.7624	-0.6317	-2.5316	-9.7536	1.6444	-2.8891	-4.1950	-11.1768	-8.6368
1144.0000	-10.8761	-13.3449	1.4132	21.3654	-6.5193	6.1762	3.7779	61.9031	-9.3687	-15.4279	-17.0996	-16.0541	-4.4156	13.5800	-11.5518	5.6621
1152.0000	-16.2138	-16.8483	-1.7115	9.5466	-12.2787	-4.0734	-27.3051	-28.0960	-7.8041	-18.2620	-11.1379	-16.8104	-5.6772	-2.2695	-11.4629	-5.4030
1160.0000	-9.2953	-16.2162	2.4458	18.7435	-16.8402	-5.1603	-25.1402	9.4679	-2.6445	-15.0447	-3.0773	-9.8553	-3.5348	-10.5532	-13.3466	-10.0470
1168.0000	-7.5026	-12.4434	-3.3391	14.1147	-6.5285	-4.1745	-17.5769	-18.1371	-3.3502	-11.3431	-8.7534	-10.2080	-5.6813	-1.7027	-12.2788	-4.8103
1176.0000	-6.0610	-10.3784	-4.6064	11.9007	-1.6545	3.8173	-10.2797	-58.9338	-3.3709	-6.6914	-9.5919	-3.1915	-4.3785	-8.1779	-6.6319	-6.2570
1184.0000	1.7974	-3.6993	2.2590	20.4575	-3.2353	6.7331	9.7179	-9.7662	-2.2135	-5.8798	-9.0206	5.1577	-1.4213	-5.0392	-0.1849	-6.7342
1192.0000	1.2569	-0.6058	-4.6041	12.7387	7.4107	1.8441	6.1994	-16.2010	-0.9303	-1.4146	-13.3730	11.9935	-0.2009	3.4796	9.7708	-4.5849
1200.0000	4.8690	-2.5659	-9.5511	7.3586	10.3852	20.9575	-10.2413	-38.9503	-3.8470	1.5233	-19.6151	18.9990	1.0479	-0.0769	12.3339	-3.3619
1208.0000	11.5447	-3.7254	-11.0045	0.9705	7.6151	21.6620	-30.5601	-89.4682	-5.9265	0.3229	-26.8338	22.7672	-2.1195	-2.2856	6.0449	-8.0283
1216.0000	10.3893	-4.0922	-14.7615	-10.1358	18.8926	4.4426	-26.4595	-94.1763	1.4863	9.7480	-21.0505	33.8778	0.6331	-2.0048	10.3903	-10.3793
1224.0000	16.0002	2.2668	-8.8702	-6.4292	20.1880	13.2073	2.2501	-30.0275	3.3837	12.3067	-12.5685	34.4964	4.4500	0.4240	14.2648	-3.5130
1232.0000	19.8464	8.8852	-2.3092	-1.1950	7.6893	10.0798	5.9922	-32.9929	-1.7707	3.5793	-12.1713	17.7977	-0.4301	0.9040	10.9457	-0.6284
1240.0000	11.5913	6.1931	-5.0934	3.4040	4.5969	1.6297	-10.6819	-12.6780	0.9253	6.6713	-7.1607	12.3400	-0.4625	-0.4698	9.0726	-1.9659
1248.0000	2.5129	0.2720	-10.9689	15.6811	3.7578	14.0742	-25.8640	10.4671	2.7336	8.6912	-4.3816	6.1064	-0.3291	1.6179	0.3292	-1.6449
1256.0000	-3.8462	0.5657	-9.5637	24.5638	4.3939	17.4901	0.5648	-2.4891	-0.9529	2.8566	-4.9890	-7.7026	-2.9992	3.7164	-0.2660	3.2762
1264.0000	-6.8217	5.7224	-10.3324	21.8229	14.1688	18.0549	31.3851	-16.5646	3.1199	5.2203	5.2750	-4.9634	0.8725	1.7840	12.3601	4.5160
1272.0000	-8.3104	6.8406	-18.5834	14.1651	18.7064	22.3106	12.7080	-64.4162	12.1852	14.8417	21.7584	4.8734	5.8295	-7.3524	21.2004	-6.1613
1280.0000	-8.8791	7.8542	-13.5137	11.2634	13.7503	14.5221	18.2880	-36.4674	11.1694	20.1996	25.7233	4.9854	8.7147	-8.6303	32.9695	-7.8595
1288.0000	-8.1549	7.3594	-9.5860	3.4321	9.1457	4.5409	14.4608	-36.2997	6.9094	13.4368	19.4593	2.6023	7.2714	-3.8439	34.2196	-7.8681
1296.0000	-6.8693	0.0741	-16.2952	-6.2926	12.0708	5.0065	-12.4257	-49.4044	10.5550	4.5223	20.5870	4.8643	6.0822	-1.9241	19.8485	-9.6267
1304.0000	-0.2679	-1.0943	-13.2232	-8.8093	20.2251	13.5851	14.8898	63.2071	9.0272	-2.0717	17.5431	5.0134	8.6681	11.5377	16.6601	7.6085
1312.0000	6.9356	3.3045	-11.0122	-12.5532	15.7335	11.2777	10.4588	19.8192	6.0419	-8.5846	13.6613	3.7485	5.4358	7.4954	16.4048	5.9383
1320.0000	8.8064	3.4473	-9.0776	-9.6112	-0.1691	-2.5014	-30.2340	-47.9587	9.6323	-7.2133	18.8740	5.3233	1.9239	-9.4334	6.9768	-11.1639
1328.0000	7.0582	0.9316	-2.9061	-7.0308	-5.2587	-3.1084	-27.0574	24.2940	3.4523	-7.9063	7.7950	-3.1230	-0.3112	5.7914	-4.7134	-1.8183
1336.0000	6.8938	2.2214	-0.5638	-10.0637	3.5772	7.9438	14.7066	2.4814	-0.0302	-4.8175	4.5928	-8.9346	-1.6561	15.8865	-9.4087	5.8476
1344.0000	9.1641	7.1079	3.0917	-7.1425	9.5570	13.5696	50.2613	16.5717	6.7753	6.6082	20.5153	-3.8225	3.0749	9.1028	-5.3404	6.2565
1352.0000	3.0210	1.5605	-1.9743	-14.5806	-1.5735	9.4398	-9.9876	-14.4226	4.7826	1.7678	15.9162	-9.2336	-0.2402	8.3494	-16.4485	0.2672
1360.0000	-1.5937	-4.2934	-3.7824	-13.8989	-9.3376	6.7493	-38.1648	-88.7295	5.5090	-0.4509	15.1791	-9.6753	-3.3184	1.1187	-27.3821	-12.8451
1368.0000	-0.6882	-1.4298	3.1028	2.5356	5.6419	7.1920	41.2891	37.0914	8.2014	4.1569	20.9063	-8.0545	2.1724	6.1086	-15.0565	3.5621
1376.0000	-10.4375	-5.1574	-3.1822	-4.0895	7.7554	-5.2100	24.3837	24.4898	3.7993	-5.6069	13.8516	-20.4215	-1.6275	8.2018	-13.7106	10.8739
1384.0000	-11.7098	-2.6938	0.1966	-8.6330	-11.2246	-12.8369	-21.8329	-72.5163	7.5965	-3.0726	25.1087	-17.6095	-2.4846	-13.2140	-18.5697	-10.0960
1392.0000	-2.4282	4.6086	7.0853	0.1935	-13.1659	-2.2157	-1.2809	11.8513	10.9573	4.0037	34.3934	-10.9222	2.8848	-14.2601	-12.2901	-6.4308
1400.0000	-4.6137	2.2525	-1.0042	-2.9536	-4.1454	2.6671	-8.1501	36.2096	10.3615	-0.5643	29.1183	-13.2884	2.3684	-3.1341	-13.8903	2.0645
1408.0000	-6.6482	1.9814	2.3822	-0.8562	-0.0688	2.5601	16.6280	32.2295	10.9598	1.5385	29.3714	-7.8811	4.5583	-4.1560	-9.0894	0.3986
1416.0000	-6.9415	-0.8218	3.1082	-2.3976	5.6045	-0.0950	42.1731	17.3884	4.8750	0.4304	19.4479	-7.8896	4.1065	-1.6616	3.6824	3.1707
1424.0000	-7.6444	-0.3181	-2.9170	-14.4300	4.0386	-8.4297	3.4347	-25.1486	4.8392	0.8866	15.2377	-5.2815	2.4510	0.1856	4.1925	-1.7151
1432.0000	-2.0489	6.8091	2.9946	-19.4305	1.3274	-4.7712	3.6633	25.5112	6.1583	5.3331	18.9172	0.6377	5.9168	2.2214	4.8634	2.1074
1440.0000	0.2070	3.6162	4.7990	-28.3323	9.3079	-0.5099	37.0470	37.8839	0.5843	2.8470	14.0392	-2.1619	6.7563	7.0870	12.7057	11.6331
1448.0000	-1.3349	1.6082	0.6338	-36.8707	8.1239	-8.0774	7.6107	32.2695	3.2745	4.1074	15.9642	0.9887	7.2622	6.9114	11.4486	7.7960
1456.0000	-1.0238	1.8644	-3.2249	-37.6422	-1.4029	-6.7650	-45.5977	8.7339	4.4581	-0.2971	13.2846	-0.3285	3.5125	4.8463	-5.8436	3.1928
1464.0000	5.1562	3.7143	2.2982	-33.1836	1.0508	-0.8757	-6.3890	-40.6558	4.5162	-0.5398	15.1837	0.3758	1.9153	1.8696	-10.2457	-0.1216
1472.0000	7.9972	9.5182	11.1605	-21.9849	4.0618	-7.0151	42.9783	24.6134	8.7105	5.5116	24.8167	4.9250	6.5182	2.0404	0.9595	1.4407
1480.0000	-2.8233	4.7863	1.2950	-18.1794	0.6782	-11.2197	-1.2430	-16.6749	5.6142	-4.5756	15.3660	-7.8661	-0.2072	1.6131	-10.6212	2.6847
1488.0000	-4.3347	8.1850	-3.3037	-12.2642	-0.6278	-3.9303	-18.1985	-100.7892	8.9410	2.0655	18.1280	-8.8532	-3.8962	-6.2899	-23.1059	-4.4076
1496.0000	-1.1396	9.5024	1.5324	2.7361	-6.4296	-2.2671	-12.2868	4.7947	12.1610	11.0519	26.4849	-8.9917	-0.4566	-8.0881	-21.4134	-0.9958
1504.0000	-12.5036	-13.0310	-2.5135	0.7859	-12.0408	-16.5895	-34.3329	28.3383	3.2303	-14.3407	13.4364	-29.0823	-6.6243	-5.2818	-32.2394	4.2643
1512.0000	-14.5101	-17.5639	-0.0694	-9.2046	-6.6011	-29.4136	-4.6178	-21.1541	3.6397	-25.1983	16.6110	-29.8230	-6.9103	-6.9761	-28.9068	0.4281
1520.0000	-2.1716	-4.5038	3.0940	-8.7230	0.9340	-17.9846	34.2627	6.1090	8.2018	-14.0576	28.2627	-18.0011	-0.1492	-4.4880	-8.3209	1.1392
1528.0000	5.7509	-5.6490	1.5793	-12.6901	4.0557	-7.1930	34.9379	7.6558	7.2262	-12.8967	25.7398	-8.5900	2.4303	-4.8649	-0.3839	-0.0126
1536.0000	6.5711	-8.3465	1.5678	-20.8048	4.2941	-25.7545	17.1068	-4.9030	7.5718	-15.3649	19.7431	1.8061	2.4709	-14.7272	4.4860	-3.4007
1544.0000	7.3210	-1.1663	-2.0716	-18.1434	3.6352	-23.3768	-6.4776	-30.0794	7.1531	-12.5614	13.0820	6.2767	0.9750	-15.6222	5.7212	-4.1824
1552.0000	6.4132	2.9622	-3.5474	-13.1125	2.5439	-0.3229	-15.6783	-32.9160	7.3297	-4.9832	12.4901	9.6825	2.8729	-8.2667	1.7176	-6.0340
1560.0000	-5.2082	-5.6433	-3.1383	-9.2556	-2.3682	-16.1790	-24.3566	-8.7575	2.9715	-6.2939	7.1528	-2.5322	0.0630	-11.7083	0.0867	-2.1616
1568.0000	-12.3718	-5.3126	-2.0694	1.4500	-6.1807	-21.2873	-17.6850	-32.0553	-1.0639	-8.2768	3.7719	-14.8113	-4.0093	-19.0538	0.0740	0.5863
1576.0000	-14.3071	-2.0290	-4.3921	5.0312	-1.8099	-3.4282	-8.9759	-5.3574	3.9421	-1.7043	15.3329	-9.5882	2.1649	-16.0439	7.3466	-0.4089
1584.0000	-21.5546	-14.2408	-7.0370	2.6199	1.8277	-16.1570	-3.5853	71.4589	0.8064	-8.2833	11.1479	-17.7816	2.9294	-4.9589	13.1738	6.9670
1592.0000	-15.3656	-9.0343	0.6272	3.3781	-1.6939	-13.1111	16.5745	76.5422	-5.5678	-12.4516	1.3900	-19.9718	0.9548	5.4063	13.2968	9.8394
1600.0000	-9.5119	-0.4866	-4.2263	-7.7203	4.4452	4.8190	3.1133	23.0816	0.5048	-0.6736	8.7237	-3.7352	5.4647	5.2844	16.6106	2.8774
1608.0000	-11.1975	-8.0197	-10.3904	-16.1673	15.3205	-1.2983	7.0891	6.8956	2.4452	2.6945	7.6634	2.3461	6.6285	4.6568	20.9243	2.4419
1616.0000	1.4730	0.3497	2.1836	-14.1339	6.3886	-0.4163	20.5270	48.0977	-3.9278	-1.4388	-4.2689	6.5781	5.7473	15.4967	21.3208	4.1685
1624.0000	6.1140	2.3836	0.2175	-22.8328	3.7176	-5.4543	-10.6896	23.4627	-2.6364	-0.3471	-7.7468	12.2276	3.9379	15.3854	13.8328	0.6439
1632.0000	3.3898	-7.1385	-5.2207	-25.5781	15.5869	-13.4429	4.9855	-29.6486	0.3897	1.5934	-6.0398	15.2572	2.6133	0.3224	11.8246	0.3282
1640.0000	14.4817	2.1936	3.4367	-15.9045	7.8289	1.7639	17.7782	9.4962	-5.9220	-3.2354	-12.9562	17.5166	3.4451	-0.8643	20.2272	5.1432
1648.0000	17.6952	7.7962	3.8237	-18.1591	1.7639	0.7484	-4.8392	22.4827	-8.3233	-5.9620	-17.3460	17.5165	2.8457	2.1598	23.5654	6.0240
1656.0000	11.4973	1.0340	-1.9062	-28.8089	7.9486	-19.4367	-14.5796	-31.5615	-1.8094	0.8884	-8.6209	21.9616	3.2833	-11.9075	25.0184	-0.9120
1664.0000	14.0254	0.8086	-2.6083	-23.6236	4.7769	-19.3788	-26.8802	-14.5850	-1.1243	4.8010	-8.8101	22.9926	2.8720	-15.5862	23.5656	-1.4751
1672.0000	19.4205	7.6006	6.8309	-4.0794	-0.0777	-0.5659	9.1181	55.3845	-7.3013	0.8426	-16.5952	15.6238	1.9024	0.9576	19.7026	6.7752
1680.0000	14.4715	9.8115	7.9552	-0.4436	-11.1353	3.9392	-12.1299	24.9667	-10.0569	-4.5773	-16.8747	7.0782	-0.3528	0.4181	15.1967	2.2334
1688.0000	8.4649	5.2129	-2.5885	-0.5967	-9.8136	-3.6258	-50.0292	-29.6514	-5.0382	2.9030	-14.0698	5.7962	-3.5984	-7.7013	5.1729	-3.6914
1696.0000	11.5738	4.9420	2.4493	11.0821	10.1629	3.1987	43.8630	32.0011	-3.5688	12.3014	-12.1390	7.0453	-0.6028	6.9714	10.4150	7.7508
1704.0000	5.1566	3.0429	1.3347	4.8332	4.8684	5.1107	28.2736	33.0652	-8.5841	4.5205	-14.4186	-1.1081	-0.2625	12.1018	16.9752	8.6149
1712.0000	-3.3637	-1.2652	-5.8701	0.0119	-2.0107	7.4921	-32.4949	-16.6311	-3.9452	11.2382	-9.8181	3.5067	0.0952	0.6630	6.4884	-2.3170
1720.0000	-1.0907	-1.5709	2.6902	12.1446	5.1819	16.6104	28.9359	41.8081	-3.2537	20.7645	-7.5912	6.3394	3.2369	6.4623	6.0403	3.3948
1728.0000	-4.0515	-2.1037	2.9100	15.7372	-6.7661	5.4127	5.2265	20.5632	-12.3836	8.1444	-19.9842	-11.9708	-4.6890	7.6855	2.3024	6.2859
1736.0000	-2.4043	2.8352	4.4472	25.7373	-14.0348	7.8532	-9.1787	-33.3418	-8.5218	12.8985	-15.8371	-7.2496	-6.1782	-4.5850	-4.8047	-4.5370
1744.0000	0.2061	2.2066	8.6745	33.1806	-4.6130	14.9320	41.0939	56.8830	-5.0391	15.1542	-7.8056	-1.6581	0.3553	2.1865	5.2025	1.6178
1752.0000	-9.8256	-8.7530	-2.1744	22.0713	2.6557	-0.6149	20.4149	99.6284	-8.3134	-0.6318	-13.5254	-15.6741	-2.0557	9.2767	7.1848	14.9928
1760.0000	-14.0756	-14.8528	-5.1335	17.8970	1.3217	-1.5028	1.3568	48.2201	-6.4218	-0.7639	-11.8724	-12.0886	-2.2632	0.2750	2.2539	6.8777
1768.0000	-10.8576	-14.4647	0.1151	18.7102	-9.9358	-2.8637	-11.7514	10.1305	-10.5604	-8.0201	-19.0848	-12.1552	-5.1858	0.6437	-2.5007	-1.6733
1776.0000	-5.1908	-2.0382	6.4357	18.7689	-16.0266	4.8676	-13.6727	-3.2549	-13.5081	-14.3798	-24.1278	-12.4328	-7.2133	3.9863	-8.6078	1.0880
1784.0000	-6.1231	0.8707	7.7634	15.6841	-18.0428	20.5106	-25.6853	30.3374	-7.9782	-2.0972	-11.9587	-2.1772	0.0033	1.0433	-7.0253	-2.2563
1792.0000	-13.1483	-12.5327	0.3253	8.6478	-10.5471	-0.4796	-33.2593	50.4701	-7.0516	-2.2023	-14.2312	-7.8781	-2.0143	3.9843	-9.8957	1.5881
1800.0000	-3.8420	-6.0709	6.0469	11.6446	9.0945	3.6642	56.5591	27.0039	-8.8510	-2.5442	-17.7312	-4.7578	-2.6124	5.6656	-1.9484	12.8323
1808.0000	1.2341	0.1054	3.7289	6.1990	12.6085	22.3186	53.4842	33.2310	-7.2085	4.8922	-13.4699	6.1136	3.0968	9.0779	10.5278	11.4762
1816.0000	-3.9074	-6.3057	-7.5929	-5.1057	9.7946	6.2597	-17.4530	36.5764	-4.8551	3.4858	-18.8029	5.3050	-0.0909	13.4811	-1.3567	9.6588
1824.0000	2.7967	-2.4845	3.8385	1.1993	2.5208	10.6203	10.2465	-25.9978	-7.4015	-1.1006	-19.6400	8.9047	-1.6978	-0.4903	-3.8234	2.0848
1832.0000	4.0029	-2.8361	8.4223	6.5334	-12.3314	7.8184	-5.7252	-40.1138	-7.7063	-5.8146	-14.2181	7.9419	-1.0545	-7.5974	1.4365	-10.6251
1840.0000	0.2002	-4.5203	3.0777	6.0461	-6.8205	-6.2147	-14.9939	35.8797	-2.6442	-6.4960	-10.0922	1.8673	-1.5606	4.2411	-6.1791	-2.0461
1848.0000	-3.3268	-4.0951	5.6329	3.4273	-3.8038	2.2011	6.0102	28.7200	-3.4897	-5.2588	-6.6916	-1.1824	-0.2397	3.9538	-7.3274	1.7797
1856.0000	-9.4689	-6.9692	2.3905	-0.7980	-6.4899	-9.2126	-15.8127	-8.2588	-0.8848	-5.4071	-3.6393	-1.4470	-0.9100	1.6354	-8.3901	-6.4858
1864.0000	-4.5838	-1.1022	1.2457	4.9698	1.5733	-7.6542	-0.4674	15.3883	3.9616	-1.7858	-0.3499	4.5527	0.0473	0.2811	-9.1095	-1.4857
1872.0000	-1.2974	2.2929	0.2514	8.9092	-9.1454	9.2104	-38.9640	-17.9132	1.6690	3.9076	-3.7854	5.9064	-1.5449	-7.8642	-16.0119	-5.9082
1880.0000	1.2361	7.0775	1.4987	10.2507	-15.5478	3.6934	-61.5930	-9.6010	5.8526	11.1280	-2.3408	6.8269	-3.5464	3.3586	-31.5264	-11.6307
1888.0000	5.9759	11.6366	9.2619	11.8767	2.3853	8.4215	33.9565	29.5919	8.3429	12.6089	7.8552	8.6541	1.4216	9.5301	-19.0773	-1.0684
1896.0000	-0.8856	-1.1958	1.4891	4.4907	11.2177	5.2718	44.8876	-28.3049	4.5502	10.1797	6.7301	6.7392	2.4018	-4.1298	0.5606	-2.3238
1904.0000	2.3541	-1.7700	-3.4059	4.3879	2.7034	1.0084	-6.8630	-29.8563	3.8017	7.7188	-1.5439	8.4257	-0.6847	1.8120	-5.9463	-8.2967
1912.0000	9.7469	8.8991	4.5118	10.6009	-12.0112	10.5274	-22.7852	-31.7958	0.6712	1.0749	-4.9752	5.0857	-3.6817	3.0214	-17.1228	-9.4099
1920.0000	6.6221	8.6693	1.7614	14.9821	-6.8588	3.1549	-17.5811	-60.0899	4.2281	7.3870	-1.5948	7.2288	-4.3663	-10.0779	-16.2826	-9.8693
1928.0000	4.8974	5.1424	-2.2824	18.7487	7.5736	6.7399	11.3978	22.4672	7.1626	11.2975	0.2239	10.4180	-0.0391	1.8839	-9.1231	-0.2693
1936.0000	-6.0220	-10.0164	-2.5173	7.3768	-0.4747	4.8095	-5.8929	22.3134	-2.6069	-5.0726	-8.2512	-6.4224	-2.5598	11.0609	-13.4210	1.1681
1944.0000	-4.1713	-13.0814	0.0055	-0.9609	-6.6234	-4.9459	-16.2181	-22.7141	-6.5402	-6.6565	-11.9495	-10.0508	-5.8430	2.2985	-15.4418	-1.5374
1952.0000	12.7385	4.6196	3.1165	0.1520	-3.2278	12.4946	-2.3718	8.2412	-3.6917	4.1596	-7.3062	2.7107	-1.7813	2.9202	-5.6384	3.5667
1960.0000	7.9919	2.3223	-2.5531	-7.8725	0.0200	0.4779	-20.2229	-55.8537	2.0697	7.4004	-2.4209	7.7152	-2.2210	0.1878	-8.5747	-6.6536
1968.0000	10.0819	-1.1586	0.4584	-3.5891	2.8894	-18.8934	6.4440	-73.9894	5.2062	6.8386	0.1258	10.2981	-3.5365	-4.3262	-6.9796	-12.9010
1976.0000	18.0547	3.2834	4.6107	2.5645	-1.5790	0.1436	19.5249	-13.3579	-2.0408	-1.7967	-5.1660	4.7735	-2.5522	3.3152	1.2385	-3.5356
1984.0000	6.2683	-5.1458	-5.1967	-4.0934	4.6336	4.8379	-0.4541	-67.0813	-1.3648	-5.6162	-5.6298	3.6818	-2.5430	-0.4555	-0.8992	-5.6365
1992.0000	7.0825	-1.8926	-5.0800	1.5798	7.2890	-5.7964	8.8238	-87.9981	2.1176	-1.4125	-2.0793	8.8819	-2.4099	-13.1160	6.1994	-8.5378
2000.0000	12.0606	1.0445	-1.4488	0.9276	-5.4962	-14.6313	-18.2296	-38.2725	-1.1903	0.3247	-4.7417	4.5825	-3.3933	-10.7240	9.1513	-7.7987
2008.0000	7.8804	-9.1132	-2.9592	-5.1823	-0.8425	-12.6180	-14.3474	-21.9113	0.0735	-0.2014	-3.0682	7.4241	-0.8647	-8.5182	5.8104	-8.2221
2016.0000	13.8230	-1.5219	1.0029	3.8099	1.5841	2.7258	12.1718	-22.4345	-4.1176	-9.0605	-8.9961	9.4906	-0.8595	-13.8699	12.2726	-1.0398
2024.0000	14.5458	4.6105	-3.9269	2.4407	-4.0174	3.4377	-28.7553	-55.4376	-6.7580	-9.3747	-17.1433	6.5691	-4.8943	-11.2951	8.6169	-1.4968
2032.0000	10.9813	-1.9239	-9.0021	3.6122	7.8475	3.8429	-7.9024	-44.2516	0.4418	2.9702	-7.0710	11.3596	-1.3884	-8.9750	9.2626	-3.6383
2040.0000	11.8784	2.2059	-4.0197	14.7135	10.4425	4.3272	35.6761	-12.3736	-2.2207	1.8474	-6.0715	4.7740	-1.0584	-8.1050	19.9387	3.4004
2048.0000	3.9283	1.7923	-8.4939	6.0741	2.1334	-4.9037	-10.5535	-61.8648	-4.7480	-2.7508	-11.3439	-2.3545	-4.7717	-2.8226	14.9382	-2.5496
2056.0000	-3.5359	-5.3014	-12.7974	0.5756	6.7124	-5.5056	-18.9172	-39.8543	1.5008	-0.7534	-1.3260	2.2725	-0.1477	-2.3815	14.3054	-5.8485
2064.0000	-4.7182	-1.7382	-7.5363	10.8519	12.2700	2.1699	26.0255	52.4911	-1.1050	-1.5905	-0.2751	-2.0817	3.5039	1.8009	25.9680	8.7705
2072.0000	-6.2581	2.4905	-7.4418	11.8872	5.9021	20.5478	12.2156	26.5987	-6.2292	-0.4927	-4.2666	-7.1185	2.7620	4.2541	25.4900	9.0582
2080.0000	-6.1343	2.9440	-10.7596	4.1096	1.0951	21.5949	-23.3442	-16.8898	-0.3837	3.6192	4.8686	-2.8492	3.1725	-1.6511	15.9319	-0.5401
2088.0000	-2.7799	6.2477	-8.3474	-0.2828	10.0146	6.9621	1.5510	28.9253	7.0775	6.4903	12.3390	3.0564	5.1769	7.6015	12.1579	2.3139
2096.0000	-0.9324	7.3998	-4.5659	-2.1151	9.1303	15.1618	13.2593	33.5033	6.9015	3.8102	14.2537	4.2770	6.6664	12.7101	9.5942	1.4636
2104.0000	-7.4141	0.7634	-8.8904	-11.0396	0.4664	11.1445	-35.4360	-11.3705	5.5760	0.8410	14.0357	-1.1170	4.0539	0.8631	0.8040	-2.6687
2112.0000	-5.9228	-0.1848	-9.2772	-9.9028	6.4849	5.9384	-18.8861	3.1242	6.2896	7.5703	13.0712	-2.6499	2.7336	2.5528	-2.4067	2.7178
2120.0000	4.5635	10.4507	0.5701	6.3373	7.8377	19.7905	37.4015	45.7974	4.7687	8.8927	13.6798	-2.5726	3.8166	10.4491	2.1912	8.0500
2128.0000	-2.2371	10.1453	-2.1138	-1.2532	6.8823	11.4483	17.4807	36.5171	4.0602	0.8483	11.4378	-6.1139	2.9133	14.4539	1.4316	8.5323
2136.0000	-6.7909	5.7266	-5.6723	-16.2383	5.6503	10.0796	-7.3000	-18.3796	5.0318	3.8768	13.5531	-4.9000	3.0194	15.2722	-3.2951	1.1511
2144.0000	2.2696	13.0771	4.6017	-5.2492	-5.8193	20.5814	5.7679	-16.1765	3.9895	8.9980	16.9049	-3.5325	3.2934	10.6782	-4.9400	-4.1429
2152.0000	-1.9502	10.7244	4.3351	4.0263	-1.2754	11.2620	17.6950	50.3954	2.6756	2.2275	10.6104	-5.1300	3.4121	12.7448	0.2463	4.6485
2160.0000	-9.0971	5.6962	-1.1707	2.3109	3.4238	5.0044	9.4173	44.2783	3.9605	0.9915	10.3051	-3.9760	4.2665	10.5698	5.0961	3.8252
2168.0000	-11.2217	7.7986	-2.7177	1.1811	-3.3947	2.2627	-20.4276	-1.2161	5.8734	4.5603	12.9727	-3.8042	2.6867	2.9533	-0.3444	-3.4108
2176.0000	-16.1448	-2.6067	-6.5707	-1.1508	3.9727	-7.1376	-16.3322	-15.2125	6.4576	-1.0691	9.0749	-3.6836	0.9337	-1.3262	-6.1600	-1.9389
2184.0000	-11.3784	-6.3083	1.0319	-1.3339	2.6348	-16.9739	14.6674	-8.5965	7.9606	-4.1961	14.4319	-1.7251	1.8918	-2.3686	-5.3247	-7.3096
2192.0000	-4.3952	3.0649	6.9880	-2.0688	-7.4278	-10.1924	11.6027	39.9295	4.6922	-6.5582	15.7523	-9.3682	1.9167	11.8951	-4.9604	-3.6764
2200.0000	-6.4680	0.6237	-1.2479	-6.0066	-7.8373	5.9086	-19.9476	11.8328	-1.0076	-9.2537	8.3271	-17.5836	-1.1759	7.5356	-9.0628	3.9338
2208.0000	-7.1986	1.0484	-1.6985	-9.6681	-8.9292	-4.3073	-39.5246	-30.1330	4.2849	3.0523	13.3933	-7.7192	-0.6525	-11.0851	-11.8186	-3.0664
2216.0000	-6.6727	7.3425	1.2616	-11.4437	0.3871	-12.0004	-10.5257	38.0117	7.6181	7.8104	15.1447	-3.7142	2.2805	3.4303	-8.6190	5.1769
2224.0000	-7.7909	3.2879	-1.1484	-9.3511	8.9730	-1.9641	24.3928	11.1445	2.5426	-1.4632	11.1635	-13.6750	-0.0820	4.9461	-6.1154	13.1180
2232.0000	-6.4221	0.3195	2.5479	-3.9197	3.9357	2.0804	32.6345	-11.3408	1.2266	-0.0999	12.4922	-11.9286	0.5482	-3.4071	-2.6309	6.2073
2240.0000	-3.5957	-0.0755	7.1526	1.3943	0.3617	6.6160	39.6395	64.1456	-3.3159	-3.6378	4.1325	-11.4192	2.1256	11.7043	1.4387	9.7245
2248.0000	0.4321	-0.0740	4.5047	2.8323	-7.0884	-1.6991	6.9798	17.6288	-5.6178	-12.0524	-2.6426	-14.3833	-3.5303	1.3122	-3.7986	6.3602
2256.0000	4.0484	3.5989	0.5757	3.2272	-8.3117	-8.3181	-24.3614	-13.4096	0.3025	-6.1625	-0.3305	-5.0496	-4.5730	-8.8804	-9.4787	-0.1194
2264.0000	2.8511	-0.2576	1.0165	5.3763	1.0747	0.4556	8.2738	4.3223	0.7801	-2.5514	-1.4927	-1.7457	-2.4044	1.1127	-10.2696	2.1462
2272.0000	4.1288	-3.5254	1.7430	7.7886	0.5961	-2.7025	14.8719	-29.5325	1.4867	-1.9301	0.0137	-1.9993	-4.1108	-7.5682	-13.7373	-1.6749
2280.0000	8.1125	1.2335	-2.3592	9.2353	-3.3188	-1.5278	-21.1214	-5.4236	4.0041	4.4263	0.0334	0.6426	-4.5695	-5.8783	-17.6693	-1.5674
2288.0000	4.3502	-2.4632	-2.0409	9.3881	-4.6016	0.9901	-15.3159	-7.0961	0.2753	0.4125	-3.4956	-5.4590	-5.2628	1.5112	-16.7480	-1.5921
2296.0000	2.4208	-6.5947	6.3353	13.7035	-5.9747	-10.4403	22.0437	-15.8907	-3.9223	-10.0285	-5.4772	-9.2551	-6.0860	-10.3796	-9.4247	-0.6895
2304.0000	2.4187	-1.7119	6.1030	11.3910	-6.1704	-17.5087	13.6981	7.8778	-4.4539	-4.2836	-6.7936	-10.1870	-6.1565	-10.3798	-4.9594	4.5351
2312.0000	-4.1961	-3.2182	-1.3610	2.1696	-5.1686	-17.4177	-12.6271	-3.3369	-1.4680	4.9553	-1.7718	-11.7075	-4.5691	2.1548	-4.4663	-0.6936
2320.0000	-3.9095	-7.8473	0.0311	9.0903	-0.8419	-13.0639	13.7355	13.2625	-3.9201	-6.2432	-5.9227	-10.0062	-3.4257	1.1980	2.5052	1.3936
2328.0000	-0.8873	-3.8241	-0.4366	11.5980	-5.7995	-21.0761	-5.4906	-60.1692	-8.1910	-13.0181	-16.4516	-10.6035	-9.3505	-15.4104	2.2055	-0.0869
2336.0000	1.8333	2.4608	-3.4550	5.9549	-13.3382	-22.6422	-52.7574	-84.1980	-2.5772	-0.6182	-10.1532	-4.8587	-9.3095	-17.0022	-5.4583	-8.9005
2344.0000	10.5224	2.2146	4.5046	11.7218	-0.7361	-0.5366	19.4004	56.0836	-2.6396	1.6009	-4.9798	2.1628	-0.3441	-4.9992	6.9094	6.4396
2352.0000	8.0622	0.0286	4.0332	-0.8475	9.5327	-2.9389	53.7462	-1.7761	-4.1098	-1.9242	-1.0037	3.6111	2.0180	-14.6178	23.8628	7.3995
2360.0000	4.8979	3.6477	-4.3900	-13.6925	2.4452	-8.0832	-19.4258	-36.8754	4.2182	3.9448	8.1714	11.7304	3.6273	-15.8394	17.6967	-5.4770
2368.0000	9.2959	2.5101	-1.3866	-7.7470	5.6669	5.5111	-6.6169	113.9857	3.0584	4.8794	3.5412	12.4123	7.1416	5.5033	11.6782	9.3898
2376.0000	3.3348	-2.1212	-1.1916	-22.2647	18.0705	-3.6426	35.8589	68.6803	-0.1874	-0.3178	1.6624	7.9263	7.0218	10.9271	20.2003	13.3084
2384.0000	4.1047	4.3630	-0.4513	-30.6629	12.2720	-8.2188	10.9812	6.0728	3.6951	-3.2094	7.8312	15.4004	7.8582	2.2404	20.9547	2.3552
2392.0000	13.0743	9.2324	8.2624	-18.9314	-2.6622	3.5671	0.6541	31.6079	1.8315	-0.3418	8.1178	16.9635	7.6466	-6.7785	14.9873	-0.4166
2400.0000	10.5412	8.0901	7.9917	-19.0048	-2.0810	-0.8726	10.6068	-25.0442	2.9142	5.8980	11.0005	15.2584	6.3080	-7.2674	14.7935	-7.9844
2408.0000	1.4842	3.9441	2.9400	-17.0264	5.8712	-10.5390	8.5083	-3.9705	5.8057	6.5271	8.2815	16.5760	6.4598	-1.4273	12.1993	-5.5641
2416.0000	-7.4753	-5.9550	2.2026	-11.3208	2.7783	-11.1360	0.8352	23.6307	0.2881	1.4550	0.9303	5.1538	3.7423	-5.8321	5.4196	1.9455
2424.0000	-6.1550	-1.1399	5.7487	-3.3988	-5.0037	-8.9671	3.9018	-13.2737	-1.0403	-1.7980	3.1845	-2.5750	0.4922	-11.1411	1.0591	-1.1462
2432.0000	-8.8794	3.4037	2.6781	2.4087	-4.3516	-5.5440	-10.7081	11.0398	3.0639	1.8420	6.4167	-0.2588	1.7331	-8.8900	-1.6990	-0.3463
2440.0000	-22.2875	-7.3939	-9.6609	-7.9057	-4.8572	9.1027	-61.0782	-4.8583	3.6109	7.4536	8.9549	-5.0669	3.4338	-1.9578	-8.5368	-3.6831
2448.0000	-13.2275	2.8928	-1.5878	-0.3052	-5.3791	15.3637	-22.7441	2.8324	4.5882	11.8950	12.8066	-5.6387	3.1536	7.0410	-10.9596	-3.4928
2456.0000	-5.2678	10.8552	10.7278	10.5604	9.8870	3.2248	76.3810	89.7395	4.7159	14.1276	13.2517	-3.0019	5.6682	12.8834	3.7866	11.8580
2464.0000	-15.7679	-6.5936	1.0988	-7.7760	14.8984	2.8227	56.5713	56.6639	0.9836	6.2183	10.8530	-6.0124	7.3943	12.5483	12.3725	9.6538
2472.0000	-5.7682	-4.3117	1.4396	-10.6984	2.9358	1.0748	9.7610	20.0856	1.1361	0.6144	6.0798	0.7206	4.2022	5.4953	2.3568	0.3813
2480.0000	5.0861	6.4710	5.7731	-1.7492	4.2376	-4.5755	18.8153	67.6390	3.1473	4.2379	1.9570	6.0157	2.3028	5.7849	-3.1522	7.9993
2488.0000	-1.5392	0.5501	-0.4887	-7.8280	1.6928	-2.4043	-10.5696	27.8770	2.9986	4.9203	2.8126	2.7144	1.6763	6.1680	-5.8909	2.0447
2496.0000	-0.4682	-0.8831	2.9584	-9.7162	-7.1590	-8.5487	-30.5559	0.8258	6.4956	9.3555	8.1684	9.3087	2.3933	-2.8120	-11.0714	-10.1228
2504.0000	2.1729	3.1141	3.5352	-9.7437	-3.3896	-0.5810	-20.2978	18.3038	8.2070	14.4177	11.2873	11.8924	4.1020	-1.3380	-11.7536	-6.0141
2512.0000	4.0629	7.5800	0.9327	-6.4962	-3.2245	7.5286	-24.5555	0.2265	7.9030	15.4439	11.3833	9.0708	2.6818	-1.2776	-12.8668	-4.4741
2520.0000	6.6350	9.1697	6.2060	-2.3464	-1.3326	-0.5645	-2.8892	32.7633	9.6298	17.3326	11.7502	14.5528	4.0991	-1.5806	-10.3650	-3.8232
2528.0000	1.2291	3.4055	4.5020	-9.6779	3.9641	7.7159	15.7305	8.3384	4.9876	8.6856	8.5308	11.4705	5.7358	6.5684	-1.0809	-3.6895
2536.0000	-1.4670	-0.3088	3.4863	-8.2808	2.4070	9.7787	21.5194	-23.7029	0.3477	-0.0563	5.7211	5.6751	4.7242	2.6823	7.6889	-5.2875
2544.0000	-4.8065	-4.5437	5.6095	-3.2299	4.6844	9.8665	31.7288	72.9088	-2.8099	-2.8088	-0.4726	4.0077	6.7818	8.5045	10.4854	6.1989
2552.0000	-12.9993	-10.0458	0.1754	-9.2322	0.6826	9.9046	-2.8702	57.3420	-9.3416	-11.2061	-11.9287	-5.3521	3.3500	15.0700	6.5146	8.7599
2560.0000	-12.7518	-11.2200	-0.0918	-8.6633	-5.8753	-13.4818	-21.5139	-2.0476	-7.6289	-11.5549	-10.6946	-7.8384	-1.4370	0.2434	3.4780	0.1948
2568.0000	-8.8493	-11.6986	3.2626	-2.1448	-0.7363	-3.7514	10.3841	42.2123	-6.2256	-9.2905	-7.5372	-4.8257	1.1666	2.4362	3.2715	4.6983
2576.0000	-6.7076	-7.0495	-3.4172	0.8654	4.0414	14.0702	4.8466	5.6504	-6.8054	-8.1339	-11.0158	-4.3450	0.0599	8.8144	2.8855	5.2570
2584.0000	-4.3426	-0.8690	-10.1511	0.7266	9.4319	-0.9900	-16.1303	-32.0824	2.5681	6.9076	-5.7084	6.0225	-0.8852	3.8799	0.3893	-1.7753
2592.0000	-2.6773	-0.8124	-3.8924	3.8852	10.6729	11.1852	8.9230	1.4340	2.4451	11.7732	-4.6001	11.3700	2.5628	6.6126	-0.8508	-0.1825
2600.0000	1.6644	3.9371	3.0477	14.2800	3.1465	19.0164	25.4800	12.5887	-5.1658	2.0730	-11.7686	2.7482	-0.1514	5.1645	1.6559	5.3939
2608.0000	3.4768	8.4934	-2.2455	13.6065	-2.9841	0.6238	-22.0455	-5.4022	-1.3994	3.9721	-12.1224	1.3589	-4.7344	2.1109	-6.4984	1.5028
2616.0000	-0.6119	-1.5939	-4.1938	3.3397	-10.4513	-0.3273	-57.7885	-56.2999	0.0451	5.2303	-8.7569	5.4686	-3.9603	-5.6788	-12.9695	-11.9641
2624.0000	-2.4320	-10.1535	2.0745	0.9825	-8.5700	-2.1968	-14.1143	-37.8065	-4.6098	-4.6031	-6.8895	-0.1172	-1.8198	-8.6336	-1.9962	-8.8111
2632.0000	1.0469	-3.8515	3.6274	-0.0181	2.4676	2.0644	28.5016	13.1465	-6.4669	-10.4225	-9.0713	-5.4637	-1.5031	9.1034	1.4123	5.6736
2640.0000	6.4753	0.9333	4.0166	-3.1918	1.4585	13.2731	20.6250	-16.2122	-6.2856	-8.0110	-10.1943	1.3599	-0.9072	8.8871	-0.2724	2.4068
2648.0000	9.1861	-0.5180	6.0911	-6.5305	-1.3157	5.6529	12.3410	-2.9985	-4.1855	-1.4087	-6.7739	8.7404	1.4323	0.4959	4.6039	-1.6258
2656.0000	9.0549	2.3363	6.5879	-7.8672	-0.2842	-3.2356	10.3531	26.0785	-4.1812	2.0597	-9.8057	7.3718	0.4476	7.3964	2.7331	2.8720
2664.0000	6.4857	3.3252	3.4354	-3.3157	-5.7494	-11.7449	-19.3829	-19.0928	-5.4586	-1.9816	-17.0302	3.2497	-5.0907	2.3902	-5.6483	-0.2366
2672.0000	2.9422	-2.3571	-2.0411	3.1308	-3.1035	-11.5581	-30.1540	-14.5754	-3.2482	-2.0127	-17.9426	1.4096	-6.7962	2.2573	-14.5318	-0.0319
2680.0000	1.7161	-5.0596	-2.3764	7.0935	5.0090	1.3695	4.5566	20.0215	-4.1747	-0.5315	-16.1196	-2.8606	-4.8862	11.8874	-12.7773	7.0869
2688.0000	-1.0680	-2.2082	-2.3086	5.1411	-5.2753	3.7711	-15.1346	-53.6774	-7.4183	-5.7779	-14.2342	-10.2558	-7.1471	3.4250	-9.4632	-0.3389
2696.0000	0.3383	1.1492	-0.6545	8.1960	-13.2210	4.4164	-32.3564	-84.2525	-2.8903	-0.3684	-5.5604	-7.0627	-6.8029	-4.9297	-14.5050	-10.4267
2704.0000	5.4909	2.2327	3.7281	15.2170	0.1699	-0.0477	26.6362	15.2372	2.3150	8.0034	1.9263	-0.5124	-1.5303	2.8292	-5.2657	-1.7208
2712.0000	2.8093	1.7175	-3.0663	9.4120	5.7957	-4.8619	19.0813	-12.0500	1.5448	3.0808	-1.5662	-1.7929	-2.5103	7.8209	1.6451	-1.4319
2720.0000	3.9361	-0.0307	-7.3672	6.4656	-1.0672	1.3159	-20.6122	-91.0264	2.7819	1.1626	-1.7605	2.6335	-4.4289	-1.1047	-5.9344	-13.7023
2728.0000	5.8612	-4.9941	-4.0497	2.3077	-4.8994	-8.3378	-29.1153	-46.2470	3.8223	-0.2729	1.1268	5.6991	-2.6663	-9.8602	-6.0486	-12.6336
2736.0000	2.8776	-6.8503	-5.1318	-8.0032	-4.5111	-9.0915	-41.0036	-34.0499	2.3150	-2.5113	-0.1524	4.1847	-1.8658	-6.8016	-6.5649	-8.8130
2744.0000	12.4029	0.1324	2.9302	1.3341	0.6711	8.7612	14.9746	0.9581	1.7188	-1.0303	1.9748	7.4644	0.8050	0.5680	-3.0361	-3.5326
2752.0000	14.6532	2.8231	5.9341	2.7884	-1.1403	6.4721	22.3179	27.9595	0.9819	-5.7387	3.1427	6.7791	1.7434	-0.2941	2.5514	-1.0379
2760.0000	2.0743	-3.7706	-5.7158	-8.6561	-1.4630	1.9499	-32.5588	-45.1174	4.4478	-2.8142	5.3148	7.5627	0.9807	-6.0573	-3.2137	-10.1888
2768.0000	0.7023	-5.0551	-5.8993	-1.8336	2.7203	-1.2902	-12.8240	-33.0952	5.1919	-0.0314	5.3729	3.3131	-0.4364	-1.9309	-6.2601	-7.3863
2776.0000	0.8260	-2.1580	-1.6980	3.2158	-10.5892	-3.5500	-34.5946	-12.9760	-1.0375	-8.3000	-1.5188	-7.9457	-4.5230	-3.7566	-11.5056	-3.0487
2784.0000	-1.3496	-3.0563	0.7901	7.7780	-10.3374	3.6609	-23.6267	-9.3324	-0.4995	-6.2123	1.0244	-4.5252	-2.1696	-10.6549	-9.6392	-3.7257
2792.0000	-1.0065	-4.4577	2.5703	10.3584	7.3294	-9.6542	50.9966	16.5747	0.8918	-6.6215	3.7674	-5.0837	-0.2997	-1.2936	6.1913	2.5413
2800.0000	-5.7531	-8.2308	-5.8730	-1.1774	2.1925	-13.9115	3.5500	-49.3129	0.1652	-11.3321	4.1916	-10.0421	-2.7192	-5.5841	5.6505	-4.2999
2808.0000	-3.7769	-11.8256	-8.3667	0.1908	0.9671	-2.6856	-17.2904	-24.9441	3.8383	-10.7427	7.8510	-3.2020	-0.3403	-9.1210	-1.7482	-6.3660
2816.0000	2.1714	-10.8245	-5.3044	1.9191	11.7330	-11.5851	27.4901	17.0660	-0.1157	-18.2891	-4.9311	-4.4477	-2.8008	9.9491	-0.1346	3.9677
2824.0000	4.2888	-8.0677	-4.7925	-1.9747	6.9324	-1.7364	12.1093	-47.7432	-5.5756	-14.4416	-12.3967	-1.4264	-4.0331	-0.0213	4.2146	0.7943
2832.0000	7.7096	-3.4891	-0.6825	2.2492	3.1316	7.0756	4.4329	1.3123	-1.3668	-2.4069	-4.3947	9.9569	1.4970	-11.9301	7.6075	0.4335
2840.0000	3.0299	-6.0403	-4.5813	-5.6985	7.2238	-11.7640	-6.3621	16.7292	0.9826	-7.1104	-6.8078	7.1354	-0.3416	3.6708	1.4856	1.0064
2848.0000	-0.7707	-10.7646	-8.3993	-5.2688	5.0920	-6.8427	-18.8814	-44.4547	0.2569	-12.5534	-6.9718	2.5803	-2.9620	-0.7033	-5.0285	-4.6864
2856.0000	5.2259	-2.4749	-4.6948	10.0774	-2.3378	4.9019	-22.6159	-28.6804	1.5206	-11.0106	-4.1961	2.3961	-3.8487	-7.6796	-11.2503	-4.2367
2864.0000	6.1756	0.6430	-6.8466	12.4702	-2.6835	5.4954	-32.1793	-31.0244	2.7124	-5.9398	-5.1580	1.9435	-5.1329	-1.8445	-15.2238	-5.1430
2872.0000	6.2572	-3.4645	-6.5865	15.6877	5.4522	9.8726	5.6569	-11.8847	3.4247	-3.4850	0.1479	2.2030	-2.1110	-2.9367	-5.4438	-2.3992
2880.0000	7.9989	2.0750	-4.4305	18.7477	7.0382	3.8679	21.8080	-11.5346	5.3394	-6.6157	3.8849	2.2348	-2.0096	-4.4721	-0.9822	-1.7660
2888.0000	7.2740	6.0759	-5.1169	16.5279	3.7024	0.9360	4.7456	-34.5405	7.7201	-2.5128	7.2585	6.1123	-1.1698	-7.5264	1.5375	-7.7443
2896.0000	8.0842	5.5405	-4.5127	13.4381	2.6818	9.0781	1.7906	18.6236	5.3030	-0.6983	6.4457	6.9392	2.2384	-1.0928	9.0654	-3.5127
2904.0000	3.3375	4.5669	-8.9949	-1.6394	3.3168	11.3603	-23.7079	-13.2735	1.5988	-5.9795	-0.7003	4.1121	0.9051	7.8643	6.0126	-1.8334
2912.0000	1.3058	5.3498	-7.1210	-9.5399	6.3245	0.7479	-14.5786	-29.4589	3.6610	-4.6984	3.7473	4.7359	1.2023	2.0165	5.7245	-0.7104
2920.0000	4.8537	10.2491	2.5263	-6.2631	7.2470	-8.9484	23.8590	53.2697	4.6160	-3.5294	9.7581	4.1160	4.1703	1.5530	12.9352	8.0783
2928.0000	-2.5356	7.4756	1.5685	-10.7130	5.7724	-1.1416	22.3843	6.0225	0.3575	-9.5670	8.1023	1.5558	5.2853	-1.6132	21.5345	4.6650
2936.0000	-0.7945	9.6351	-1.0957	-6.2097	0.8679	5.0601	5.5777	-24.3465	0.5577	-12.6247	10.0621	1.0855	4.6562	-6.9859	24.3976	-0.8094
2944.0000	10.2285	19.5972	-1.0380	6.1060	-1.7642	7.0242	-7.2716	45.9135	6.0509	-6.0385	12.3563	3.1130	3.2506	2.4015	12.0087	3.1162
2952.0000	5.0202	17.5940	-4.4628	5.9408	2.4709	7.9976	-9.0918	7.3473	7.0580	-0.0543	11.1912	1.6065	1.2887	0.4540	3.7823	3.1390
2960.0000	4.2352	20.1223	-0.8728	2.1096	0.1730	-0.5395	-1.8917	-43.6648	6.7029	3.5933	13.3053	0.1496	-0.3069	-8.1657	4.1358	-0.2786
2968.0000	2.5977	18.8122	3.4836	-1.2109	-0.6086	-1.1603	15.6592	-16.3328	7.3095	6.1177	20.5332	0.3820	3.6231	-6.9786	11.8700	-1.2493
2976.0000	-9.5173	5.1837	-3.8819	-8.2218	2.0864	-2.1080	4.0762	-17.5789	4.1926	-1.1986	19.6872	-6.9559	4.9238	-5.5241	19.5721	-0.9314
2984.0000	-0.0515	14.0800	-6.2973	-8.5917	-3.8030	-7.2958	-38.8591	-23.0016	5.4361	-2.1904	11.3440	-5.5536	-0.9029	2.3824	1.8679	-0.8134
2992.0000	8.0389	26.2784	3.1465	-5.8804	-0.6420	-11.7306	-5.7254	-2.1995	10.2596	4.5468	16.1153	3.3834	0.4414	1.5548	-2.1823	1.9229
3000.0000	0.5058	23.2768	8.9007	-10.0488	5.9161	-16.0603	44.7726	19.8353	9.0998	-0.1081	25.3530	1.4605	6.2623	-7.6547	18.8134	7.1227
3008.0000	5.9323	24.9186	10.2652	-10.6461	0.5446	-3.5629	31.7085	49.1797	4.8419	-6.7766	19.2649	-0.0212	5.9164	-0.0007	15.9043	10.6283
3016.0000	8.7644	23.1441	8.6836	-7.9214	-2.4930	-10.8085	12.0986	37.9252	2.7145	-7.3041	9.3231	-0.1287	1.5956	-0.1853	8.6699	9.7248
3024.0000	6.3227	24.9612	1.4213	-10.5268	-3.2994	-19.5423	-30.6779	5.5396	7.6236	0.4517	10.1514	5.1943	0.2512	-5.8653	3.7893	4.1060
3032.0000	4.1768	29.4560	0.5701	-12.2422	-3.4441	3.6218	-43.8532	2.6334	11.8868	3.4677	15.5436	9.2190	2.6673	4.7038	-12.0831	2.0246
3040.0000	-3.8801	22.9499	9.2391	-6.6038	-3.1947	-13.0353	13.3904	-7.8217	8.0612	-5.6787	19.1403	-4.5809	1.2188	-1.8890	-4.7433	3.5128
3048.0000	1.6520	26.7436	13.1598	3.8404	-9.3573	-26.2180	21.2317	7.4592	6.7360	-5.3233	19.9070	-8.0395	-0.5497	-12.4554	5.5316	3.3994
3056.0000	6.8412	33.0498	9.1158	6.8992	-12.2754	-2.2861	-12.1707	14.6861	7.9246	-6.4677	16.3746	-2.8428	-0.5281	-2.7871	-6.6176	3.0974
3064.0000	0.6934	25.7573	8.8973	3.6388	-8.4907	-14.9279	-0.2317	-5.7199	8.7740	-8.0979	17.6297	-3.7324	-0.7585	-7.2877	-5.7844	0.7437
3072.0000	-0.2196	21.3509	10.3588	-1.7773	-6.3027	-24.1182	4.4247	43.9765	8.5813	-4.7916	18.0535	-1.6593	1.6946	-8.6449	0.0905	5.2143
3080.0000	-1.6629	27.8339	3.4234	-12.4411	-7.5638	-13.2776	-38.3873	31.6354	7.2237	-15.9765	13.6576	-6.5922	-0.4936	2.0494	-9.8068	11.1711
3088.0000	5.8871	39.1528	3.7785	-7.9168	-5.4012	-5.7049	-28.0448	-37.8394	13.8342	-8.3588	24.0770	2.2795	0.0404	-10.3443	-9.2996	3.6453
3096.0000	12.8189	31.0979	13.2216	3.2631	1.4793	1.0609	38.5131	7.4105	13.7482	5.2087	24.6316	14.5327	5.2788	-11.6286	0.3171	0.8795
3104.0000	3.9547	8.4655	11.7073	2.7297	0.2163	-9.1279	43.0849	20.6139	0.2945	-9.0695	1.9871	-1.3032	-0.5775	1.2623	-2.7615	5.0722
3112.0000	1.7371	-1.6047	7.7777	11.0613	-5.1467	3.0887	23.3016	-7.1170	-7.0218	-9.8362	-9.6427	-7.2372	-4.2592	-6.2657	-6.5379	4.3001
3120.0000	-6.7311	-17.5814	4.5396	10.5910	-2.7122	6.3602	20.8117	19.4033	-12.0734	-10.3378	-19.3733	-8.9539	-3.3881	0.3644	-5.8605	5.1255
3128.0000	-20.2867	-36.3136	-4.5587	1.1359	-1.5772	-16.7340	-3.7860	8.1640	-15.6059	-17.9495	-26.8324	-22.4137	-7.6087	9.8999	-8.9923	3.2795
3136.0000	-15.2536	-34.0404	-5.7745	14.1970	-8.8806	0.0066	-22.6572	-1.6576	-15.8517	-7.0086	-25.2370	-22.0880	-8.4782	-4.1696	-11.9977	1.3796
3144.0000	-15.3922	-31.2747	-1.7600	19.8682	-13.1653	3.5800	-22.4724	9.1755	-19.1647	-1.8897	-31.7858	-22.8065	-9.5801	-2.3257	-15.0407	3.0912
3152.0000	-24.9503	-39.4668	-3.3259	11.7852	-9.0656	-4.3508	-10.6384	11.9680	-16.3015	6.3043	-22.1231	-28.1049	-7.3261	2.3660	-14.5840	1.0076
3160.0000	-26.4601	-44.2239	-3.7574	12.7096	-9.9974	9.4272	-3.5289	31.3449	-15.8043	10.6828	-11.2309	-31.3171	-3.4508	-7.2541	-8.5347	2.4308
3168.0000	-21.1005	-40.7256	-0.7637	12.8879	-4.4419	-1.0069	20.8301	51.8691	-20.3012	-1.3660	-23.9571	-30.1308	-5.6396	1.3266	-2.1370	9.8079
3176.0000	-16.7817	-41.0212	-2.9143	8.1094	12.6353	-1.9023	57.1540	68.9584	-16.7517	2.8297	-24.0867	-18.7563	-2.3601	8.7274	5.2860	13.9192
3184.0000	-15.6291	-42.4036	-7.1799	-3.7060	4.9583	1.6459	9.8267	21.0894	-16.1092	5.1074	-19.9512	-15.3173	-1.7129	-4.6396	6.0314	6.6115
3192.0000	-5.8334	-29.0659	-2.2933	-10.8084	-4.6014	4.8514	-15.6344	-12.8821	-15.1450	6.8656	-20.6895	-5.6468	-1.6108	-1.5990	3.5944	-1.7726
3200.0000	-2.3792	-20.7676	0.3369	-10.3684	13.8169	24.9374	42.8804	45.8190	-10.8844	19.2638	-16.8753	6.8598	5.6302	18.6396	9.4817	6.8380
3208.0000	-11.0753	-25.5054	-2.1413	-18.5360	13.9780	4.3601	32.8508	22.0050	-15.3717	12.2899	-23.3285	-2.2202	2.2778	14.2574	14.4873	10.4752
3216.0000	-8.1458	-25.4978	2.0626	-19.0465	-6.7429	-4.1302	-10.9680	-49.9981	-17.1898	6.1991	-21.8678	-2.8187	-0.7676	-5.6620	12.9550	-5.5311
3224.0000	-2.1286	-20.2313	1.1573	-8.2082	-12.6973	21.1155	-26.5334	-55.6019	-12.8019	10.8499	-13.9619	2.7952	1.3127	-6.6745	6.1255	-13.1330
3232.0000	2.2670	-8.2200	-0.8686	0.5618	-2.0243	10.6079	-5.3222	-7.1721	-7.8177	15.1228	-13.3581	1.4727	-0.7907	3.1319	3.6258	-1.4725
3240.0000	1.5152	-5.3929	3.4156	1.6199	7.9537	3.2873	38.7395	66.6002	-5.4667	16.0364	-9.1245	0.1785	1.7247	11.6445	6.6276	10.1072
3248.0000	-7.8602	-12.2960	0.3244	-10.3307	-2.3567	8.4835	-4.5814	11.9961	-10.5511	2.9289	-12.0612	-8.6277	-0.1157	9.6903	0.6244	4.9123
3256.0000	-4.4222	-5.2999	-1.9566	-14.5102	-4.4785	4.5674	-28.0561	-53.3178	-5.6354	10.0527	-6.6293	0.5005	-0.0728	-2.2217	2.2566	-4.5492
3264.0000	10.0024	1.5992	-1.6058	5.2911	1.2655	13.3931	-7.2740	37.2152	10.6730	10.2128	15.4874	14.2451	5.2465	-5.9199	-4.8279	-5.9529
3272.0000	1.3555	-7.2564	-0.0720	-0.2816	-0.5698	6.3663	4.1371	21.6640	1.1328	-1.4610	5.1570	0.4975	2.2703	0.6387	-0.7331	-2.5617
3280.0000	7.0002	-3.9197	-1.8270	0.3200	5.2301	-2.8407	19.1677	-19.5776	4.2977	2.7233	7.5111	6.8070	1.8644	-3.9116	8.1243	-7.7115
3288.0000	5.7076	-5.9927	-8.9590	-1.3885	6.4849	-2.8965	-9.3382	-10.3358	4.7572	3.4633	3.1677	6.4860	0.6112	2.7104	4.1572	-6.7254
3296.0000	2.1927	-7.8150	-9.5963	2.4447	9.5901	1.0180	-1.5438	4.2129	5.6435	3.6161	4.7885	6.2127	1.7028	-0.0449	3.4198	-3.6905
3304.0000	4.5280	-5.7159	-4.6979	3.7399	3.8503	11.8382	2.9518	-16.9588	2.8162	4.4161	4.9758	5.3396	1.6631	-6.2761	1.8869	-4.9527
3312.0000	4.8361	-4.6359	-3.1565	-0.8757	-2.2449	-0.4762	-9.2980	-80.5325	3.3894	6.3441	6.1503	4.0349	-1.4034	-11.3027	-2.0983	-14.0036
3320.0000	5.6141	-3.9040	-5.2359	4.0560	7.0806	-3.2031	8.4140	2.2280	8.9164	12.7987	13.0600	9.4696	3.2211	-7.9756	6.1925	-7.3003
3328.0000	2.2401	-7.8010	-7.0214	1.0495	8.4543	17.4677	7.5752	66.1680	0.9248	2.2394	4.2039	-0.9719	3.7624	7.4410	4.1627	7.4730
3336.0000	1.4147	-5.3807	-3.8561	-0.3583	7.5371	13.0288	27.0001	-8.6455	-2.5074	-5.0057	1.1766	-5.4611	0.6385	6.0275	6.8156	2.9676
3344.0000	3.2381	-2.6366	-3.6962	1.8087	5.9387	-4.7403	17.9066	-14.4633	1.1985	2.9311	4.8746	4.8611	2.7462	-9.1604	22.4126	-4.1319
3352.0000	3.6507	-4.9406	-0.9527	-3.9939	-7.8992	-2.7648	-28.1372	-8.2377	-2.4048	1.6128	-0.9493	6.9961	2.3476	-14.5272	15.6457	-7.8047
3360.0000	7.2319	-0.1331	4.7807	1.4548	-2.1414	12.7026	11.0142	11.2594	-1.2865	2.3553	0.1092	11.9492	4.6998	-5.9726	11.5244	-4.6662
3368.0000	4.8243	0.4411	-2.4199	1.7045	12.6289	14.8083	27.0549	51.0336	-0.0369	2.9530	-2.5782	12.5923	6.1726	6.1713	17.9982	5.5719
3376.0000	4.3808	-0.6890	-6.0637	-5.7026	7.9263	6.5304	-5.2654	4.8085	-0.2064	0.8449	-4.7962	10.3832	2.8566	4.9324	12.0963	0.2303
3384.0000	7.0825	2.1990	-2.0727	-1.8359	0.6033	13.3202	-10.4386	-13.1556	0.6983	7.6680	-1.2408	12.0251	2.9177	0.8993	6.7491	-5.8727
3392.0000	1.0032	-0.3779	-4.0889	-1.3419	-1.4220	21.3300	-27.3254	11.7947	-3.7860	6.8643	-8.1633	4.2740	1.4145	4.7685	-0.3131	2.2083
3400.0000	-1.6046	-1.3611	-0.0739	-3.6537	4.9128	13.8365	8.2942	42.0859	-3.2618	4.5479	-4.6327	1.2215	2.7740	7.8950	2.0907	8.5963
3408.0000	-4.0106	-4.0434	4.6578	-8.4980	7.3968	8.6048	43.6161	74.4909	-4.6086	3.8657	1.2756	-3.4244	5.9936	14.0878	13.6942	10.9098
3416.0000	-6.4812	-6.5642	1.0870	-12.9557	0.3277	13.6769	10.5120	26.4144	-10.3319	-1.9226	-7.2084	-10.5123	2.0062	14.6141	8.3279	8.8766
3424.0000	-1.2269	-1.7446	2.2244	-10.3088	2.1218	6.9415	14.9042	-1.7585	-5.7608	3.9621	-3.7581	-1.4944	1.9916	4.2776	9.1441	4.1198
3432.0000	-0.9061	0.4870	4.9947	-13.3961	0.2865	1.9865	21.7379	8.1958	-1.8950	4.7271	7.7315	0.3112	5.3077	0.2508	16.0387	0.4141
3440.0000	0.1358	6.2100	1.1764	-11.3149	-4.5889	11.0156	-3.8384	-46.3434	1.4967	-0.8625	13.8088	-1.2992	3.4767	-4.2229	7.9670	-5.8164
3448.0000	2.2701	10.5648	0.4076	-4.5459	-3.3030	-12.7975	-13.5962	-14.3941	7.3009	5.2873	13.5499	1.6328	0.7439	-4.8928	1.2982	-4.7027
3456.0000	-1.6385	5.5607	3.9729	-5.0487	-4.4965	-26.1962	-8.7920	90.6607	4.6239	-0.9145	8.1580	-8.5029	-0.3653	12.3530	-6.8650	6.7376
3464.0000	-1.6573	6.0982	1.5675	-3.2198	1.1055	6.2030	11.7780	14.4180	3.5700	-7.9104	10.0395	-9.2771	-0.2658	12.7324	-13.1709	4.9330
3472.0000	-1.8048	5.5824	1.3725	-5.1815	0.9165	0.8816	13.2998	-82.3596	4.8706	0.9439	12.4566	-1.6927	-0.4775	-5.0234	-5.4902	-7.2811
3480.0000	-0.3486	3.4271	5.6297	-7.3349	-5.1793	-11.0796	2.6281	19.8446	3.9847	2.5346	12.9610	-3.4614	1.6459	-1.4677	-2.4316	-1.1197
3488.0000	1.3121	6.5675	3.7276	-7.6820	0.9244	5.3545	9.3789	59.2252	4.3551	-0.5570	13.6202	-3.3574	3.4954	4.6322	-5.5158	8.8581
3496.0000	-5.3327	1.4192	4.5098	-15.2696	-1.4514	-5.3121	7.1441	-2.0459	-1.2781	-6.9358	5.9733	-7.1355	1.1334	0.8244	-0.3470	4.5182
3504.0000	-3.0498	1.2506	4.7588	-15.1352	-3.4365	-7.7225	2.0775	23.5372	-2.0141	-7.1159	4.1167	-6.2426	1.6820	6.2940	3.1628	3.8681
3512.0000	3.7705	12.2830	-0.1849	-9.7749	6.2213	0.6134	1.7359	3.6638	6.0450	8.6466	7.5544	5.1922	1.6526	7.0244	-4.7227	4.1921
3520.0000	0.7802	10.1271	1.7836	-8.9907	1.8411	-2.3169	-3.1329	-29.3092	4.2019	6.4110	5.2389	3.9012	0.1256	-0.0482	-6.9424	0.3958
3528.0000	0.1704	4.1454	3.4002	-9.2225	-7.4881	5.5231	-16.7005	-4.6055	0.4115	-4.8406	7.1323	-1.5704	1.5903	-4.4317	-3.2388	-0.4860
3536.0000	1.0264	8.1930	5.1464	-11.0505	-3.0091	-9.3752	-1.6987	-27.6802	4.1348	-0.0205	9.9950	0.5530	0.1298	-7.2688	-5.8530	-1.0279
3544.0000	0.3745	9.9606	8.3800	-8.3346	7.8727	-16.4560	46.3429	16.1921	6.1209	2.4228	12.6656	2.8199	2.9998	0.7408	3.5189	4.6423
3552.0000	0.7612	7.9562	2.2314	-9.5285	7.2544	6.1143	26.1668	58.0559	5.1819	2.9643	15.0002	2.8719	7.1612	10.2447	10.1072	6.1086
3560.0000	-2.0686	7.6073	-0.8324	-15.7794	-0.9970	-8.9202	-13.2490	-27.8034	4.2951	-0.0068	10.1216	-3.3791	0.2985	8.1659	-2.7290	-2.6964
3568.0000	0.3884	11.5311	2.4728	-5.7360	2.6644	-17.7151	19.7142	-27.2238	4.5507	-1.6363	9.3036	-3.9223	-0.9908	6.4645	3.3403	-1.3180
3576.0000	7.1971	13.9447	3.1118	9.2675	1.4125	8.1814	25.1543	53.3573	2.1010	6.7817	7.1609	0.5221	3.1446	8.0529	12.2750	4.9220
3584.0000	4.4465	9.1841	1.7610	8.0176	-6.6698	-2.3952	-11.6367	43.3246	-1.3686	-1.5583	-2.4988	-7.3841	-2.9118	6.0160	-3.5397	6.2056
3592.0000	0.8581	9.1378	0.2088	3.0128	-1.8121	-23.7494	-8.3145	-3.8406	3.0227	-6.8086	1.4415	-7.9791	-5.6139	-3.6170	-7.7688	4.7554
3600.0000	2.7151	8.1506	2.9335	6.2451	1.1177	-14.4022	14.4056	3.3139	6.4145	3.6201	10.4109	-0.4254	-0.9809	-11.2110	-2.0861	1.6436
3608.0000	-0.7329	1.9915	1.1740	5.1634	-5.0763	-3.9195	-8.3038	24.3139	2.8551	-4.8692	7.5344	-6.4153	-1.0218	-6.2949	-7.0840	2.4004
3616.0000	-3.1920	8.4783	-1.6379	-0.0698	-12.5201	4.3275	-47.4895	1.4156	2.3729	-4.0521	8.0980	-7.5473	-0.9071	-3.5336	-8.4260	-0.7565
3624.0000	-1.0625	9.9737	5.0086	3.1724	-12.0137	3.8206	-15.9583	6.1082	3.0263	8.1262	12.0376	-4.3761	1.1329	-4.3725	-4.0498	-3.2742
3632.0000	-2.9792	1.2607	5.3082	6.6093	-2.3761	-9.3347	25.4237	39.4547	1.8183	-5.9371	9.5495	-10.2643	0.0259	-0.0982	-0.4106	3.5123
3640.0000	-0.9304	7.0982	1.3740	6.4532	0.6557	-1.6606	15.1058	21.6114	3.0788	-14.7626	8.6986	-6.1095	0.2870	-1.3565	1.6809	4.6963
3648.0000	1.5597	8.2044	-0.7859	1.5422	6.4991	4.1194	15.4006	-7.5600	4.8686	-4.6630	7.7380	3.2852	1.6094	-2.9850	1.9458	2.6919
3656.0000	-2.6400	0.0875	-4.2822	-7.2023	12.4113	-7.6983	13.4030	1.9152	3.8691	-1.1223	2.4467	3.4155	1.2869	3.5184	2.6178	4.4891
3664.0000	-0.7611	2.6263	-0.5729	-5.2946	-0.3373	1.9131	-9.7993	4.5550	-0.3594	-6.7774	-0.3508	0.6969	0.8794	1.9200	1.3040	1.9422
3672.0000	0.8041	2.6529	0.8923	-3.2461	-8.6471	1.0586	-23.8593	-53.6970	-0.9322	-8.1644	1.3338	-0.3949	-1.4527	-11.7348	-1.2444	-6.0503
3680.0000	-3.8202	-1.2910	-0.5688	-2.0314	-3.0238	-15.9623	-14.4721	-42.1365	1.9913	-0.4000	2.3830	1.3914	-1.2226	-13.5027	1.8033	-6.3482
3688.0000	-5.7861	-4.7271	2.1718	6.5360	-1.4569	-8.6312	6.0564	48.7771	-3.6230	-4.4707	-5.7097	-4.4127	-0.0710	-1.4249	5.0809	5.3017
3696.0000	-6.9584	-11.5467	1.8380	4.1336	-9.3595	-12.3933	-11.9661	10.5100	-8.7961	-10.5389	-11.1466	-13.2730	-4.4374	-6.5728	-0.4112	2.5155
3704.0000	-6.6753	-13.3307	2.4527	0.9813	-15.8075	-18.1346	-30.9895	-16.9983	-6.4672	-5.4691	-5.3487	-12.7589	-4.9821	-16.8129	-4.8512	-4.2887
3712.0000	-6.8865	-9.3958	-0.2438	3.0022	-7.0639	-5.2430	-14.2583	25.7421	-8.0766	-10.5835	-8.7861	-14.9207	-3.7029	-5.0321	-1.6665	7.4298
3720.0000	-5.3813	-3.3841	-2.3658	-1.9499	-1.8547	-7.7764	-8.7877	-29.5429	-6.8986	-7.9300	-10.4921	-11.3065	-4.8970	0.3740	0.4438	3.9277
3728.0000	-0.8414	-6.7226	0.8954	-4.5752	-3.5006	-6.3148	-4.1435	-39.4497	-4.0844	-0.3881	-5.3975	-3.0774	-2.6379	-4.2964	-1.3019	-3.8268
3736.0000	-1.2615	-16.0682	-3.7857	-9.0900	4.9770	0.6884	5.0521	-22.1842	-9.1406	-10.0726	-14.4315	-7.5593	-3.8938	0.0839	-2.5757	6.5083
3744.0000	5.4995	-8.1951	-0.3787	-8.1939	3.7778	2.1698	14.3956	-39.2086	-8.9630	-7.9308	-13.6761	-3.1829	-3.6281	-1.9010	2.5568	4.5335
3752.0000	10.1566	-4.0082	4.3811	-4.1787	-1.3301	3.7040	12.0086	4.7994	-6.0995	0.0240	-8.3835	3.8958	-0.2222	-3.6397	5.4275	1.7916
3760.0000	2.9436	-3.9102	4.1251	6.3523	-2.4319	-1.3174	15.6604	6.5081	-5.6630	-3.3722	-9.1730	-0.5413	-1.3718	-1.5740	5.1042	0.1610
3768.0000	-2.2539	-4.4299	-2.5340	0.8032	-6.7740	-7.3240	-31.5906	-17.9686	-6.4362	-12.7785	-15.1064	-7.0285	-5.9041	2.3738	-7.1266	0.3835
3776.0000	-6.2668	-3.8459	-12.4743	-2.3679	-3.7982	-11.2837	-62.7545	-114.3088	0.6532	-8.1998	-9.3039	-4.2118	-8.6317	-4.1247	-16.6751	-10.3333
3784.0000	5.1108	4.5020	0.4086	21.5557	7.6429	9.7057	33.8237	11.5739	3.6368	3.3364	-0.3684	5.2239	-0.5851	-1.5441	-3.4106	1.9982
3792.0000	-7.0794	-3.1877	-3.5409	13.1937	12.8759	-12.4844	34.1928	71.8715	-1.8357	-9.7575	-9.7366	-9.1197	-2.4646	15.4960	2.4993	14.2482
3800.0000	-13.1417	-12.4062	-11.1013	2.0031	11.1689	-22.2717	1.4803	-1.1384	-2.0218	-13.1047	-8.7611	-12.8654	-4.9072	4.7239	1.6999	7.1455
3808.0000	3.0058	-0.8179	-0.3076	10.8135	-0.3046	1.4184	14.9083	-3.2661	-3.5001	-7.8933	-3.6220	-6.4961	-2.7016	-4.6078	4.8785	2.9316
3816.0000	0.9625	-0.1310	-4.2368	3.0157	-3.6244	-15.3972	-22.0605	-11.1532	-0.3620	-10.4208	-3.7693	-7.1954	-5.0710	0.1113	-2.8431	-0.7395
3824.0000	-0.9229	-5.3841	-10.7446	0.9374	3.8798	-7.1126	-30.6079	-43.2677	4.0384	-1.5321	-1.3576	2.7080	-3.0081	-5.8846	-5.5485	-5.3156
3832.0000	7.2198	0.4097	-6.0285	6.7443	0.7807	11.7570	-13.7877	-61.6467	-0.3229	-1.6292	-6.6286	4.3734	-3.3989	-0.5006	-4.3847	-6.7667
3840.0000	10.8292	5.6835	-4.7806	7.4214	9.0639	-13.1256	15.7763	-39.8949	5.6358	-1.7500	-1.3110	5.2225	-4.3065	6.0443	-1.5464	-4.8942
3848.0000	6.7606	0.3886	-5.3540	5.3479	11.4316	-8.3906	22.4688	-38.6121	5.0022	4.3964	2.4612	7.4952	-0.8490	-5.4713	7.9826	-4.0928
3856.0000	-4.6727	-10.9296	-6.4586	-2.5390	-9.1595	0.4999	-38.8181	-97.2115	-7.3729	-9.0943	-10.2017	-6.5514	-4.8204	-8.7588	2.1871	-11.3325
3864.0000	-8.9925	-12.3874	-6.3506	0.6675	-2.5410	-14.1943	-18.6165	-46.3733	-2.1951	-11.6415	-4.2970	-5.1777	-2.4304	-2.9906	6.1480	-9.7828
3872.0000	-10.6782	-13.3285	-7.2921	7.1886	11.7266	-4.2066	28.6585	22.8809	-1.7601	-9.1190	-0.8478	-1.8243	3.6136	-1.3343	24.6430	1.3067
3880.0000	-8.3483	-9.9680	-7.9802	6.5671	5.9221	4.1989	11.8858	-15.5865	-6.8053	-15.2253	-6.8288	-7.6027	0.1821	-4.3148	22.0421	2.6274
3888.0000	-1.3571	2.8230	-6.1128	5.7410	4.8033	8.9536	1.8536	-28.5846	0.6776	-2.6229	2.9176	3.2924	2.2806	-9.6404	17.2975	-1.3359
3896.0000	-3.4736	2.8041	-10.0313	2.4780	4.7871	22.1810	-19.9696	-20.0574	-0.3385	1.4200	0.7362	3.7618	3.2471	-6.6289	13.8682	1.7787
3904.0000	0.0869	6.9593	-9.5066	5.2363	10.4991	12.9763	-1.2584	7.0241	0.5801	-1.5564	-0.6790	-0.9963	0.3723	-1.9149	8.9027	11.0347
3912.0000	1.4609	11.6093	-2.6294	4.5020	13.9234	1.0668	32.6333	35.6444	6.7115	6.7323	11.5460	5.0369	4.5357	-3.4293	15.4274	9.2524
3920.0000	-4.7264	2.6536	-0.5308	0.1806	5.4825	3.7107	22.5732	20.7146	2.0125	1.0372	9.7313	1.2170	5.6251	-1.4726	18.7242	1.5747
3928.0000	-3.3717	9.3233	-1.1265	1.7924	1.1270	5.1535	4.7583	27.0902	2.5278	-3.0712	10.7812	-0.0673	5.1530	-2.0818	18.8018	2.6126
3936.0000	-8.4138	12.6799	-5.3551	-4.1230	-6.4941	9.8261	-47.2206	19.1372	6.4927	2.0251	17.2608	-0.2928	5.7846	-4.1678	8.4551	-0.8993
3944.0000	-6.9641	4.0683	-3.1149	-1.5891	-1.2235	10.5446	-14.6249	20.4671	4.9559	1.4469	13.8021	-4.2382	3.5120	2.1704	-1.9678	1.1648
3952.0000	0.2542	5.9087	2.5928	0.1679	12.4866	4.1627	53.8384	20.1427	3.0192	3.8553	9.9620	1.7794	4.5019	0.3870	12.8612	7.3117
3960.0000	-7.8962	-1.0947	-3.6704	-14.6849	8.8572	4.9097	7.5774	-9.3426	0.1316	5.5404	5.8147	4.7808	6.3832	-2.9845	19.2382	2.2845
3968.0000	-5.3306	-4.5958	-4.2212	-11.4646	13.0483	5.0212	15.1291	78.6754	-0.3772	1.3960	1.4308	2.9370	6.7409	10.4081	14.9256	11.9549
3976.0000	5.6641	14.2451	3.1632	-5.4842	8.4123	7.7414	25.9432	91.8597	-0.7238	-1.8127	0.7976	3.9269	5.4204	13.2469	15.8826	16.5151
3984.0000	5.6651	25.9963	3.1827	-9.0129	-7.1096	15.1059	-25.6980	-42.2595	2.1185	5.0753	6.7008	7.7926	2.9325	-0.3466	6.9619	-2.1626
3992.0000	2.8921	20.6316	1.5323	0.4817	2.8543	5.8852	-0.6806	-3.3131	7.5170	11.7960	9.6893	10.4606	3.5345	-0.1691	3.1062	0.6184
4000.0000	0.4933	19.9042	3.1001	3.0604	3.4591	-1.4412	8.2756	52.8336	3.4376	7.7859	3.4197	-1.1146	0.6105	7.6187	-1.5554	13.2043
4008.0000	-0.1183	25.8092	7.1646	2.3795	-8.8851	5.3960	-4.2588	-20.0487	1.4247	13.0279	8.5812	-10.4882	-2.6068	-0.2281	-9.7068	7.0946
4016.0000	-5.6005	20.6250	5.9178	8.8485	-7.7561	-0.1024	-4.1804	-10.2796	5.7634	13.5383	14.6467	-5.3354	0.1715	-10.7859	-5.0610	2.0987
4024.0000	-8.8224	21.0755	1.1021	5.3385	-8.1202	-12.8102	-36.5107	10.4540	7.0955	1.1846	8.9704	-5.6481	-1.8040	-1.9495	-10.5700	3.4511
4032.0000	-6.8776	30.1412	3.8154	2.3623	-4.0696	-17.2810	-11.9724	-15.5359	10.6871	10.2932	15.8474	-7.6719	-2.6185	5.8935	-14.0019	3.1512
4040.0000	-14.3360	25.8296	5.9063	5.0268	5.1266	-9.6734	30.7452	38.2535	11.3431	22.2945	23.2555	-6.7985	3.9161	5.9385	-0.7267	9.3974
4048.0000	-11.5100	34.1690	4.5323	6.7398	6.8219	3.5417	24.2645	90.8870	6.6217	14.7627	13.3423	-11.2282	2.7941	19.3144	-2.3403	23.7155
4056.0000	0.4370	41.1563	4.9815	5.8231	0.7505	11.1840	-5.5142	39.4776	6.0408	8.1946	4.4304	-1.6760	-0.6688	17.5573	-13.2832	17.4284
4064.0000	-0.6996	14.9532	5.6734	-2.2890	-4.8964	16.3728	-27.7570	1.3367	4.6642	2.4606	0.4758	15.7371	3.4709	-0.4370	-14.5047	-1.5429
4072.0000	-2.6591	-2.4070	3.8613	-6.6318	4.3845	4.7229	3.6299	24.6327	-0.2062	-3.8553	-6.1782	9.1344	2.1049	1.1428	-10.0049	5.1472
4080.0000	-3.5702	-7.4244	-1.3605	-4.6675	15.7975	-4.2792	28.1763	34.1428	-2.0070	-4.9743	-10.9993	2.9328	-0.3019	4.5219	-4.4009	13.5712
4088.0000	-5.9710	-17.7964	-0.4804	-7.1182	15.4286	17.6828	30.8656	55.5976	-4.8077	-12.7897	-12.9044	9.6677	5.0958	8.8339	-1.1105	9.8253
4096.0000	-5.7859	-13.9496	1.2494	-9.1432	9.1395	18.5479	23.7581	34.9795	-8.1551	-20.6430	-15.1560	2.6417	2.8474	14.6921	-2.2812	8.6833
4104.0000	-3.5656	-2.7387	-2.0041	-0.6628	4.6127	-2.6477	-0.7539	-28.0675	-1.7041	-7.6485	-10.4839	1.6915	-2.7307	5.0372	-7.2987	0.3593
4112.0000	0.9466	5.3834	2.9026	12.8487	2.1388	-0.0062	12.0865	7.9563	3.7598	3.7903	-2.1583	6.6347	-0.7204	2.3028	-8.8795	-1.4247
4120.0000	-7.1124	4.8950	2.7172	14.8288	-9.0419	4.8292	-16.1171	25.5803	0.6154	-3.2233	0.1338	-6.5058	-1.6119	0.4981	-12.3964	1.0492
4128.0000	-21.3754	-5.0423	-6.0841	10.9772	-12.5119	-0.9706	-56.4822	-16.6200	3.4598	-1.8476	5.7692	-14.6127	-3.1912	-3.2947	-21.5686	-6.2952
4136.0000	-19.9312	-5.9058	-2.9679	14.3510	-5.9478	-3.3228	-15.8499	18.3157	5.8998	0.6365	11.5709	-16.9073	-1.8966	5.4575	-21.5681	-3.1901
4144.0000	-12.7573	-1.8967	2.5747	13.2114	-6.0703	6.8522	6.8249	65.2829	1.2355	-6.3600	9.8093	-20.0062	-0.7044	7.6945	-16.3919	7.4200
4152.0000	-10.5865	-4.0956	1.1731	0.8604	3.5237	12.4473	24.1359	61.0655	1.8150	-3.6170	11.1706	-14.7406	2.0253	12.7028	-13.1809	10.2917
4160.0000	-11.5751	-9.3783	-3.2815	-11.1771	7.2174	-6.2716	19.1493	-6.0964	6.9147	0.5139	17.3080	-12.5993	0.7191	14.2403	-14.6390	-1.4848
4168.0000	-9.5516	-11.8638	-3.6671	-7.6272	-4.1496	-8.8295	-19.7859	-36.1045	9.8880	0.5910	19.2029	-10.0941	-1.6145	6.2439	-27.9726	-13.0420
4176.0000	-0.9207	-6.2124	4.1301	6.2272	-10.5329	4.5678	-7.4962	8.5071	7.1756	-1.0048	13.7120	-11.0694	-3.2927	10.9732	-38.7907	-8.4936
4184.0000	0.2410	-5.3764	1.9063	8.8855	-20.8817	-1.9990	-35.7217	-58.4613	6.0226	-2.8224	14.8431	-17.5762	-7.7453	-1.0754	-39.1554	-17.0321
4192.0000	-0.1317	13.7224	-6.4435	4.4379	3.3627	11.5936	-17.7544	-14.5382	1.3101	10.5435	0.5144	9.4621	3.7526	-6.0352	21.4752	0.3762
4200.0000	4.5694	15.7318	2.8114	7.8509	5.3378	18.2744	24.2514	38.5485	1.5006	15.3101	5.4426	13.8743	8.0696	-6.8201	26.5977	4.7649
4208.0000	9.0198	19.3154	7.6082	5.9608	1.5923	8.4133	27.9093	60.0726	-2.0179	10.9564	-0.1037	6.4399	4.1294	-2.5824	19.9067	11.9261
4216.0000	-1.5669	11.2338	-1.7416	-13.1050	4.6121	5.7663	-4.6146	31.7860	-1.1202	11.5021	3.5711	2.9816	5.5568	1.9732	20.6558	9.7328
4224.0000	-0.1388	9.4381	-3.6255	-13.0869	-0.7961	4.1227	-34.7717	36.5571	1.8482	15.1960	5.8850	7.9880	6.1620	-2.3115	16.7383	3.6394
4232.0000	4.7006	15.4741	4.8504	-7.6891	0.3595	7.0235	-0.0046	44.3016	0.2597	13.2011	2.4439	8.4513	4.9665	0.8993	11.0161	8.0828
4240.0000	-0.8908	15.0344	7.3945	-14.5705	-2.9253	13.5846	5.3944	19.8656	-0.3470	12.9326	8.4487	4.0675	6.7980	7.3816	10.6808	3.3404
4248.0000	-0.1444	13.4778	7.2110	-13.6921	-13.0737	9.1301	-23.1100	25.5351	0.2399	12.9865	11.0990	-0.2392	5.3140	7.3539	5.1066	-2.0947
4256.0000	-2.5605	13.4171	9.1604	-14.6955	-4.1909	0.4772	5.4406	47.7002	-0.2515	14.6130	8.4713	-0.9331	5.1259	6.2227	6.2580	7.5426
4264.0000	-5.2135	17.2381	8.7912	-16.6471	-4.6716	0.7174	-2.7594	-13.6014	3.1019	20.6137	13.4114	4.6499	5.6230	-5.5523	5.5261	0.8381
4272.0000	-0.6464	17.1379	9.4000	-5.0157	-13.8054	9.2632	-21.5955	2.6934	5.1694	20.3602	16.6382	5.4722	5.3191	-8.0853	-1.6642	-5.3253
4280.0000	-4.7393	7.5168	11.0345	5.3375	-7.6847	8.2339	14.6130	131.5522	-0.7407	7.6171	8.9440	-8.3752	5.0361	5.6608	-1.0290	13.9858
4288.0000	-10.5076	3.4820	6.6863	7.5929	-12.0502	5.5720	-6.2486	57.1438	-4.5714	-3.2788	3.1434	-17.2498	-0.3997	-4.9615	-5.5439	10.9735
4296.0000	-9.4149	2.7894	3.7741	10.7900	-17.1130	6.5253	-30.8866	-24.6373	0.5585	1.4890	9.0640	-8.7471	-0.8108	-19.6227	-8.6376	-5.4746
4304.0000	-8.6948	3.7088	6.2161	14.1090	-5.2428	1.1374	11.1538	91.3111	3.1202	5.5495	11.1329	-7.2860	3.2710	-3.3048	-2.5912	7.3566
4312.0000	-11.5646	6.7805	3.9449	11.4642	0.2434	4.2779	25.0049	61.2186	-0.0883	3.9337	6.0109	-14.0702	0.9170	7.8687	-2.2553	11.6214
4320.0000	-14.3457	1.8310	1.6413	6.6444	2.6490	-0.0719	24.7136	-0.8935	-0.1020	6.8670	5.0975	-8.8932	1.2268	0.6815	4.0090	3.2930
4328.0000	-11.7380	0.7967	1.9719	3.4305	5.6172	-12.1809	25.0411	60.6201	-0.2703	1.9558	2.5520	-5.4529	2.8001	-0.3626	12.1151	10.2439
4336.0000	-9.3537	4.0105	2.4533	0.4294	-4.9764	-7.2869	-4.7904	8.3615	-1.5765	-2.0210	1.5545	-8.4539	-0.2736	0.3249	2.4524	2.6007
4344.0000	-8.0762	2.8054	10.0019	1.9260	-15.8776	-8.8075	-9.8539	-4.1856	-1.4650	0.2150	3.1957	-7.5788	-0.9019	-0.7071	-7.5532	-6.5063
4352.0000	-9.2916	2.7047	10.7129	2.5172	-17.8871	-8.6699	-17.9959	52.3467	-3.6560	-6.6428	0.6494	-13.3122	-1.3092	0.8629	-10.9142	3.1625
4360.0000	-13.5590	1.0302	3.4484	2.4248	-17.1734	3.2208	-37.1244	-13.7477	-1.7675	-5.0881	4.0847	-16.7935	-3.1862	-2.1918	-19.7592	-1.5462
4368.0000	-9.4134	6.3040	7.2339	8.4550	-10.4435	3.9194	-0.4345	-24.2167	1.9705	1.1810	7.6629	-10.4266	-2.2507	-1.5355	-19.5929	-2.8219
4376.0000	-11.7753	6.4911	3.5077	4.1203	-2.4086	2.0191	9.3469	13.7720	1.0100	-0.3177	7.2747	-11.5728	0.1323	3.2169	-6.5966	5.6480
4384.0000	-21.0903	-8.9357	-6.5118	-4.4189	1.6322	-2.3533	-11.5757	-14.2040	1.7316	2.9660	9.3087	-13.3792	1.0376	0.5302	-3.0014	0.0332
4392.0000	-10.2495	-4.0155	3.3603	1.3227	0.8922	-3.4090	20.4254	8.3330	0.0045	-2.5987	4.5136	-6.7039	0.9276	-1.2206	-2.1439	2.0857
4400.0000	1.0424	7.2454	11.4429	3.8063	-5.0057	1.5565	29.5473	30.4984	-1.2109	-8.6981	4.3446	0.0987	2.7965	-2.9840	5.9018	2.1927
4408.0000	-2.0807	-0.5082	5.3165	-3.1725	-2.2149	-1.7122	12.3814	23.1071	2.0919	-2.4254	7.8853	2.7900	4.1025	0.2487	4.4302	-3.3198
4416.0000	-2.8156	-3.3459	1.3291	-11.0967	3.5346	-0.8542	5.5296	41.4997	0.5581	-4.0334	1.2659	1.7414	3.2108	12.0262	-0.9488	3.0308
4424.0000	-3.0460	-5.0458	-0.1177	-15.5977	-1.1831	-8.3936	-17.8855	17.6853	2.2103	-6.4423	3.4421	3.9367	2.9078	6.7189	-1.1702	-3.8677
4432.0000	-0.1530	-5.6381	3.1398	-11.5779	-3.7639	-14.7608	-10.6853	-6.0774	3.4574	-6.6895	4.8452	4.7311	1.0102	-1.1661	-6.0026	-8.0560
4440.0000	5.7183	0.2257	6.9908	-10.9484	-6.4649	2.9153	-2.4215	-3.6851	-2.4490	-5.6717	-1.8890	1.7202	-0.0442	5.1114	-8.0732	-2.1704
4448.0000	6.2463	-2.1025	3.9251	-13.5395	-7.5115	5.5596	-11.9369	-20.3763	-0.9435	-0.8341	2.2383	2.7341	1.0142	6.9301	-5.4030	-8.3366
4456.0000	8.4043	-0.6049	2.3151	-11.7778	0.1169	4.1394	9.1818	-40.3834	0.1544	-7.9462	1.6474	1.5469	-0.9243	8.2171	-7.3783	-5.1609
4464.0000	10.5466	3.2725	2.5914	-13.8687	-2.0285	9.3381	-2.1719	-91.2759	0.6169	-5.0112	1.1235	8.3603	-0.8293	-0.0607	-7.0664	-10.7893
4472.0000	6.7428	-2.7676	1.2056	-12.5953	-5.0681	-7.2859	-25.8154	-50.9025	5.7643	4.7523	5.9461	15.8424	2.0496	-7.3687	-3.5434	-17.1389
4480.0000	1.9764	-7.1570	0.6390	-7.5716	-1.4324	-8.1969	-12.5030	62.7577	-2.1000	-9.5280	-5.2944	-1.0910	-0.0978	6.6936	-4.3227	5.4891
4488.0000	4.4642	-6.6165	2.0269	-5.2931	-4.0527	-0.8611	-2.3125	-4.2985	-5.3701	-11.9427	-7.0586	-4.2352	-2.6112	1.1961	-3.9769	0.7772
4496.0000	11.9384	-2.0344	5.0066	-1.5223	2.1128	-13.1093	25.7977	-39.6883	5.1002	-0.6854	5.4116	13.5703	0.7531	-9.3826	3.1833	-12.4060
4504.0000	6.9057	-3.8221	4.1847	-8.4176	6.6634	-7.7709	29.8642	48.9780	2.2844	-7.6378	4.0098	7.8833	3.9642	3.3771	6.8007	2.0393
4512.0000	-2.2425	-13.1162	0.9306	-16.7099	-4.4065	-6.4992	-13.3484	-10.5314	-1.9166	-10.7984	1.2154	-0.5903	1.2605	0.0544	-1.2996	-6.2884
4520.0000	-0.0461	-10.1489	-0.3630	-11.3432	-3.1579	-16.6843	-20.7133	-36.9703	2.7351	-3.7185	0.5829	5.3442	-1.1391	-3.4355	-8.6904	-11.4388
4528.0000	-0.9084	-4.3626	-1.2688	-10.1381	4.0308	0.5377	-6.8378	5.5418	1.1454	1.1069	-1.8154	5.1340	1.1522	5.1420	-6.8699	0.5996
4536.0000	-1.3539	-4.2806	2.5674	-4.3682	-3.8451	9.1063	-1.9792	-26.7546	-2.3115	0.9860	-1.9794	1.0498	0.4759	3.5436	-5.3594	-5.7420
4544.0000	-0.0188	-4.4628	4.7134	3.5987	-10.4900	-2.2704	-10.3706	17.1764	-5.6498	-6.5885	-9.5766	-6.6158	-3.2787	9.3345	-9.0041	-2.2042
4552.0000	-11.7378	-11.4917	-2.6992	-10.9763	-4.3666	-7.4943	-29.7376	-11.3409	-6.7675	-7.8155	-11.0896	-10.3092	-3.3437	4.9847	-8.5615	2.2319
4560.0000	-13.9567	-11.2655	-2.5396	-16.1771	1.7587	-15.9535	-9.8211	-91.6434	-0.4947	-0.9218	0.5779	-1.1774	-0.8686	-11.3831	-0.5206	-8.2892
4568.0000	-3.4794	-0.2638	5.7180	-3.5391	1.8238	-8.4925	24.7103	5.3806	0.1772	1.0899	2.3428	1.1266	1.8084	0.0897	3.7578	-0.0441
4576.0000	-8.0274	-1.4779	2.1597	-8.1042	9.3658	5.4462	33.9306	34.8019	-3.7432	-0.5983	-2.5425	-4.3535	2.8956	13.2122	4.8480	11.1005
4584.0000	-10.8615	-6.1648	-4.4424	-11.8516	13.2896	-2.3301	22.2866	-10.8501	-1.8950	-0.7294	-1.7659	-3.5618	1.6352	7.0736	6.9537	6.8300
4592.0000	0.0858	0.8797	-0.1556	-1.2458	-1.0138	3.7286	-7.3507	25.3046	-1.9958	1.4978	-3.4432	-1.5942	0.0440	5.4866	-1.1111	4.0818
4600.0000	4.7900	6.7907	3.8010	1.2670	-1.2918	14.1119	1.6776	24.7162	-1.8831	4.0446	-5.2962	2.0223	-0.1107	9.7838	-8.6580	5.1332
4608.0000	3.6064	5.2374	0.9773	-2.5538	14.2062	5.1300	36.3017	9.6227	2.7657	6.5001	-1.6752	8.4128	1.6319	10.8061	-2.4294	6.2337
4616.0000	1.9530	0.1412	-2.4827	-5.7244	10.1697	4.2728	12.9003	-14.9457	0.8560	3.7078	-3.7456	7.0225	0.7244	5.5699	-0.6201	2.2269
4624.0000	0.8931	-5.1641	-3.4898	-7.1102	-0.2402	1.9933	-21.9962	-19.6029	-3.3647	-5.8578	-10.6242	2.0614	-2.0308	6.5535	-5.5733	-1.5665
4632.0000	6.0381	-1.5596	-0.7574	-2.5487	1.6933	-1.0334	-6.0859	39.5284	-2.4352	-8.0291	-10.3878	1.7255	-1.6154	13.8391	-5.2691	4.5803
4640.0000	7.3633	1.5908	1.4622	-1.4904	1.4031	1.9774	5.3584	5.6396	-3.3200	-3.8215	-7.8705	0.1459	-2.4082	1.9740	-3.7125	5.8820
4648.0000	0.5517	-6.2530	-0.1416	-7.1906	0.1458	-11.4379	-3.6050	-32.4669	-1.7553	-2.4117	-3.3603	-0.7438	-2.4835	-9.0286	-2.1849	-0.8334
4656.0000	2.5599	-1.9609	2.2206	-6.4914	6.3850	-15.4408	22.1957	32.2034	3.1185	1.6198	3.6873	2.7351	1.2543	4.3520	1.6193	2.3528
4664.0000	10.4253	10.0324	6.3432	-0.1723	7.4232	-2.2572	43.3787	31.9378	2.3455	5.6245	3.0963	5.7650	1.7359	6.8842	4.9699	5.6885
4672.0000	6.3632	2.7603	2.1069	-0.2319	-0.7384	-0.2277	4.2100	-20.4611	1.7566	3.3900	2.2209	5.9633	0.2743	-5.2316	0.8770	-4.2584
4680.0000	-1.2265	-6.5977	-2.2400	0.1220	-6.5041	-4.9957	-26.9099	-35.7321	1.9747	-2.3512	1.2556	-0.4341	-2.3224	-4.2844	-10.4853	-9.9827
4688.0000	-1.3941	-5.8613	1.0731	9.7847	-6.8493	-10.1620	-9.0117	-22.5953	-1.5450	-6.7519	-6.6514	-5.6514	-5.4872	-0.6123	-12.4314	-5.9749
4696.0000	-1.5710	-5.6750	2.1779	14.7064	-0.2185	-2.1293	16.1117	31.0646	-2.0628	-6.8593	-7.7646	-2.3746	-2.0113	4.9860	-4.8509	0.5769
4704.0000	-4.1893	-7.6003	-4.4684	5.7440	8.0738	4.4769	12.4628	32.9451	-1.5906	-6.8082	-6.9186	-3.3888	-0.7607	10.8379	-3.6338	6.1471
4712.0000	-7.4382	-13.7964	-9.3601	-3.1678	2.0471	-14.0927	-28.2394	-51.9171	-2.2649	-8.6095	-9.7417	-4.8811	-5.2657	-5.0931	-6.0103	-3.2011
4720.0000	-6.7274	-14.6700	-2.2423	4.3084	-9.9448	-14.6245	-38.2874	-32.7847	-2.8349	-12.5113	-9.4783	-2.2599	-4.4714	-11.4778	-8.8231	-9.7412
4728.0000	-1.0263	-8.7508	5.4245	15.5768	-5.7535	-0.8163	9.9986	46.1910	-7.2313	-17.0837	-15.9326	-6.7053	-4.2427	5.2742	-10.6498	4.0358
4736.0000	-0.0129	-7.3209	1.2245	7.8077	3.5272	-7.8693	24.4633	-23.0147	-7.1582	-13.6900	-16.3338	-5.4626	-5.7828	-0.5402	-2.2904	3.8508
4744.0000	2.7238	-3.2008	1.1532	0.9432	-3.2049	-4.7504	-1.8431	-64.7726	-3.8152	-9.4991	-7.5978	3.3950	-2.6190	-12.8403	4.7644	-6.8859
4752.0000	7.9183	-1.1810	3.8726	3.7695	-5.0553	-5.4467	1.1959	0.5734	-4.6886	-11.9152	-9.3046	1.6296	-2.4634	-5.0946	3.5067	-0.7765
4760.0000	0.8723	-5.2434	-4.8347	-4.8540	7.5605	-26.5180	6.1866	-5.3301	0.4123	-11.3308	-3.3440	-3.5839	-3.5020	-1.8883	5.2877	3.3510
4768.0000	-4.9896	-5.1363	-5.9149	-3.8773	-0.8185	-19.1295	-23.5173	-7.1264	1.4996	-15.5268	1.6005	-7.4024	-2.8821	-4.3153	-1.0494	-0.0454
4776.0000	-1.6742	-10.3473	0.3583	6.3177	-13.5054	-4.0887	-31.2504	-3.6316	-7.4959	-25.8293	-11.5910	-11.4923	-5.9483	-6.5008	-9.6581	-1.0256
4784.0000	0.1871	-16.0011	-1.8073	-1.5729	3.5011	-8.8324	17.1580	-22.3714	-7.3755	-23.8350	-12.1914	-6.2765	-3.9154	-2.1410	3.5151	1.0524
4792.0000	5.8756	-10.3767	-0.7191	-8.0451	14.1396	2.2870	46.2091	15.3917	-4.8145	-16.5611	-7.9298	4.0729	1.9664	8.0219	13.7195	5.6879
4800.0000	12.2280	-5.4495	-0.5938	-11.2857	6.1353	8.0552	10.0562	-21.1625	-3.2700	-12.4793	-7.9133	11.7639	1.2673	-0.7475	6.7395	-1.0701
4808.0000	14.7675	-1.8948	-4.0005	-11.8254	3.5200	-3.7270	-12.7457	-46.6479	3.6386	-6.9817	1.2764	15.0630	0.6653	-7.4506	5.1733	-9.1255
4816.0000	17.2026	0.2200	-1.9706	1.3435	2.1039	-1.8558	-1.8929	-4.9700	2.3744	-6.6436	-2.7566	11.8067	-0.7660	-1.1380	3.0255	-5.5521
4824.0000	15.4076	-0.2086	-5.1955	3.9219	-1.5856	-4.0923	-24.6800	-82.5419	0.5357	-5.3580	-9.0851	10.4414	-5.5806	-12.4505	-2.9777	-10.7373
4832.0000	15.4579	5.5677	-5.3069	10.0622	-4.9220	-6.5252	-35.3416	-87.5711	6.0315	3.9909	0.1276	14.2830	-4.1569	-21.7577	-1.2227	-15.8841
4840.0000	15.0777	9.0281	0.9806	27.1046	-1.4124	1.7071	6.8788	-8.0266	6.7289	9.1431	1.9804	14.6648	-1.0173	-15.5505	2.0005	-8.8652
4848.0000	8.2796	8.7388	-2.6855	26.5866	5.8968	-1.1209	18.8330	-16.8829	6.6013	10.2840	1.3119	9.5029	-1.7644	-10.7006	3.7390	-4.3275
4856.0000	7.1865	10.8260	-6.3765	30.6717	3.8381	3.8005	0.9785	43.3973	7.8363	11.7328	5.5231	2.5481	-1.2502	-6.0050	1.7114	2.7677
4864.0000	7.4955	8.4728	-6.4876	36.0579	4.3142	17.9831	6.5880	70.3438	7.1429	8.8632	5.8529	-0.8756	-1.0627	-3.1315	-5.6966	7.3291
4872.0000	6.7473	9.5670	-5.0384	27.2170	4.0697	22.4348	10.0572	-3.1328	5.3436	8.3790	2.8958	0.7122	-2.2124	2.6109	-9.5048	0.2104
4880.0000	9.6927	13.7684	-3.0782	23.7148	-3.7392	21.4468	-13.7582	-18.0156	5.0848	14.7775	1.9706	4.5767	-2.2920	1.4193	-10.2057	-5.4319
4888.0000	8.3861	13.4707	-11.6774	13.6243	-2.8204	16.0304	-56.4958	-48.4183	11.1990	20.4227	9.1981	10.6519	-1.2837	-8.3722	-10.9216	-10.3358
4896.0000	12.8478	22.8665	-9.4892	10.4244	-3.5272	24.8940	-54.8506	-46.4137	12.4486	24.8187	12.0557	14.5457	0.6472	-0.2867	-9.5082	-10.9484
4904.0000	17.0560	30.4946	4.7657	22.5048	-5.9099	32.7612	1.7410	-3.0673	8.8131	26.6591	13.1227	12.1382	2.3470	-1.3196	-4.7708	-4.1848
4912.0000	4.6141	20.3866	1.2835	16.2960	0.8293	17.5468	11.6822	-25.8120	10.0132	18.4724	18.9242	7.7025	3.2948	-16.8391	2.5159	-2.3459
4920.0000	-0.7781	13.0236	-3.0913	7.9985	4.9346	7.7020	2.3090	3.9418	6.0576	9.7279	9.9397	4.9129	3.1600	-7.6624	8.7165	2.8673
4928.0000	2.5965	10.9835	-0.1407	4.4427	9.6361	1.0900	25.1301	53.9746	2.9577	9.4556	3.7620	4.7194	3.5822	3.1028	13.2619	9.8578
4936.0000	-2.2296	6.7063	-4.7907	-6.8883	7.9226	-0.5195	-4.9995	37.8093	3.9466	7.9169	5.4335	5.0154	4.4369	5.6963	11.2724	5.7078
4944.0000	-6.4732	4.5655	-4.9451	-9.5176	0.6412	2.9670	-33.3899	28.9727	-0.8827	6.8352	-3.9574	3.7264	3.2575	10.8309	7.9610	3.1186
4952.0000	-8.2969	-0.4830	0.0035	-7.1207	9.2253	-5.3672	19.4731	32.7956	-0.8866	9.3184	-0.7372	3.9938	4.7872	2.9236	15.9197	6.3231
4960.0000	-4.0090	0.1432	1.5041	-2.5884	12.1159	1.3943	40.5947	46.5031	1.0143	6.7800	4.5624	5.1245	6.1789	0.8533	16.8149	7.7607
4968.0000	1.1608	5.3878	5.2360	1.3671	0.8050	8.2239	19.9976	43.5064	-3.7228	2.9239	-4.0245	1.9203	2.8467	7.1686	8.9033	6.2604
4976.0000	-6.9861	-1.3043	8.1108	-4.1312	-5.7588	0.4865	14.4772	15.0929	-7.5557	1.0000	-4.9725	-4.0862	2.1960	2.0941	10.2308	1.8718
4984.0000	-8.3939	-0.0925	3.8993	-10.1590	-10.6197	1.9117	-27.4035	-21.3567	-6.1655	5.5044	-5.4441	-1.9028	0.8940	-1.8694	2.4014	-2.7223
4992.0000	1.4586	11.3387	3.3697	-15.3524	-5.0533	-1.5750	-27.9861	-39.0166	1.3092	19.0942	0.8047	8.8397	1.1536	-2.3254	-2.7166	-3.6648
5000.0000	3.0971	10.8893	10.4452	-12.8612	1.9237	4.8841	30.4398	35.6634	1.3325	20.7289	10.3892	9.1487	7.6808	-2.3623	13.3583	4.8051
5008.0000	0.4544	9.6913	3.8252	-10.7716	-4.6165	11.3729	-14.2370	54.8721	-2.5219	14.6581	3.7150	1.0111	5.0775	-0.3713	9.5989	9.3540
5016.0000	-4.3763	4.8751	-8.8513	-20.4017	3.5433	-0.2011	-43.0512	-12.5668	4.1077	17.6891	6.7682	0.3788	1.5051	2.9558	-2.9376	3.7399
5024.0000	-6.1758	-0.0848	-0.9770	-15.2997	13.6557	13.2649	37.8546	21.3577	0.5922	13.0180	10.3392	-2.4654	6.2595	8.8443	9.7141	10.1688
5032.0000	0.2762	13.9375	8.3422	-4.5434	1.6810	20.1303	41.5879	33.1505	-6.1534	10.7438	3.2247	-5.3656	4.7934	6.6940	17.1446	13.1775
5040.0000	-3.7993	13.5637	3.8326	-5.3147	4.6318	6.3371	32.1332	14.3009	0.9865	20.5115	11.9774	-0.4668	6.2635	3.4575	21.0119	5.0633
5048.0000	-13.7304	-1.9784	-2.1039	-1.2734	13.7905	11.3544	50.4813	34.7841	0.0768	13.3155	12.5163	-3.9511	8.6247	1.4063	27.0954	8.0219
5056.0000	-13.0464	0.1876	-7.0384	3.8530	-0.7728	3.5072	-19.1122	-37.9687	-1.2511	3.6353	3.0510	-6.2756	0.7580	-12.8545	12.6646	-0.3443
5064.0000	-13.9222	-3.5923	-6.0556	13.6369	-4.2720	-9.1511	-27.5424	-12.3129	3.3556	6.1838	4.2449	-2.1532	0.3002	-12.4503	5.7295	-7.5955
5072.0000	-14.5416	-8.1660	1.2156	24.4209	2.7646	2.1161	32.0123	115.1487	-5.5741	-1.5293	-7.0168	-10.9124	2.1540	6.1332	11.6673	12.3364
5080.0000	-8.0534	1.2281	4.2995	16.9162	-1.4251	13.9114	23.0920	76.7141	-11.3580	-2.7241	-15.6280	-11.0099	-0.1239	9.2359	9.0827	15.3342
5088.0000	-7.6032	-2.8615	-0.4637	3.7200	1.3615	14.5474	-0.9540	26.1212	-4.9399	6.7473	-9.4486	3.5707	3.1326	6.1126	6.9980	2.5262
5096.0000	-4.9334	-2.8065	-2.2274	-2.0078	-0.1966	7.4625	-27.5111	14.4939	-1.9524	5.5975	-11.5946	6.8719	0.5386	8.5714	-8.0413	0.1278
5104.0000	7.2796	9.2815	6.8573	2.2084	-6.0483	10.0889	-12.9512	-15.1016	0.6814	9.8551	-8.7166	9.7713	-2.3227	10.4735	-22.6665	-4.3601
5112.0000	10.0723	7.0376	6.1852	5.3747	2.1362	14.5867	14.6326	33.1488	3.9282	15.6735	-2.5538	10.3311	0.0986	15.8594	-22.1860	0.8090
5120.0000	5.9275	2.4595	-1.9424	-1.7412	1.8617	13.8250	-25.8530	37.3871	2.4768	9.6775	-8.1206	1.0430	-4.2094	19.8190	-37.7353	8.2766
5128.0000	7.0995	-1.0276	4.3638	2.6868	-1.8257	20.9867	0.2642	-4.2813	-0.9000	6.8811	-9.8148	-0.5293	-5.1751	19.1273	-40.0308	1.5656
5136.0000	8.8280	-0.2653	5.5156	14.8991	3.3370	14.0705	43.1616	-6.7968	-1.5458	7.5858	-7.8000	-2.5615	-4.8327	15.7813	-21.6830	0.7974
5144.0000	9.5309	10.4761	-1.4196	19.5382	1.7119	11.5153	7.9108	-39.4250	1.2610	12.9088	-7.2305	-5.0909	-8.6518	7.7946	-25.4195	2.8591
5152.0000	5.1026	-0.7038	-0.4940	22.6049	1.2109	20.7415	15.9129	-6.5569	-0.7669	12.9768	-6.9724	-5.7795	-5.9098	6.0562	-24.7780	3.0039
5160.0000	-5.1655	-21.3496	-2.9684	13.3762	2.5806	4.6894	22.7037	49.9638	-7.8597	-6.5211	-11.9580	-19.9660	-5.7112	13.1512	-15.1194	9.0790
5168.0000	-8.6813	-19.3343	-5.4359	-4.8769	0.3195	-2.0291	0.7908	-27.5764	-9.3225	-16.2951	-10.9380	-23.8433	-7.5447	10.3650	-14.2889	5.5007
5176.0000	-2.8080	-16.4950	-3.2575	-9.5210	-0.5842	4.4869	2.5351	-63.8991	-4.9716	-9.9056	-1.7764	-10.7307	-3.2264	0.2075	-7.2537	-4.7309
5184.0000	2.8450	-16.7249	-3.6825	-5.0231	3.2987	-1.9899	4.6172	31.2438	-0.2432	-6.9827	1.0852	-4.3179	-0.4078	5.1384	-5.8196	0.4547
5192.0000	-0.8071	-10.8712	-4.4935	-12.6519	14.8190	-1.0556	19.4669	56.5381	1.6466	-3.6910	-0.5868	1.2454	2.3236	16.3331	-4.4058	8.9029
5200.0000	-7.1423	-9.3960	-4.8074	-22.7265	11.1440	-6.8258	2.5186	-20.3658	1.7812	-3.9410	1.8751	2.5128	2.2651	8.1261	-1.3027	0.4468
5208.0000	-4.6167	-7.1350	0.7464	-7.7303	-2.3723	-8.7301	-7.3370	-18.3107	3.3358	-6.2867	7.9934	-2.1441	0.0451	-6.4276	-9.0944	-4.7203
5216.0000	-6.5083	-4.8610	2.1313	3.9988	-1.6143	7.6052	6.9668	45.8069	1.3042	-7.3622	7.3482	-6.2285	2.0612	-1.6274	-7.3996	4.4691
5224.0000	-14.4962	-5.1636	-7.7066	-5.1251	-7.7515	5.5745	-51.0455	2.8988	-0.9427	-8.3478	2.4524	-15.7938	-1.7936	7.9189	-13.1925	1.2855
5232.0000	-12.0659	0.1533	-5.0592	1.7589	-10.1612	-1.9420	-42.3893	-58.0335	5.0444	3.5800	10.4179	-14.6793	-4.5702	2.6704	-23.4446	-9.0225
5240.0000	-11.2504	-1.5610	1.8260	6.7738	1.4553	-3.7335	26.8485	-1.7480	8.4183	10.4024	20.9960	-8.8132	1.8942	-1.5607	-8.0799	-4.1156
5248.0000	-13.6423	-6.9539	-1.1410	-6.2272	-1.3141	-8.6725	2.0268	59.8224	5.1763	-1.9344	20.0141	-16.3129	3.0598	6.5644	-4.1201	3.3378
5256.0000	-6.5781	1.7299	0.2445	-12.7692	-1.6856	-5.3275	-1.1551	26.2140	7.8737	-4.7239	23.1629	-10.7114	3.0968	9.2144	-7.1405	-0.3150
5264.0000	-5.7982	5.9964	-2.4775	-25.6737	7.9108	-11.6661	6.2295	-42.7244	16.6970	5.8113	36.0816	7.4367	8.6852	-2.8246	7.1454	-11.4029
5272.0000	-4.6182	5.0019	-2.8979	-28.1043	2.8218	-14.2079	-21.4503	-28.3574	20.3727	10.7920	40.9023	13.5676	10.4867	-10.2884	4.2054	-15.7994
5280.0000	6.2889	13.4300	9.8433	-10.5090	-7.6656	0.3953	-1.6734	51.2075	14.6422	6.8753	31.9708	11.1823	9.1201	-1.3070	-3.9279	-8.4985
5288.0000	1.0798	8.3420	8.0296	-16.9439	-6.8244	-9.3383	-2.9200	47.3701	9.8504	2.3414	25.8994	5.2828	8.0802	2.1342	4.1824	-6.3296
5296.0000	-4.6050	-4.4124	0.7509	-21.3868	-6.6059	-18.3807	-23.8311	-6.3723	8.8494	-1.7502	24.4736	2.2527	5.8566	-9.9891	5.6482	-12.1422
5304.0000	6.0230	0.8761	9.1108	-2.4362	-17.0986	-6.6441	-14.2580	3.7327	3.9176	-10.1791	15.8175	2.2771	2.8193	-14.1919	1.1840	-12.8668
5312.0000	4.1681	4.6131	8.4709	-2.7472	-17.9523	-16.6472	-21.2921	-8.9718	2.6848	-9.2674	11.4031	-0.6852	0.3365	-11.6017	1.9621	-12.0234
5320.0000	-2.6128	0.4813	-1.6270	-11.2203	-14.8418	-24.0555	-52.7284	-84.4249	5.7462	-1.9900	14.0594	0.7775	-0.7527	-20.0152	3.5588	-19.5249
5328.0000	1.2004	3.7623	-0.6401	-11.2254	-17.9934	-18.7872	-64.1656	-74.6270	5.8703	-2.3850	14.4950	5.4551	0.6530	-25.0710	6.0321	-19.6415
5336.0000	3.9832	8.2889	5.4718	-19.7859	-2.9139	-27.6514	-1.7235	-1.0740	7.4838	1.0115	20.3033	6.5477	4.8721	-17.1188	16.3814	-4.1438
5344.0000	7.5026	8.6051	6.4178	-27.7485	5.2043	-19.6570	32.0225	-2.1762	5.9584	3.0693	23.0061	7.9077	7.9076	-11.7257	27.6103	-0.6221
5352.0000	10.3477	7.2668	1.6160	-24.8218	-0.1836	-7.7078	-4.9275	14.3802	3.6235	-0.9433	16.8030	11.5624	8.4742	-11.5352	30.3008	-2.2794
5360.0000	10.9034	7.3933	0.1747	-15.0988	9.4690	-14.7951	19.7760	62.4057	3.9856	-3.4285	11.8792	10.7005	7.2947	-9.8033	32.1732	8.2294
5368.0000	10.6420	7.8068	1.6983	-10.8636	6.7274	-9.1504	25.5589	14.5847	-1.0309	-8.6489	3.7394	7.3073	4.1853	-9.1111	30.8703	5.7270
5376.0000	7.5129	7.4907	-3.7771	-13.2138	5.7225	-7.7951	-9.3661	-18.1894	0.8272	-4.0031	-0.4571	14.3758	3.9056	-7.0439	26.5014	-1.4710
5384.0000	6.3450	9.2167	-6.1779	-5.6955	15.0767	-18.4231	9.1303	-0.5758	5.6316	3.9221	0.9368	16.6143	3.3236	-5.1008	25.5590	1.6293
5392.0000	-0.6765	3.9273	-3.6029	-0.1465	-0.8098	-16.1230	-15.0328	-37.3989	-1.8886	-2.1152	-3.4973	2.4787	-0.7868	-15.9264	21.2461	-2.0670
5400.0000	-6.3886	-1.0488	-4.4494	1.4035	-11.7453	-8.6537	-46.3472	-41.5511	-6.1450	-4.7564	-5.0311	-5.3697	-1.7510	-22.6391	18.1808	-3.4634
5408.0000	1.5935	6.6891	-0.0444	15.8036	-10.6521	-1.5413	-14.9816	12.0667	-6.4567	-5.0060	-6.4576	-9.6138	-3.1011	-8.0063	14.3758	2.8501
5416.0000	-1.1104	4.2441	3.9350	19.2446	-7.2151	-8.9557	15.4093	29.5752	-7.8661	-5.9805	-8.8329	-14.9766	-4.5560	-2.2806	10.8838	7.1125
5424.0000	-9.7452	-8.4630	0.2559	8.6284	3.7129	-18.2060	32.8410	4.4531	-7.0889	-4.4134	-6.8119	-11.2782	-1.7903	-9.9811	19.9066	5.9382
5432.0000	-3.1323	-7.7394	-0.8506	10.4558	-7.8045	-6.9452	-5.6417	5.3618	-11.0663	-12.4900	-14.2562	-10.8458	-3.3585	-5.1717	17.0881	1.0039
5440.0000	-0.8617	-5.0507	-4.6708	8.6052	-11.3893	-11.2015	-51.3236	31.0123	-9.5403	-13.5627	-21.0528	-9.1115	-6.5008	-0.9618	1.1685	4.4573
5448.0000	-2.8447	-6.5808	-6.9492	-4.0115	4.4346	-13.4299	-22.6795	-26.9113	-4.8147	-4.7546	-17.1232	0.4691	-4.6266	-2.4878	0.4056	3.3076
5456.0000	7.7656	1.3851	7.2948	-2.5412	0.0202	11.1046	29.7252	-47.8687	-8.6611	-2.6081	-13.9219	5.5903	-0.9063	2.9748	6.3942	-1.9290
5464.0000	9.4969	3.7910	11.3315	0.5069	2.0351	6.9984	45.7636	4.4076	-7.5072	-0.2168	-12.2217	7.5290	0.7388	1.0477	8.1285	4.4726
5472.0000	-4.5347	-7.5330	-7.2713	-10.0949	4.5466	-13.7140	-26.8785	-102.1433	-3.4381	-4.7061	-16.2760	5.4018	-5.1778	-7.4038	-2.8762	-5.8828
5480.0000	-2.4009	-5.2365	-5.8427	-3.4375	-5.1858	-2.7638	-47.1363	-130.6652	-2.3942	-9.2631	-15.8217	5.8295	-6.7617	-3.5959	-15.1403	-15.6378
5488.0000	4.2515	0.8464	10.7389	12.8302	2.3370	10.4282	48.4049	40.7924	-3.8157	-6.1343	-9.7634	5.2577	0.7230	7.7770	-3.6998	4.1100
5496.0000	-7.8885	-10.3268	2.2384	4.3708	7.6883	3.4009	41.1118	33.9561	-9.9502	-12.5449	-17.0925	-7.3649	-0.9658	14.6846	4.5083	9.8919
5504.0000	-10.6293	-14.7953	-7.2660	-1.0940	5.1519	-2.7511	-5.2035	-38.7310	-8.2038	-13.6157	-19.3549	-6.6457	-4.3889	10.7906	-1.2695	-0.1291
5512.0000	-6.1103	-13.9088	-2.0246	5.1651	1.7726	-3.1034	0.3941	-5.1676	-7.1148	-12.6055	-17.9390	-1.7060	-3.1485	2.5072	-2.2122	0.3939
5520.0000	-5.4344	-13.5655	-2.1672	4.4345	-5.3656	-2.9864	-19.8720	-16.0829	-12.8639	-20.2767	-26.3373	-8.3988	-6.5791	3.5264	-3.6605	1.9139
5528.0000	-0.3187	-9.2360	-0.8457	9.5021	-4.0334	-1.4488	-4.8642	-22.7167	-10.4640	-15.4266	-22.3883	-5.9173	-6.3134	3.4994	-1.7353	-0.4512
5536.0000	-13.9967	-23.5215	-3.7134	7.8548	-9.1779	-8.4904	-22.3306	-48.6034	-11.5539	-18.6070	-19.8740	-14.7129	-7.1343	-2.7937	-5.6541	-7.0103
5544.0000	-20.4867	-28.7574	-10.1800	6.0574	-6.3826	-13.1544	-35.8550	-73.2695	-12.0633	-26.7575	-23.3270	-22.9046	-10.9116	0.9094	-14.4699	-5.1897
5552.0000	-2.9155	-14.1384	-3.8790	16.8198	9.8057	-6.9033	34.6441	-8.1893	-3.6885	-13.7460	-14.2347	-6.1161	-5.6728	5.6307	-5.3569	1.8890
5560.0000	-6.8654	-19.9801	-1.6153	4.4131	2.2388	-8.1284	13.5297	-4.3995	-6.6982	-13.7462	-13.8860	-6.1382	-3.3065	4.0356	-2.1468	-1.8149
5568.0000	-8.4719	-21.2142	-1.2845	-8.2511	0.5483	0.7309	3.6943	-29.0322	-11.6341	-22.6740	-18.6810	-10.3252	-4.1673	7.8570	-6.8154	1.4995
5576.0000	0.2482	-15.1986	1.1053	-2.7279	7.9739	8.0790	34.5333	-27.5625	-9.3778	-17.7229	-17.8333	-1.1784	-2.6643	5.7319	-3.1347	3.4630
5584.0000	-7.2247	-18.6117	-6.3787	-10.2677	-4.2733	-6.1254	-42.5890	-66.6671	-7.5525	-15.0731	-18.1718	-4.1325	-5.9314	-0.7479	-12.7522	-6.0499
5592.0000	-1.8889	-9.3762	-4.0131	-7.6026	-0.4575	1.5206	-24.7934	-39.9530	-1.9086	-8.9046	-8.8682	-1.0442	-3.8970	4.3776	-17.7422	-2.8672
5600.0000	4.0376	-8.3998	3.0318	4.6682	6.9433	6.7637	41.4649	-1.4733	-2.7938	-8.1012	-7.0769	0.3012	-1.4992	7.8295	-7.0311	1.2773
5608.0000	2.9453	-3.9168	0.8023	3.7731	-0.3765	-2.6575	10.1802	-7.0661	-5.5117	-13.1441	-11.8573	-6.3567	-4.7705	9.1407	-5.2710	1.8663
5616.0000	13.5336	13.3332	-1.4125	4.3043	11.0565	12.5286	27.1040	21.7193	1.1988	-2.8103	-3.6761	3.1710	-1.2362	14.6655	-1.4961	10.5820
5624.0000	9.4728	0.3231	-10.8417	-0.0375	16.8165	5.7042	9.7551	-30.9959	0.5770	-0.1890	-9.5823	5.7491	-3.1404	7.0077	0.2273	5.4291
5632.0000	5.7287	-7.2354	-11.2938	0.9248	1.9362	0.5464	-40.0651	-88.3551	-4.2622	-0.5193	-19.5820	5.6664	-7.0151	-6.1076	-5.6209	-6.1074
5640.0000	15.5422	5.0971	1.4794	15.1100	-0.1951	33.2214	4.2945	7.0877	-5.8175	11.6908	-15.9990	14.5800	0.6377	0.1470	3.5701	0.8433
5648.0000	9.9129	-1.1835	-2.5443	16.3990	6.2907	19.7583	18.7218	42.2278	-8.0289	9.2154	-20.1716	7.1608	-0.0665	10.4266	13.0083	5.8808
5656.0000	2.1869	-6.1749	-9.9656	14.5232	6.6576	-5.0068	-1.4820	-35.2815	-4.8385	3.0541	-17.5116	1.2519	-4.7597	0.4223	12.1049	-2.5455
5664.0000	5.8746	-0.9595	-5.7324	23.5916	4.4174	19.4472	11.6906	-9.0714	-4.5525	5.3248	-11.9300	4.7267	-0.9855	-5.8157	13.5709	0.1631
5672.0000	8.8339	4.9920	-4.1211	28.3769	5.4813	24.7479	12.7905	57.8590	-5.2054	2.9580	-16.8509	4.0622	-1.1433	5.4925	7.6945	10.0828
5680.0000	5.0119	8.0837	-7.0052	19.5187	7.5148	16.0531	-4.8620	20.9550	1.7859	6.1233	-9.1171	7.9627	-1.0191	5.4925	-1.0604	4.6091
5688.0000	3.4065	9.8246	-5.0426	14.4962	-0.0134	30.1399	-20.6100	10.5756	2.1117	12.9765	-1.6536	7.9324	1.8991	4.1691	-2.4054	-0.1291
5696.0000	6.9409	20.3308	3.2562	23.4117	-9.8046	28.4710	-16.1269	48.1883	2.5312	15.3911	1.3740	2.4884	0.6362	10.5388	-9.1586	0.9688
5704.0000	-3.4197	15.9002	2.3037	20.2115	-12.8857	11.0686	-26.5535	2.7767	8.5748	13.4875	13.6275	-3.7351	-0.8365	1.4970	-18.9393	-7.0900
5712.0000	-12.5635	2.7669	-2.2064	13.8858	-12.3511	5.1728	-35.4762	-8.6836	8.4886	8.7419	17.0453	-11.6049	-1.2961	0.1359	-22.5753	-9.1127
5720.0000	-6.7406	8.1351	3.4659	20.1671	-4.9700	4.9415	8.9754	44.8113	10.5194	12.0108	17.5692	-8.8302	-0.0827	13.5248	-23.6964	-3.2069
5728.0000	-5.8970	12.3014	2.2384	13.2934	4.9736	14.2870	30.3362	20.6486	11.6311	16.5421	19.6851	-3.1982	2.4868	15.3815	-17.9319	-0.3992
5736.0000	-3.4965	10.3750	-2.4630	1.5259	7.8593	23.7645	15.8060	6.3833	9.0701	16.1467	17.4891	1.1066	4.6790	12.7520	-8.4048	1.1916
5744.0000	0.5333	7.5922	2.7269	-5.9760	2.3547	8.7623	6.6641	36.1549	11.0097	11.8516	20.9389	7.0840	6.4628	6.0239	-7.6016	-2.1793
5752.0000	2.3152	6.8037	7.6310	-16.4697	-4.9126	-1.8446	-3.5539	35.3719	6.9456	-1.3229	17.8308	4.3097	5.3758	1.9902	-6.0171	-1.4318
5760.0000	11.1680	12.3123	8.3075	-19.3208	-3.5146	5.3251	3.6108	39.9763	3.6891	-6.1828	13.0432	6.5096	5.4959	7.0778	1.6050	2.2149
5768.0000	16.5910	13.0648	5.1614	-23.3072	-0.3194	3.0608	-7.8278	26.0721	8.1175	2.2004	16.1586	15.5005	6.2873	1.3859	0.8425	-1.0061
5776.0000	18.8496	15.9645	3.2853	-22.7200	1.9070	3.4975	-13.8028	17.2643	9.2568	10.9058	14.5009	16.7239	4.6031	0.0599	-4.9262	1.4202
5784.0000	14.9608	15.7525	5.1286	-12.9987	7.4071	4.5925	24.5733	14.8356	9.4213	15.1363	15.6105	12.2249	4.2250	6.7628	-4.2009	2.1241
5792.0000	3.8876	8.0565	4.5185	-14.2023	-1.7757	-5.6608	8.9695	-46.7025	4.4729	9.2274	13.9481	0.8266	1.3182	-1.5026	-0.1014	-5.7860
5800.0000	2.2642	8.6197	4.6256	-9.4049	-12.8259	-4.7950	-24.3359	-26.2084	1.9725	7.6196	11.6070	-2.4420	0.7137	-6.9932	0.6404	-6.6599
5808.0000	1.2667	7.5748	4.8906	4.3174	-3.7638	5.0848	6.1976	56.9596	7.1781	8.0563	17.2106	1.2609	4.6383	-1.1343	-2.2413	0.3784
5816.0000	5.1587	12.3107	5.5875	8.7407	-0.0546	13.4973	27.4816	56.2084	2.9271	1.7983	11.1132	-2.8514	2.8629	2.6478	1.1486	7.9956
5824.0000	12.4937	17.8081	5.1092	8.6898	-1.3235	10.8779	16.1567	53.3316	3.5846	10.0347	8.5846	3.8720	2.6912	2.1631	5.6793	5.6210
5832.0000	1.8913	5.9660	-1.9100	-0.1093	2.2147	-3.9483	-10.4845	7.3747	8.7866	14.1821	11.0088	8.0605	2.3135	-3.2850	-3.0616	-3.5092
5840.0000	0.3808	7.1161	1.5883	-2.0287	-3.2426	-0.4105	-11.9989	-24.1385	2.1600	6.6429	3.0870	0.6777	-1.0284	-4.0979	-7.1593	-0.9253
5848.0000	6.8880	9.5502	10.9495	7.8763	-3.6990	7.7912	30.4840	73.2869	-0.0047	6.6918	5.0765	-0.0728	2.6644	2.0587	0.3036	7.5234
5856.0000	-5.9913	-2.0836	3.7777	-0.0105	-3.4212	-4.8463	8.1184	29.3787	-1.3073	-1.3667	3.6030	-10.1957	-0.3820	0.7121	-4.0850	4.8007
5864.0000	-9.7392	3.4470	-0.8756	-4.8737	-7.9467	-12.1843	-29.3880	-58.2847	0.6097	2.9196	4.3041	-11.3884	-4.2264	-8.5974	-10.0386	-2.1466
5872.0000	-0.5892	9.7521	6.0928	5.3249	1.4726	-2.4069	24.3403	52.5211	8.0704	16.6957	18.8698	-0.6549	3.6297	-9.8253	-2.4984	6.7139
5880.0000	0.2407	8.2454	6.0791	2.7378	1.1844	3.7350	34.2569	38.8613	2.6139	3.6704	15.2381	-10.8119	1.1755	-6.8373	-2.4874	12.1056
5888.0000	-1.6102	10.1237	1.1454	0.3638	-6.8600	-9.5962	-13.1238	-76.3376	6.8535	2.2828	16.7005	-6.5765	-3.0836	-20.3823	-9.3037	-5.4327
5896.0000	-6.8703	2.7756	0.6004	6.7128	0.8787	-16.9984	0.0944	-6.6829	12.3282	10.9562	21.0738	3.9572	2.3302	-26.4429	-3.0722	-4.1176
5904.0000	-9.6210	0.7901	3.6158	11.5246	0.3424	-0.2557	19.9582	83.9268	-3.2159	-0.2999	0.3701	-12.3275	0.7165	-4.3692	2.8801	16.4647
5912.0000	-7.6461	5.0579	1.8385	14.9070	-2.4657	4.7373	7.1790	63.4491	-3.2483	-0.6872	-2.5728	-15.0165	-2.1578	4.3148	-5.5934	14.1069
5920.0000	-13.8409	-2.4452	-3.6312	9.8472	2.1380	0.6276	0.6564	7.3963	1.7501	2.4796	4.2610	-12.3030	-1.7973	-2.5274	-9.9521	5.9288
5928.0000	-18.5019	-8.0222	-2.3591	6.3135	0.1975	6.4573	11.4384	4.6253	-6.8593	-1.8237	-3.5343	-20.0822	-1.6535	5.6239	-0.0775	7.5526
5936.0000	-16.0865	-5.8267	-4.5643	4.5455	5.1953	0.4481	14.4258	1.3419	-3.0780	4.3544	-0.5355	-12.2761	0.2629	5.2286	7.5369	4.4622
5944.0000	-13.1147	-3.1388	-8.1095	-1.6405	8.7536	-4.5249	1.2009	-35.5064	1.1948	9.2281	3.3161	-5.4654	0.1194	-5.7330	6.8105	2.5899
5952.0000	-4.1850	0.4756	1.4793	4.8474	-0.0352	6.3502	13.1343	44.5801	-3.4540	5.2594	0.8989	-8.7225	0.9816	-1.4220	5.0454	10.0683
5960.0000	4.4129	6.6621	4.9744	6.4326	-2.9676	11.6573	11.7945	79.2645	-1.4923	1.2338	3.8993	-5.1821	1.8728	-0.7367	1.1002	12.3646
5968.0000	8.2640	13.2196	1.3267	-1.6052	5.5789	9.1068	11.1687	7.8435	4.7398	7.4080	6.9200	7.5435	2.1719	-2.8902	-0.0411	5.7079
5976.0000	9.6675	8.5530	3.9484	-3.1274	13.7418	8.2747	44.8000	31.7775	3.6135	8.1926	2.4371	13.6750	4.4950	6.1077	5.5325	6.9059
5984.0000	2.2663	-3.4727	-0.5786	-14.5030	0.7441	6.3113	-9.8943	-12.8283	-3.3177	-9.8898	-3.6134	3.5448	1.4074	-1.6725	2.6628	1.6716
5992.0000	-0.1116	-4.1870	-0.5322	-13.0515	-9.8318	-8.8206	-44.3527	-27.1317	0.1214	-13.9537	1.0118	1.3703	-0.8147	-9.5494	-5.1616	-6.6339
6000.0000	2.7358	-2.6354	6.4222	-1.2424	8.4064	-24.6235	39.4813	90.4913	4.1267	-9.6099	2.4944	3.6488	1.7832	5.3144	0.1411	8.0515
6008.0000	-5.0639	-9.9636	-0.9707	-12.8470	16.0170	-17.8157	41.1514	41.9263	0.1743	-13.5333	0.8128	-2.1228	2.0808	4.5340	8.0721	10.9143
6016.0000	-4.6499	-8.0326	-2.3925	-11.4180	7.4181	-7.3866	12.6374	-3.0248	1.4548	-5.8395	4.9339	1.2494	2.8434	-1.1962	7.5346	-0.1726
6024.0000	-1.0210	-0.1344	1.8949	-4.9562	0.3988	-1.8695	7.8396	4.0858	-0.7394	-3.8072	0.8422	-0.3055	1.2145	3.9863	3.4403	-0.0542
6032.0000	-8.4509	-2.3766	-6.2279	-11.2174	-9.7765	2.7126	-53.9142	-70.9036	0.2699	-5.5301	5.6410	-6.1305	-1.0819	-7.9373	-4.6051	-8.7210
6040.0000	-4.8171	-0.7870	-3.0591	4.3216	-4.5677	-6.2227	-23.0283	1.2344	7.0681	6.4153	13.3559	-3.6973	-0.0280	-9.6026	-8.1668	-4.3787
6048.0000	-1.8332	1.9933	6.3484	9.6271	2.9481	-6.3522	47.3826	56.9081	-1.2501	6.3606	3.3674	-11.3948	-0.5550	5.8797	1.5819	10.0111
6056.0000	-11.8735	-6.5256	1.1688	-5.1778	-4.3059	-2.1267	9.3648	-6.9181	-5.5370	0.7999	3.5513	-15.1719	0.7800	2.4231	9.7838	0.3307
6064.0000	-14.6739	-13.1450	-3.6762	-7.7471	-0.2981	-16.2189	-11.7779	25.2986	-0.8388	0.2409	2.9212	-8.0491	1.6778	1.0868	6.3358	-0.5336
6072.0000	-9.1289	-13.1866	-1.8593	-11.7956	6.3703	-10.4193	8.9732	31.5959	-5.4865	-7.6555	-8.9790	-5.7221	0.2687	11.4229	3.5722	6.6244
6080.0000	1.8941	-6.2582	0.9773	-13.6538	-3.0703	5.6001	-6.8875	-20.4105	-6.1754	-7.5690	-7.1208	1.5161	0.9759	7.5185	5.4958	-4.1034
6088.0000	11.8526	4.0175	0.3470	-11.9514	-9.9879	-0.3984	-40.7642	-43.4517	0.2063	2.6811	-2.2898	11.9849	0.2993	1.1635	2.3542	-13.8748
6096.0000	15.8013	7.3884	-5.6602	-16.5520	-0.4801	1.8698	-43.8504	-60.0924	7.6917	10.4753	3.1901	21.2583	1.5373	7.0256	-2.5071	-16.5120
6104.0000	21.4930	10.1136	-6.5036	-14.3100	8.2127	7.4716	-17.4652	-73.9588	12.6233	14.7749	10.1822	28.3992	3.5078	4.5724	0.1146	-17.7250
6112.0000	23.5547	10.4913	1.6859	-5.7900	3.5770	-1.8063	8.9830	-69.2359	8.0952	10.4252	6.5325	25.2652	2.0904	-6.2676	8.1899	-16.3653
6120.0000	19.0177	3.6547	7.7339	-1.5294	-1.0653	-11.1544	22.6928	-3.8328	1.4007	-1.5242	-0.7523	18.4833	2.4247	-5.7168	15.9205	-10.1788
6128.0000	8.5641	-7.0055	4.1561	-8.7071	-7.0198	-14.0162	-13.0187	5.1413	-8.2492	-13.8099	-14.2657	8.1759	0.0441	-9.2764	17.3869	-3.5513
6136.0000	1.8811	-14.5555	1.4837	-9.8730	-12.0761	-6.5083	-36.5679	-36.0265	-17.7725	-15.7846	-28.4979	-0.7114	-4.3312	-15.8075	12.6037	-0.1581
6144.0000	6.7708	-7.4150	5.2444	2.0383	-5.3919	-1.8111	0.9792	-5.7820	-13.8549	-3.8998	-25.8589	3.9254	-3.2730	-7.6668	10.0673	2.2762
6152.0000	-2.4581	-9.0553	0.8117	-3.0400	3.5656	-7.5507	13.6744	-14.0973	-8.4055	-0.7766	-16.0630	3.1911	-0.4978	-2.0875	14.0017	0.7161
6160.0000	-17.7770	-24.8964	-6.8501	-10.8620	9.6003	-13.0335	16.2321	-35.2506	-12.3763	-15.1877	-17.6298	-11.0763	-1.7792	0.5341	16.5890	3.9715
6168.0000	-12.7924	-20.1506	-4.1162	-4.2575	2.1823	-14.7161	5.9402	-44.9350	-15.2056	-20.1247	-24.2002	-14.9415	-6.1556	0.3219	9.6974	3.9930
6176.0000	-8.1936	-11.5226	-2.3100	-3.2942	-3.9551	-3.3134	-13.1717	-59.3364	-11.4419	-8.5077	-18.5934	-7.3397	-4.3536	-0.7802	4.9200	-2.7413
6184.0000	-6.6864	-10.4063	-2.4042	-1.9518	6.9317	7.7342	23.6868	8.3621	-9.3385	-2.9735	-13.0404	-6.4316	0.1802	12.4493	10.6400	6.0587
6192.0000	1.0122	-1.4202	2.0073	2.9169	0.9641	7.1224	20.0435	30.2743	-11.2983	-3.9770	-16.5094	-6.1883	-1.1357	11.6826	12.4148	9.0464
6200.0000	3.0091	1.0627	0.4924	0.7996	-3.7779	5.1909	-13.4704	2.1809	-8.9041	0.3003	-17.4990	0.9509	-1.9952	3.8536	6.2897	3.3563
6208.0000	4.9319	4.7884	-0.4978	-3.7336	1.5897	-1.3156	-9.9758	-8.8868	-5.3716	5.5331	-16.2860	5.1643	-2.4199	7.2874	2.5863	3.5800
6216.0000	5.0632	4.6237	4.1871	-6.0488	-9.2209	0.1485	-19.9512	-38.4754	-5.4007	5.8604	-8.5337	5.6981	-0.6262	-4.2314	6.8088	-5.9107
6224.0000	-5.3300	-16.5910	-4.3665	-11.6820	0.5177	-2.3651	-15.0966	-24.6781	-4.1790	-2.5343	-4.1128	3.3475	2.2347	-9.6108	11.2900	-5.3591
6232.0000	-6.7046	-22.9281	-10.4707	-15.9923	5.0083	-16.0280	-27.5449	-37.0113	-4.3397	-11.4758	-9.7173	-0.4023	-1.6930	-8.7813	5.6884	-2.8538
6240.0000	0.9846	-15.4162	2.2330	-7.1264	-12.1552	-4.7819	-23.7463	-8.1563	-8.2250	-12.8331	-8.0665	-2.8114	-0.9954	-9.6201	4.8025	-6.2503
6248.0000	-4.7148	-21.2479	3.6816	-8.9708	5.2317	-3.3776	42.6599	60.3894	-12.2498	-16.9665	-12.1214	-9.1555	1.7300	8.8061	14.5567	9.6602
6256.0000	-8.3626	-20.2934	-1.5424	-22.4925	13.4314	-16.8528	36.5379	2.2765	-13.2858	-16.7355	-18.1877	-8.0662	-0.6020	7.1648	18.4664	11.8834
6264.0000	-2.3999	-13.1877	1.2449	-20.4061	2.4869	3.2483	8.5837	11.9715	-10.8862	-7.6915	-10.4925	-1.1081	2.9320	1.2555	15.9172	6.1619
6272.0000	-7.4637	-13.2177	-7.6998	-21.3674	7.4545	6.1476	-9.8252	-7.5104	-7.3485	-7.0351	-9.6560	-4.9676	0.9843	14.1921	5.6520	5.3250
6280.0000	-3.2802	-3.4694	-10.2044	-11.2970	-5.2057	-10.4925	-59.6163	-121.4944	-0.2813	-2.4913	-6.6533	-0.3900	-5.9605	-3.6743	-7.6728	-13.8109
6288.0000	13.5117	14.2411	4.0872	18.6463	-7.3197	8.6011	-13.5563	-10.9873	7.3913	14.2534	4.7104	14.3805	-0.5058	-13.0036	-9.7322	-8.3140
6296.0000	9.6338	17.5865	5.6284	17.1239	8.7255	16.6912	35.7118	56.2472	7.6053	19.1815	4.6620	13.4373	2.9459	2.8808	-7.9378	8.1078
6304.0000	4.9131	11.0192	0.5263	2.3611	2.6193	-4.8167	1.2165	-52.6592	7.1617	16.0893	5.6904	8.6847	-1.2876	-6.0081	-7.0583	-5.7641
6312.0000	14.2633	9.4195	2.6760	4.5597	0.1132	-4.5283	5.3434	-27.3986	10.6962	17.5561	13.2812	14.4488	0.9110	-11.0232	-4.7189	-10.3536
6320.0000	15.1042	4.9614	2.7812	2.9366	2.7844	12.1417	13.7850	43.7088	7.0778	8.2849	9.5860	12.9063	3.9159	2.0104	-3.8616	-1.6460
6328.0000	12.8098	-2.4270	-2.4209	3.1463	1.5547	9.7527	-3.1715	27.6471	0.6475	-1.7554	-3.3648	4.7310	-0.7773	7.2435	-6.0076	0.2046
6336.0000	12.7451	-4.3668	-5.3882	7.1160	4.5463	-2.7975	-6.9744	-17.7770	3.9804	3.6307	-5.1791	8.4794	-3.9473	0.7124	-11.6923	-5.5733
6344.0000	9.8162	-6.2338	-1.6367	7.5144	-3.1686	-3.2536	-17.0200	-19.9134	4.7140	0.7036	-0.3284	8.3018	-2.8245	-7.6491	-14.4122	-10.2483
6352.0000	9.1229	-3.9044	-2.4621	8.9442	-8.1541	-0.3732	-29.1137	-38.2460	2.5979	-3.7503	-1.0870	0.5495	-5.4747	-7.7096	-18.1462	-9.5338
6360.0000	5.8342	-1.3467	-7.5463	12.7633	2.4287	-0.7313	-12.3631	-95.7063	10.1013	8.3451	7.3496	6.4169	-4.6941	-11.4797	-17.9117	-15.5091
6368.0000	-0.4406	-3.1786	-4.6707	22.5626	8.6333	5.5581	27.7522	-16.6531	8.5128	11.9811	10.4297	4.1341	0.5349	-10.5899	-2.2589	-5.9241
6376.0000	0.4827	5.6954	-0.0540	29.7119	1.0762	12.7277	25.1310	63.3564	-0.6779	12.0784	-0.5505	-7.5431	-0.8994	1.0486	2.9300	8.8076
6384.0000	0.9531	9.6937	-4.3555	25.0482	0.2010	8.1040	2.9425	3.3136	2.5059	13.7974	0.7871	-4.8476	-2.7704	3.1444	-0.4445	0.3784
6392.0000	-3.0769	3.7448	-14.5460	17.4141	11.6645	2.9139	2.8197	-40.4122	4.7911	4.0394	2.5321	-3.7745	-2.5383	1.4041	7.8343	-0.9169
6400.0000	2.9090	12.9865	-12.7760	17.0620	7.1979	10.3404	-12.7599	-35.8423	6.3912	7.3392	5.7085	1.8840	-1.0583	-4.5166	8.9536	-0.8203
6408.0000	9.1891	17.3364	-3.1131	18.2835	1.6049	15.5862	-1.9289	0.4182	10.8577	11.6144	14.7938	12.8321	3.8144	-7.3042	6.7510	-6.1953
6416.0000	6.0383	7.5714	-4.3370	10.7798	7.2135	16.9808	14.8797	-16.4051	4.9646	-0.9349	5.4326	9.2072	2.7804	1.4061	8.4711	-4.0135
6424.0000	9.9113	8.3026	-2.6610	5.3307	0.0069	19.2009	-5.1828	-59.5420	2.1878	-1.0075	0.9979	12.7658	1.6557	-2.6251	7.8416	-10.6676
6432.0000	12.2346	8.8739	-0.1149	3.7779	1.1845	11.4384	-6.7616	11.9855	6.6569	2.3995	5.9287	21.9926	6.0275	-5.0491	11.6468	-8.3131
6440.0000	8.4005	3.9339	-3.3363	-0.7504	8.5572	8.9512	-4.5001	55.1557	2.7404	-2.4974	-3.9384	16.7499	4.4880	3.5662	7.9570	4.7726
6448.0000	13.9716	7.7633	7.1917	1.6889	-5.3151	14.4180	1.4374	27.4432	-4.1989	-5.7426	-8.1036	8.3616	0.6529	-0.2561	0.5104	3.5205
6456.0000	14.1128	14.1673	12.1056	3.7559	-14.1651	10.1084	-1.2353	13.5008	-3.0638	-5.5969	-0.9955	4.3332	0.2905	-3.9143	0.7161	-1.2347
6464.0000	2.2339	15.1638	1.5586	-0.9731	-7.4309	-0.5339	-29.1406	2.0297	4.4240	4.1950	6.3446	1.9474	0.1518	0.4424	-4.9763	-1.2669
6472.0000	-5.3842	13.6969	1.1120	-0.3128	-9.2053	-7.5210	-34.6445	-1.8108	7.2077	6.5049	12.4656	-5.4055	-1.1560	-0.5028	-14.3801	-1.5187
6480.0000	-8.9253	12.8592	2.0833	3.0609	-16.4713	2.3199	-45.5502	-40.7945	8.6856	3.0220	18.8548	-7.4578	-0.9696	-5.3028	-21.0896	-10.0431
6488.0000	-11.5905	11.4006	0.6725	6.6186	-2.8019	9.8382	-5.6482	-15.1686	14.1586	7.7619	27.0816	-2.0069	3.6798	0.0360	-17.2433	-7.5530
6496.0000	-9.0272	12.4954	7.2403	11.6309	9.5155	6.0048	65.3620	73.8910	9.2232	-0.8883	22.0914	-8.3690	4.8650	10.5332	-5.0409	11.4587
6504.0000	-7.5861	12.6777	6.2437	4.4331	-4.2150	14.1275	15.2133	45.6215	2.5090	-8.4862	14.0233	-9.8281	3.5209	6.4423	-3.0522	7.3117
6512.0000	-14.1773	5.0933	-4.0063	-11.9959	-1.0278	9.3230	-26.1769	-20.9901	5.7113	-1.9140	15.2766	-2.7773	4.5037	3.1868	-2.7534	-2.6309
6520.0000	-7.9144	10.0517	-1.8493	-10.6363	5.3993	-1.0869	3.5190	-53.7621	5.6846	-0.5243	11.6031	-2.0753	1.1085	3.1695	-2.5727	-0.6503
6528.0000	8.0641	19.6152	6.8113	0.2211	-5.4242	7.4772	1.0536	-12.3009	5.6901	2.7928	12.1325	4.5501	1.4224	-3.9861	-4.5794	-1.0741
6536.0000	4.7631	8.2718	0.8417	-1.8543	7.8061	6.6194	12.3316	85.2344	7.4509	1.3024	11.8259	5.5201	4.8422	2.8406	-3.0360	11.6211
6544.0000	5.2175	5.8742	-2.5370	-1.0944	8.8969	0.7436	5.2113	47.7472	5.7746	-6.5249	4.6047	0.5828	-0.4350	4.3972	-11.9439	11.8035
6552.0000	13.4212	11.2737	5.6537	-0.2797	-9.3774	-8.6372	-19.7715	0.2942	7.2804	-4.5495	9.2457	5.5819	-1.8361	-7.0172	-14.6815	-5.0013
6560.0000	5.1769	-0.7510	2.4328	-9.7375	0.0431	-13.4874	-4.1459	46.8760	5.6752	-8.2350	7.9577	3.2657	1.3564	2.9757	-7.5536	0.9241
6568.0000	3.5139	-4.8719	-0.2309	-11.6740	5.9591	-4.7096	6.3158	34.9242	0.8740	-15.8986	-1.3722	-2.3595	-1.2644	11.2537	-13.4874	7.8040
6576.0000	5.6058	-3.1362	5.6828	-9.3300	0.8831	-17.8954	17.7214	10.2715	2.2917	-14.1444	3.1964	-2.2603	-2.3151	2.1916	-12.3837	1.5705
6584.0000	-1.4331	-4.2395	2.6123	-5.9618	-6.3035	-22.7535	-9.8780	-4.4395	3.6599	-11.1966	7.3495	-6.7581	-2.7520	-1.4841	-11.5586	-4.9666
6592.0000	-2.4742	3.7644	2.0629	-1.4274	-16.1655	-12.2082	-42.4505	-29.3103	5.5807	-6.2467	11.5305	-9.2799	-3.9728	-2.5919	-21.4915	-9.8081
6600.0000	-5.2581	3.0740	6.8641	-1.4257	-3.6586	-16.5069	20.2179	-7.7853	7.9086	-2.5846	19.2521	-9.8030	-0.8374	-0.9974	-14.7364	-3.5526
6608.0000	-6.9062	-3.7875	4.9390	3.8685	4.4656	-7.9752	50.3387	13.0632	3.4539	-4.9308	13.7006	-12.3470	0.1969	1.7463	-4.9894	2.7931
6616.0000	-6.3723	-7.3967	2.4926	0.2451	0.9546	-10.6225	24.2494	32.8415	0.0330	-7.7994	6.9750	-11.2219	0.1685	-0.6803	0.1301	4.2451
6624.0000	-10.0112	-12.5084	1.5113	-14.6492	5.0647	-11.5426	20.7083	53.6150	-3.2072	-13.3454	2.9624	-10.0297	2.5359	2.2348	5.4273	10.3330
6632.0000	-5.3623	-7.1566	0.8885	-20.9276	-3.5606	5.9065	-16.8830	10.8928	-9.0840	-15.4826	-7.6613	-9.0951	0.0959	5.6015	-1.3262	8.7982
6640.0000	-4.3695	-3.3133	1.6262	-25.3737	-7.6046	-14.0171	-35.9095	-23.0576	-5.7139	-7.0144	-6.7141	-2.8599	-0.9433	2.3771	0.1678	-0.7240
6648.0000	-6.5266	-6.4668	1.8625	-19.7494	-0.4888	-17.7194	-4.2471	-8.9896	-2.8829	-2.2664	-1.4526	0.3085	1.9652	1.8183	9.8444	-2.3973
6656.0000	-1.3700	-3.3227	-0.3672	-8.5412	-6.9416	-2.9308	-19.1706	-53.4283	-6.7595	-4.6447	-6.9529	-4.0527	-2.1185	-5.2956	6.8889	-4.2177
6664.0000	-3.9437	-3.0641	-3.2922	-7.4725	-14.3425	-16.1635	-57.8487	-76.3096	-3.0802	0.1292	-2.7875	-2.9407	-3.5146	-18.7955	4.6808	-11.2334
6672.0000	-2.1442	1.2923	1.2956	3.4193	-7.8048	5.5470	-18.8171	39.3794	-1.8173	8.2901	2.5543	-0.3223	3.0399	-8.8955	9.4250	1.5009
6680.0000	0.5665	5.0531	3.1133	10.9863	5.7100	16.2103	40.4896	86.9514	-6.2789	6.9538	-5.0454	-6.4196	2.5253	9.9143	13.4288	16.9415
6688.0000	-12.7486	-8.5057	-5.4495	2.5219	0.6476	-9.4268	-8.7229	10.0106	-5.2466	-2.7514	-8.2374	-11.1540	-1.9690	5.7855	6.6387	3.0085
6696.0000	-13.2821	-14.2991	-2.6035	6.0682	-11.8628	-2.2164	-36.9620	12.8528	-7.1879	-8.3908	-10.4985	-11.7703	-2.7244	1.5498	-4.4506	-3.2816
6704.0000	-3.9379	-9.2178	7.4849	13.5130	-4.6747	-10.7105	28.7146	29.6544	-10.0295	-4.6235	-16.1799	-10.6613	-4.4444	2.8436	0.2492	4.2045
6712.0000	-6.5977	-10.2281	6.3147	9.3327	-9.0303	-19.6266	6.0228	-8.6438	-10.8918	-2.8798	-18.9927	-9.0761	-5.7312	-3.8860	1.9808	-1.4344
6720.0000	-5.2072	-9.0298	3.9731	4.7385	-16.2390	11.0039	-29.4470	-3.7916	-12.7875	-2.2947	-18.1997	-8.4063	-3.3943	0.8201	-5.4806	-1.8996
6728.0000	-3.7890	-10.1782	0.9904	-2.4973	-2.8715	3.5524	-0.0092	-9.3121	-7.0913	-0.7743	-10.6510	-4.2471	-1.4377	7.1341	-1.9129	-1.7174
6736.0000	-6.8244	-13.5743	-3.5141	-11.1724	-0.8420	-19.2256	-20.9107	-35.4627	-3.4297	-4.9119	-8.6296	-1.7176	-2.6564	-2.2381	-0.4862	-5.0636
6744.0000	-1.4369	-8.5011	1.2136	-8.1444	-1.1275	-10.3328	-8.1171	-18.5479	-3.8507	0.9691	-8.5788	1.9144	-1.6505	-5.6219	-2.0394	-1.1328
6752.0000	0.0586	-4.1289	6.3804	-2.9895	0.3876	-12.0317	24.5828	-22.5009	-0.5359	6.6419	-1.2936	4.2701	0.1775	-1.5149	1.4584	-6.1431
6760.0000	-0.8699	-2.1928	7.9781	-1.9677	-10.1419	-10.4204	5.8941	-28.6778	-4.3932	-3.2302	-2.4999	-4.5183	-1.8415	-1.5360	0.8597	-7.1791
6768.0000	0.8133	-3.3237	6.7147	5.9197	-7.3199	2.8999	14.8089	38.1203	-6.8580	-2.4750	-4.4973	-7.9160	-0.4737	0.0093	3.7739	3.8796
6776.0000	-8.7939	-12.9245	-2.5729	10.1831	-4.3614	-6.6104	-11.3866	66.5414	-4.8839	-4.6704	-6.6144	-11.5448	-1.4104	1.2692	1.2409	5.0122
6784.0000	-11.5034	-15.2789	-2.6656	11.1781	-12.2847	-14.7908	-33.5413	15.7492	-8.2204	-17.4303	-13.7705	-20.6811	-7.9937	-2.0186	-12.3105	2.1878
6792.0000	-7.6941	-12.3972	4.4425	16.4040	-8.3154	-4.2276	13.1733	8.3710	-7.0034	-13.4035	-8.0004	-18.1744	-6.1172	-3.7300	-13.1089	2.4525
6800.0000	-17.1879	-16.4527	0.7882	12.9717	-7.5018	4.0673	1.7768	18.3309	-6.4855	-10.7694	-3.7867	-19.5375	-2.7132	-2.0091	-9.9588	2.2332
6808.0000	-16.0321	-11.5116	2.2268	14.6222	-8.7386	1.3493	1.9339	24.0671	-7.1691	-9.2952	-5.6407	-21.2206	-3.9010	0.0316	-10.3994	4.6552
6816.0000	-10.2595	-4.6163	6.8858	16.7584	0.4165	-15.6853	45.3350	47.2722	-2.9321	-1.7072	-1.7679	-15.9265	-3.0826	1.8623	-3.2990	8.0544
6824.0000	-15.4436	-6.8621	1.4554	1.9145	1.0259	-16.1474	18.0366	-0.6660	-2.9525	-6.0387	-0.8549	-15.6445	-2.7949	-0.9905	-2.7097	5.4522
6832.0000	-12.6356	-5.6521	-0.7776	-3.9248	0.5927	-1.4835	2.0463	-29.9947	1.1327	-5.1402	6.1634	-7.2419	0.1325	-3.7055	-6.1420	-1.2634
6840.0000	-13.0889	-13.2305	-0.4338	-5.7866	6.8828	-18.6846	25.0560	20.8120	3.2034	-8.0808	8.8556	-7.6390	1.5328	1.4622	-0.8923	0.9328
6848.0000	-13.0972	-19.8719	-0.7874	-9.3419	4.2039	-20.6991	24.1826	22.3922	-4.7511	-21.4252	0.0956	-17.3843	-1.2596	1.5358	3.3716	6.1000
6856.0000	-4.1940	-7.8233	1.4901	-1.4964	-1.3168	8.0295	12.5792	27.2968	-5.6483	-16.2257	-0.7441	-10.2240	0.6838	-0.7503	2.9247	6.9409
6864.0000	-7.3640	-7.4256	2.3225	-4.2867	-2.2067	-1.9303	0.3697	61.3896	-5.5914	-13.3887	-4.7194	-9.7765	0.4055	4.8461	-0.9247	9.9596
6872.0000	-8.0268	-11.4147	4.1718	-9.1418	-2.6913	-20.0654	3.1990	55.7593	-4.3937	-17.5730	-3.7530	-10.6194	-0.9473	2.8007	-2.9510	7.4018
6880.0000	-6.4694	-1.0597	2.4815	-5.5413	-8.8756	-11.9195	-25.8719	20.0140	0.8640	-12.7773	4.5067	-5.4349	-0.0902	-5.3845	-5.3871	0.0779
6888.0000	-13.3352	-1.6313	-1.7066	-5.4874	-15.9795	-6.0247	-65.5800	-30.6569	-1.3633	-11.8713	-0.6873	-9.8666	-3.2759	-7.3470	-15.0793	-4.1941
6896.0000	-6.9239	-5.3342	2.1648	1.8355	-2.3271	-1.7266	-1.8606	-4.0932	0.2742	-5.1938	-0.0800	-2.7034	-0.9304	-3.9294	-11.2868	-0.7150
6904.0000	-0.2858	2.4596	5.8408	5.0526	9.5315	-0.3329	53.0952	20.0398	0.4472	0.6573	1.0708	1.4244	1.4736	0.0232	3.0166	7.2557
6912.0000	-2.6330	5.8412	2.6189	3.0664	-2.0226	4.2251	6.8931	-43.1057	-1.9950	2.3704	-1.3021	-0.7546	-0.6527	-5.1723	3.1507	-1.6463
6920.0000	-1.5892	3.7951	-2.4858	8.0959	4.7052	11.9071	0.5055	11.1233	7.4986	17.8038	9.0156	12.6924	5.3560	-3.8081	3.3479	-4.9265
6928.0000	-3.8725	2.5760	-2.9156	6.4272	20.9972	8.8047	44.7521	80.8278	4.7421	18.9066	1.6194	9.7080	6.2310	10.9914	8.5080	12.8009
6936.0000	-4.3830	0.7199	0.4407	3.9276	13.0369	11.4313	42.1848	18.6418	-6.8952	5.0995	-14.4134	0.1489	0.6996	12.7627	8.4677	12.0312
6944.0000	-1.7540	0.6188	-0.8275	0.5255	5.3443	11.8727	6.8932	7.6173	-4.6070	3.5821	-11.8651	6.4090	1.7812	8.5030	7.1725	3.3152
6952.0000	0.6493	5.6935	-0.9475	-4.2397	2.3708	1.4471	-13.3988	-0.4649	-0.7191	6.1517	-8.0502	8.1004	0.5038	6.0274	0.7358	1.4377
6960.0000	3.5105	8.2274	0.3903	0.8286	4.9258	0.7486	3.7302	-42.6711	5.7393	12.8263	1.5404	14.3780	1.1306	-2.1174	-2.1401	-6.7062
6968.0000	0.3792	7.5496	-4.3712	-1.0441	14.5321	1.9582	12.1492	-41.9044	11.5938	15.2486	9.2985	19.8845	4.3321	-2.8280	1.0945	-6.8172
6976.0000	1.7512	12.1579	-6.2359	-1.0895	6.3760	0.8670	-22.4241	-70.1035	10.8190	11.2010	6.4716	17.1183	1.0795	-4.1162	-4.8007	-10.0511
6984.0000	6.7366	13.0957	-4.1970	11.1371	1.8110	8.1376	-20.9502	-33.7288	13.8086	15.6559	11.6528	17.8168	1.7351	-3.1817	-10.3543	-12.6556
6992.0000	7.4482	14.8776	-2.8986	10.1424	4.7323	13.4422	-6.1600	29.0319	14.0131	14.1259	15.2435	10.4836	2.4618	8.2484	-15.7695	-1.9790
7000.0000	13.5388	23.0069	1.2792	6.0034	-10.7445	11.1175	-40.9366	-29.4927	14.0464	14.4744	18.2885	8.3545	-1.1288	-0.4981	-25.6220	-10.5988
7008.0000	15.5042	20.4460	3.1242	12.1049	-8.9959	16.4192	-23.1054	-26.3294	18.1233	26.2554	26.6805	15.4396	2.3123	-8.5665	-22.2397	-16.0492
7016.0000	10.6706	16.5564	-0.0995	11.2787	11.2476	21.8528	33.3770	12.3569	15.6479	24.5888	22.4612	11.4184	4.1646	6.0521	-13.2562	-1.0207
7024.0000	11.2611	16.3447	-0.0266	7.9515	7.4053	10.1481	20.0809	-38.7652	11.0956	17.2187	12.4897	11.6341	0.6516	0.5014	-8.4898	-4.9736
7032.0000	11.4671	10.2732	0.6040	9.4426	-3.7954	3.6745	-15.4865	-35.3084	8.1894	11.8430	6.9734	14.5864	0.1560	-11.3342	-5.5571	-11.2171
7040.0000	11.5656	9.1285	-4.8358	3.5343	1.3487	0.1737	-24.7049	-39.8466	9.5750	2.7034	5.8005	13.1692	-1.3051	-5.8233	-9.5603	-8.4164
7048.0000	18.8952	10.8130	-3.5876	-2.8340	6.9988	-6.7793	-5.7565	-62.9294	12.7892	4.2946	9.4522	21.9463	0.0657	-7.1377	-3.5083	-12.7335
7056.0000	22.7370	10.3102	0.4312	-3.7255	4.3259	5.7894	2.1746	-0.3371	7.6959	7.8551	6.2099	25.1760	4.7190	-2.0197	10.3941	-8.7790
7064.0000	12.3217	6.1323	-10.2474	-17.7998	9.6856	0.7879	-31.2760	-38.2292	5.4989	3.5801	-1.2773	19.5030	2.1578	5.9187	7.5749	-5.5487
7072.0000	8.5336	3.2584	-13.1828	-29.1158	18.9841	-13.5037	-23.1922	-103.5884	9.9666	6.7980	2.3058	24.2312	1.4297	-0.7856	4.7875	-9.2966
7080.0000	19.9918	14.6102	-0.4899	-18.7773	14.3653	5.5095	16.8930	-0.6604	10.5212	13.9883	11.8430	27.1224	7.4852	5.3022	11.5583	-2.7780
7088.0000	19.6630	14.6254	3.4997	-13.7198	9.4377	3.2533	25.2308	52.5856	6.3424	9.5799	9.2137	17.2978	6.4155	11.7349	12.4633	3.6837
7096.0000	12.5370	-0.2196	1.3537	-15.4614	8.5923	-8.2793	25.7762	-2.3455	-0.0187	-3.2306	0.2338	8.2446	1.7375	2.0459	11.8894	1.4940
7104.0000	9.1003	-4.3542	-2.7465	-8.5254	6.6094	1.1971	19.8962	-25.8335	-1.2816	-10.5978	0.3433	3.9696	1.2608	2.4352	14.0741	-3.2433
7112.0000	0.1005	-11.2415	-7.9501	2.5815	5.9988	-12.6583	9.7416	-49.9915	-2.5986	-13.9186	-6.0301	-3.2683	-3.1132	-1.0125	13.3275	-6.3299
7120.0000	-2.5726	-16.0779	-9.0582	13.5641	-1.5728	-16.8235	-14.2636	-72.4647	-6.8542	-15.3774	-15.4315	-8.0450	-8.0739	-17.0165	7.5326	-6.5600
