Time	Fz	Fpz	C3	C4	T5	T4	O1	O2	F7	F8	F3	F4	T3	T6	P3	P4
0.0000	24.6091	1.0039	4.0516	4.2794	-7.6830	-8.1735	-2.8078	30.5678	-298.1647	-2.2589	11.6410	-5.4834	-10.4258	-10.5613	-3.5089	2.9419
8.0002	-30.7640	-103.5459	-12.5341	-13.6861	-7.1587	-1.9773	-12.2688	13.0660	-57.6091	-58.4957	-37.3763	-39.7481	-7.5090	-1.4388	-8.4725	-4.7028
16.0005	-26.3708	-97.1476	-8.4559	-17.2141	-10.5040	-20.2141	-11.9869	-28.8621	-56.8294	-57.6363	-39.2710	-38.0182	-10.2954	-11.2990	-4.5012	-7.4430
24.0007	-30.2445	-97.2232	-8.3409	-19.0451	-6.1709	-11.2349	3.8814	27.9676	-46.4088	-45.6367	-37.4247	-38.8234	-5.1868	-3.8186	7.7990	-0.4100
32.0010	-36.6097	-102.2563	-9.3925	-17.9074	-4.5924	3.1891	13.3010	60.2913	-45.8896	-45.2958	-38.2559	-44.6699	-2.9292	8.3228	8.6506	3.1517
40.0012	-39.2645	-101.6578	-6.0950	-18.9876	-8.8666	-8.4416	9.5680	17.9996	-56.6348	-56.2116	-42.8019	-47.1231	-6.7735	6.8934	1.4310	-0.8616
48.0014	-21.0415	-81.6081	-2.3874	-16.7060	-9.1367	-10.5288	3.3973	8.7202	-51.4510	-42.8481	-29.4525	-28.7750	-5.3813	-5.6200	-3.4601	-5.4267
56.0017	-8.7550	-66.9142	-1.8568	-14.2154	-9.1082	-10.2554	-7.7858	-3.2258	-38.3920	-32.9383	-18.0773	-15.6329	-4.4882	-10.3844	-11.5681	-11.0793
64.0019	-10.1171	-59.4921	2.2286	-10.0273	-16.6944	4.3226	-15.1363	-27.1398	-41.0274	-35.1076	-24.9854	-19.1171	-6.3627	-3.3824	-18.8565	-11.6858
72.0021	0.8215	-38.2024	7.7215	-5.1649	-17.9338	20.5376	-8.2097	-21.0510	-36.8617	-16.2448	-21.1129	-9.0196	-3.8423	-4.2563	-15.7188	-9.0230
80.0024	3.7712	-29.7574	6.9327	-8.4819	-11.5011	3.1516	0.9804	6.2734	-26.6444	-8.4833	-9.8049	-4.0379	-1.3545	-7.7863	-6.6685	-6.4498
88.0026	-2.0609	-32.5450	4.8668	-9.3731	-14.7204	2.7622	-7.2525	16.2564	-33.0641	-22.2083	-6.8023	-14.2347	-1.6431	-8.4367	-3.1874	-3.7878
96.0029	-3.6831	-25.5150	5.6346	-8.1303	-15.0488	6.4681	-10.3459	-2.6784	-32.5917	-17.8370	-9.1747	-11.5079	-1.4298	-8.5961	-1.1350	-3.9035
104.0031	-10.1490	-23.8270	5.4261	-10.9303	-6.5031	-6.8984	6.5155	15.0294	-24.4786	-8.5838	-14.6228	-8.4390	-0.0028	-1.2379	8.1741	0.4052
112.0033	-9.8659	-19.8676	2.2819	-5.4339	-5.3862	6.5846	2.5855	46.0448	-25.8591	-10.5197	-13.6275	-11.6938	0.8880	3.0350	9.9221	6.4882
120.0036	-5.1005	-4.9926	2.8437	3.2926	-5.6835	13.6184	-3.3059	22.9243	-20.9879	-4.5812	-14.5307	-7.8274	-1.5449	6.2788	-1.0487	6.5253
128.0038	-3.6887	0.7320	8.9986	2.7230	-4.2689	8.6761	20.1100	4.0757	-16.8108	3.6651	-15.9683	-4.9032	-2.0546	10.3021	-3.5141	5.2075
136.0040	-1.5149	-3.3580	9.1041	-1.8632	-4.9763	14.7652	24.8332	35.4325	-17.3516	1.1637	-0.7485	-4.8499	2.5746	5.5543	1.1524	3.7563
144.0043	-2.5180	0.6760	7.5139	-2.6671	-8.3741	7.4710	1.5997	51.1738	-11.2761	-1.1450	5.7465	-5.1900	2.6011	5.2456	-4.2632	2.5144
152.0045	2.7479	14.7677	13.5877	-1.8225	-19.1297	2.2275	-19.7199	-8.4652	-5.6640	4.0292	2.2449	-1.6200	-1.1873	-1.9985	-12.6335	-3.5209
160.0048	9.3878	21.6432	14.6626	-4.6876	-20.3945	2.1958	-25.7614	-43.7446	6.3582	10.6412	14.2137	8.6418	1.2399	-16.6464	-10.8174	-10.8638
168.0050	6.5873	16.7414	8.5243	-3.3593	-9.8154	2.0225	-14.0392	9.0600	11.2152	11.3173	16.3194	8.6745	3.8798	-10.2026	-4.1393	-4.2551
176.0052	7.9249	17.9379	7.3188	4.0363	-7.9732	8.0998	-3.5508	28.8755	-3.1735	5.4594	7.0710	0.2579	0.6563	-2.7081	-3.3060	4.7761
184.0055	8.1348	27.1583	8.8507	3.5761	-4.2179	0.3610	12.1693	25.4445	1.9153	4.9276	14.7045	1.0562	1.4848	-1.5950	-0.1929	5.7235
192.0057	0.0178	22.8039	4.4025	-4.1990	4.2381	-10.0745	20.0935	42.9333	17.6674	8.8585	19.0887	3.4782	5.7434	6.0440	12.2919	4.5674
200.0059	-2.2177	11.2806	-0.3544	-6.9002	-0.7847	-12.2140	-5.9527	-7.0068	9.2422	1.6092	9.5080	-0.2600	2.2678	1.2069	12.9387	-1.8356
208.0062	4.4398	16.9379	3.4109	-3.6446	-8.2515	-11.5167	-14.7543	-54.0244	-0.4660	-4.2046	11.1857	-0.3801	-1.5538	-7.1536	1.2683	-6.8770
216.0064	9.4201	24.5852	6.1923	-3.1992	-5.0367	-9.4869	-1.3935	-18.0565	2.5334	5.2618	18.7219	5.7604	1.4049	-3.7037	1.4211	-4.7150
224.0067	6.5310	25.6522	3.5473	-2.6474	-1.8552	-3.3359	-8.3077	7.2928	7.2151	12.2737	17.6431	10.2279	4.0958	-0.5221	5.0753	-2.3930
232.0069	5.5606	33.0049	3.0281	2.8789	-1.9891	17.5382	-9.1462	-3.0925	13.0956	12.2122	20.7121	11.7072	5.8651	1.5334	2.3064	-2.1104
240.0071	9.5928	32.2269	2.7764	2.5984	0.7272	13.2146	0.5379	-17.1513	13.5960	11.3202	22.6824	13.6619	5.1328	0.5556	1.5239	-4.3687
248.0074	5.5179	22.9512	1.2332	-0.5989	4.8853	-8.2029	2.6576	-18.1668	6.8219	7.0033	16.7658	13.6567	3.0497	-4.1758	2.9131	-3.6420
256.0076	-1.0120	17.6258	-0.9398	2.3513	8.8368	-0.3280	11.3985	22.2797	4.1098	3.9323	12.9237	8.3448	4.4090	-0.0811	7.0810	4.4952
264.0078	0.6874	15.3269	0.0166	4.3388	8.5184	-4.4182	18.7758	42.9113	-0.5420	-0.0818	0.5237	1.8472	1.1359	9.2077	8.1164	10.3733
272.0081	1.4938	19.9793	3.8752	3.7461	1.9840	-6.7011	8.0647	-1.7834	-10.2718	-2.1248	-5.1392	3.0730	-1.6626	7.8026	3.0479	5.4448
280.0083	-0.5783	21.9392	2.4346	2.4249	-0.9574	12.5418	-7.1541	-23.6735	-3.6780	8.1115	8.5062	9.0423	3.0686	2.1929	0.3738	-2.5885
288.0086	4.7832	22.9486	2.3176	2.7070	0.6247	8.9605	-3.1029	-8.2971	9.1016	14.4708	7.9538	10.6003	2.7022	6.7870	-0.8138	-2.0904
296.0088	11.7605	30.3105	1.4445	5.5374	5.3879	7.3241	7.7633	0.3385	7.4683	11.7439	5.6293	13.2784	1.6893	14.6569	1.8943	0.5919
304.0090	9.7810	29.0758	-3.3602	5.7864	11.1081	13.6057	3.0175	33.8826	7.9411	15.1740	10.8567	18.3490	5.2889	18.4157	4.1749	1.5925
312.0093	9.8403	24.3820	2.2529	5.1133	5.3418	14.1554	0.8455	56.2676	1.5745	20.3639	5.8813	17.9058	4.8500	16.4249	-2.5025	2.8701
320.0095	15.3551	20.7510	6.8838	1.0456	-2.3851	15.7546	4.2032	27.3292	-19.2099	19.9910	13.7577	14.8640	4.0776	9.3378	-5.6635	-4.0877
328.0097	14.1910	18.9350	4.9407	-3.0671	-3.1207	4.3153	-1.9395	5.2489	-19.7113	13.3707	17.2279	12.4995	3.1374	6.5420	-2.7062	-7.8495
336.0100	9.7281	23.5363	6.0001	0.7472	-4.6363	3.0264	-10.5212	10.0118	-9.0752	9.2434	4.1794	10.9583	1.4307	3.9128	-0.0041	-0.5733
344.0102	6.6467	20.9473	3.6055	1.5400	-1.8513	6.2700	-11.1479	26.3444	-9.5574	14.3163	6.3139	11.2622	3.0550	1.7649	2.1612	1.6720
352.0105	5.1295	25.5767	6.6608	1.8090	0.8388	7.7192	7.2794	34.4619	2.3187	13.5997	2.8629	11.6049	3.9506	11.1529	4.3039	4.2473
360.0107	7.7471	34.5462	10.3399	5.2572	0.9537	18.6876	23.5308	35.4165	14.7571	9.8295	-3.2563	11.2487	4.3073	16.5903	9.4782	9.1387
368.0109	7.1350	18.3387	4.0928	0.8491	2.1427	0.9891	10.6732	44.5902	-5.7897	6.3665	7.3430	6.7812	2.9066	8.2298	4.5916	4.5985
376.0112	2.0760	5.8661	5.2516	-2.2633	-6.3274	-5.5724	-6.5512	13.3311	-32.7921	-6.2699	9.5663	-0.0582	-0.1439	-0.6137	-7.3145	-2.3421
384.0114	0.3381	12.7036	7.4732	-1.8805	-12.0477	10.9456	-12.8580	-43.2980	-35.2246	-5.6182	9.2647	0.9129	0.5323	-4.8151	-4.5797	-7.1920
392.0116	1.3523	18.4663	5.0776	-2.6187	-6.3914	4.1455	-8.9182	-49.2842	-25.9401	5.8106	11.7160	5.8024	1.3954	-2.8271	0.5624	-7.7359
400.0119	-0.3538	19.9486	5.9452	1.8523	-4.0908	14.4172	3.5456	-10.0006	-17.7958	3.6013	10.0007	2.7920	2.6036	5.0918	-0.8867	-0.9111
408.0121	-5.7714	13.3834	3.5281	2.3251	-2.7465	8.3380	3.5331	21.0142	-17.3036	3.4009	8.7726	-5.1375	1.7483	9.0935	-1.7814	3.7143
416.0124	-7.1268	8.6566	4.2709	-2.4365	-3.7977	-20.9115	-1.4479	-8.8936	-22.2195	4.2276	3.2036	-7.0170	-2.6379	1.3256	-1.8817	1.2229
424.0126	-3.5524	10.0517	7.5607	-4.1745	-7.7106	-4.7293	1.4722	-36.1739	-18.6558	-1.7709	8.4803	-1.9980	0.3761	-8.5012	1.6553	-3.3860
432.0128	-0.1660	10.1492	6.6784	-4.5480	-7.1133	-0.1300	-2.2185	-8.1902	-13.5493	-0.3415	16.4076	1.7858	3.0820	-11.0673	1.2085	-3.4724
440.0131	4.7446	12.9763	7.1081	-0.6740	-8.6974	-3.5674	-10.2222	-28.6352	-12.7503	2.1511	5.9850	3.7960	-0.7263	-13.8070	-2.6489	-2.7463
448.0133	8.4595	12.4524	6.8860	1.3154	-9.6091	13.4898	-9.2375	-53.0870	-13.9493	1.9134	3.1447	7.0580	-0.2052	-13.0266	-2.8968	-5.9785
456.0135	9.1378	13.1377	8.3433	-1.9111	-7.3333	1.7704	-1.9962	-8.5412	-21.0218	3.8900	10.6188	7.7248	1.1325	-5.6514	-5.2584	-5.0386
464.0138	7.6843	18.5794	9.0462	0.0156	-8.4992	8.1980	-3.9506	-5.8113	-19.4368	6.4463	10.6396	6.9774	1.6386	-2.1058	-5.6305	-3.6088
472.0140	4.4076	15.8931	7.7115	0.4835	-9.2077	20.0073	-10.3352	-9.5627	-10.3745	8.9067	5.1186	7.8043	2.9101	0.5606	-3.7140	-3.9321
480.0143	1.6357	8.9097	10.7436	-5.2628	-9.5468	-6.4354	-8.9209	33.0081	-9.5473	4.8826	-4.0366	5.2016	1.2740	1.0621	-0.3835	1.1960
488.0145	-3.0765	3.0504	8.4298	-4.4857	-10.6663	-3.2460	-14.5193	4.2544	-8.7878	1.1397	-9.1231	1.0904	0.1284	-7.3067	3.4119	1.5609
496.0147	-5.1442	1.0995	4.0800	0.6730	-8.3111	3.1751	-15.1682	-56.6816	-9.6282	0.2390	-7.2946	-0.3770	-2.0142	-17.0729	-0.8378	-1.9424
504.0150	-3.2909	1.5583	5.1794	0.8521	-3.2773	-13.6737	6.5920	-34.4614	-12.2231	-5.4737	-2.9091	-3.9779	-3.3638	-17.2528	-0.4729	2.6361
512.0152	-2.8127	2.2344	5.2297	2.3446	-0.9580	2.1181	19.7913	16.9753	-5.4949	-3.2297	-2.2369	-5.9884	-0.0629	-4.0872	3.7421	8.0050
520.0154	1.1460	8.8897	7.3618	3.8404	-5.3372	16.2814	10.9701	19.8118	6.0502	2.6265	-5.4326	-2.4804	0.9140	3.6491	0.9451	6.4721
528.0157	3.6082	11.3732	8.7376	-1.9766	-8.8439	4.7092	0.9839	-13.2476	15.0835	2.2212	-3.5750	1.2178	0.5981	-2.4672	4.1441	0.2028
536.0159	4.3881	9.6622	7.1366	-5.2679	-5.3749	-0.1237	3.0026	-10.2953	16.1166	4.8183	-1.7785	5.5960	2.0597	-2.0355	8.7883	-1.6946
544.0162	8.6566	8.9490	5.7453	-2.1739	-2.6877	-0.5456	6.0504	36.6835	10.6731	2.6565	-0.9471	4.7335	1.8313	2.5041	6.1865	3.4339
552.0164	11.2279	8.0214	4.9171	1.8464	-5.3859	1.1440	-0.8317	27.9929	3.5643	-0.9550	-0.7474	0.8381	-0.9027	-0.6403	-1.3806	3.5008
560.0166	13.9581	13.0122	7.0826	2.4872	-7.7077	0.9495	-7.4221	-29.9224	4.2086	3.5496	-1.3640	8.2102	-2.3376	-8.3956	-7.5974	-3.6849
568.0169	5.6171	3.0238	3.9540	-2.8846	-6.3752	-4.4018	-16.0411	-20.6195	13.0374	0.6208	1.0942	7.9157	0.2976	-15.0522	-1.7936	-4.6022
576.0171	-5.8364	-11.9364	1.1032	-1.0857	-5.6591	-4.7955	-15.9456	28.6978	4.5756	-7.4042	-11.3723	-5.5424	-1.0869	-11.3138	1.6012	6.1421
584.0173	-2.1156	-6.5973	3.8669	3.0565	-4.4435	-2.4334	-2.0077	24.7138	-1.2657	-6.1222	-20.3860	-5.6539	-3.2979	-6.4436	2.0297	10.1922
592.0176	-5.7884	-9.0009	0.0976	-2.1562	-3.9962	8.4564	-5.8538	12.2801	12.6257	1.1271	-7.1936	-5.2595	1.4421	-3.8216	7.4093	3.1157
600.0178	-6.0354	-7.6742	0.0769	0.9880	-6.7866	21.4097	-6.5305	20.7575	9.8868	6.0539	-6.5575	-10.8564	1.0657	7.3374	1.5486	3.3293
608.0181	3.0398	0.5823	0.1230	4.4040	-2.2727	10.1894	3.0645	-15.4079	9.5206	3.3930	-6.9149	-4.8442	-2.4541	6.6713	-3.7459	0.5841
616.0183	-3.5494	-10.2306	-7.4427	-0.8978	1.8586	-5.6491	-11.9530	-57.1834	18.7465	-0.2383	1.5107	-2.8529	-2.0761	-7.7666	-2.2542	-7.2511
624.0185	-3.5677	-10.3181	-6.2532	0.0199	-2.5774	-4.3545	-20.9012	-45.9903	12.1098	4.6424	2.1563	-6.0517	-2.5934	-13.0831	-3.5845	-5.1096
632.0188	-3.4208	-11.0419	-5.6901	-3.4418	-1.4649	-9.6360	-18.7813	-21.9565	13.2951	8.1011	8.3661	-3.9262	-0.4369	-13.2210	-1.7408	-5.4117
640.0190	-7.9994	-18.3817	-6.6904	-2.9191	0.0595	-7.6597	-17.8169	10.9006	10.9503	1.5571	4.3145	-6.4960	0.0162	-6.8943	-4.5330	-2.3224
648.0192	6.6927	-2.5622	-4.0930	8.1067	2.4634	17.7422	5.9722	24.0708	7.6022	1.7717	0.7706	-4.0679	-0.3349	-0.0741	-1.5946	5.5060
656.0195	5.7600	-4.7920	-9.6042	5.5447	10.0208	17.4156	14.9583	-3.0332	21.9552	8.7302	11.6248	-0.3103	2.5033	-5.3505	5.8338	0.8150
664.0197	-3.4599	-18.2959	-10.7352	3.8677	6.0733	-4.5113	-4.7360	-31.1283	13.3878	5.3466	0.4209	-7.2529	-3.4095	-8.4921	-6.3782	-2.3010
672.0200	5.6752	-9.3912	-9.6161	8.9477	2.9360	-0.8979	-11.2698	-79.2815	3.3015	7.9689	-3.7275	-3.9406	-7.3532	-11.7664	-12.1670	-5.5778
680.0202	6.2866	-5.4608	-10.6858	8.4467	8.3676	11.0866	-0.3827	-57.7982	9.3701	16.5412	6.6188	2.8842	-1.9913	-10.1867	-6.6633	-5.5766
688.0204	8.9672	1.8207	-4.5039	14.4941	8.4670	20.8106	16.4768	45.8537	4.5780	15.9554	-1.0224	-0.0479	-0.9204	8.4507	-9.7700	8.8762
696.0207	9.9388	5.2419	-8.8675	14.4217	12.1978	27.0962	13.0203	42.9489	17.6083	22.3792	3.8865	3.5594	1.2884	13.4537	-6.1083	6.5255
704.0209	-0.2924	-5.3525	-14.3201	7.3435	13.6648	10.4145	-3.5350	6.7914	26.2717	22.2513	7.6710	2.8918	1.4238	6.6541	-4.8768	-1.0466
712.0211	2.9913	-0.3872	-7.4075	10.6368	8.8700	-1.1947	5.1703	19.7828	11.8293	13.8030	-2.8131	-3.8163	-3.7146	9.2216	-10.2187	5.7179
720.0214	-0.7347	-3.1336	-8.6823	7.7893	13.1849	6.7669	17.1812	-0.0160	16.7344	21.1473	3.7640	0.1247	0.2061	3.9184	-2.3533	2.6324
728.0216	-12.3237	-17.1975	-13.3863	2.6385	16.0946	4.6589	11.9083	-6.6006	17.5188	16.3371	5.2669	-1.5952	2.6956	-3.0891	4.2382	0.6451
736.0219	-7.5500	-14.1401	-15.1203	7.4086	13.6531	-2.3905	2.3804	-35.7062	6.7718	7.3506	0.1156	-6.6747	-3.0858	-4.0825	-1.8745	0.7763
744.0221	-3.4578	-10.1349	-15.3905	9.0633	13.5102	3.7878	-0.9672	-54.2482	11.3177	20.1687	4.3822	-1.7440	-2.7078	-4.3597	-7.0639	-3.6023
752.0223	-4.1627	-11.6096	-12.9331	10.1708	12.4656	9.5023	2.7088	12.5303	16.3327	19.4747	0.6005	-4.3568	-1.0110	3.8779	-7.4006	3.9275
760.0226	-4.8148	-18.0421	-15.6051	12.5391	11.8916	1.4674	-2.3486	21.8921	14.9966	7.8310	-6.5461	-12.7161	-4.9057	5.3667	-10.2294	7.7530
768.0228	-3.7218	-22.1293	-12.2115	10.6387	6.4611	0.3105	-4.1391	9.6571	8.7905	10.4930	-7.7884	-14.8670	-6.0468	0.0281	-12.9961	5.5348
776.0230	2.3694	-12.3857	-5.5888	7.4071	2.0575	3.3447	4.3788	20.6283	10.5830	17.6110	-2.2215	-11.9816	-3.8615	2.9913	-9.7988	4.4663
784.0233	-1.3260	-13.1837	-10.7723	3.0308	9.9727	-13.7849	4.3960	-17.8418	21.4498	16.5039	3.1751	-5.8396	-3.3984	0.8687	-6.7724	-2.1903
792.0235	-10.4007	-21.7465	-13.5517	3.2393	13.3117	-15.0906	7.7977	-13.6155	16.9188	7.2586	-0.8510	-10.4641	-3.3301	-1.6669	-3.2210	1.3787
800.0238	-7.1696	-16.0906	-10.8854	6.9028	7.9172	1.1916	11.5165	9.3494	11.4804	8.3242	-2.4994	-18.1282	-3.3363	3.4107	0.4142	7.3848
808.0240	0.2279	-8.1594	-9.9573	3.6267	9.4441	-4.7624	9.2537	14.8051	18.4691	14.3290	-0.6062	-8.3428	-1.7751	5.5809	5.0628	4.7973
816.0242	-1.4758	-5.9730	-11.4253	0.9473	18.4964	0.6335	23.6006	46.3317	22.1530	18.1408	-1.2614	1.3574	3.7455	8.6800	20.7416	8.6153
824.0245	-6.3191	-10.3754	-13.3543	2.4545	22.9904	10.7821	36.7449	32.8142	12.7937	26.8121	-8.4472	0.0050	4.1673	13.1835	26.9391	10.3328
832.0247	-3.2923	-17.0972	-7.9518	-2.2581	14.7652	-8.6921	23.6103	6.1514	-1.1682	21.0044	-17.7089	0.5784	-0.8240	10.5952	15.4023	3.6180
840.0249	5.3756	-12.4945	-3.3248	-4.4580	5.2425	-9.1874	4.3904	1.1932	0.3785	17.3562	-12.2018	5.2758	-0.9659	2.3943	8.1956	-1.8032
848.0252	14.0869	-2.2774	-1.2713	1.2720	-0.1946	4.8946	-8.5029	-23.4080	2.0818	27.4078	-7.4382	10.6834	-1.6572	-3.6215	-2.1884	-5.5116
856.0254	13.8124	-2.2358	3.5944	-2.3182	-7.2582	-7.5824	-21.8186	-28.3272	-2.0287	26.8796	-7.2855	11.4722	-3.2624	-6.3236	-11.4314	-9.6227
864.0257	5.1032	-3.9667	2.6160	-5.3755	-5.9633	-8.8356	-20.9173	13.3283	1.8761	26.6140	-1.5140	6.9114	0.0717	-2.4189	-5.7508	-5.5639
872.0259	0.2972	4.1284	2.1858	3.1907	-0.0175	4.8666	-4.2789	58.6155	-4.7938	19.1975	-8.4053	2.9874	0.7620	10.4679	-2.4442	7.0506
880.0261	-7.1873	4.3719	3.9653	-1.2815	0.0579	-3.7682	3.1591	41.2626	-6.7569	21.6905	-6.9463	-0.1186	1.2396	11.4949	2.1179	5.7004
888.0264	-10.2212	-0.3336	1.1212	-9.4476	1.5261	-11.7432	9.9744	11.4199	3.9723	49.4724	10.2444	-3.3599	4.0898	3.6752	11.5017	-1.4326
896.0266	-0.1027	5.6600	0.5615	-5.3393	3.2732	-13.6480	17.6086	-4.9423	-0.2918	34.7479	8.4420	-2.8291	0.8917	5.2823	10.1623	-0.9726
904.0268	4.2871	5.5272	1.8488	-8.2765	4.0012	-20.4828	16.7111	-40.7613	-2.5921	5.8380	4.1053	6.0060	-0.0517	1.9743	9.4655	-7.0750
912.0271	7.6929	6.2528	4.7459	-7.5205	3.6624	0.6175	22.4055	1.2557	-0.1706	17.4554	8.3711	13.1164	5.3914	-1.5048	12.8809	-4.2960
920.0273	5.0334	7.6298	5.4099	-1.5977	-0.6131	7.6157	11.2716	43.5600	-4.5297	13.0804	5.4942	6.0045	4.2487	0.4263	6.0387	3.4320
928.0276	-8.1995	-3.4313	3.3555	-4.5865	-4.5872	-22.1146	-13.3909	13.6572	-10.7673	-8.6351	-2.1220	-3.4080	-1.9606	-0.1716	-7.5593	-0.3722
936.0278	-4.0206	2.2406	9.1337	0.0674	-11.8545	-7.3932	-16.8361	15.8264	-17.7397	-18.8833	-6.8992	-3.3462	-3.1562	2.9751	-17.3558	0.4115
944.0280	-4.5966	4.1164	8.1104	-1.0694	-12.9134	6.4041	-19.3811	-12.2791	-7.8319	-28.0511	1.6423	-0.5298	0.0235	-3.6995	-13.5869	-4.2158
952.0283	-15.6833	-11.5530	0.7108	-7.1891	-3.3105	-15.2118	-11.5758	-21.3133	-4.0524	-37.0522	2.9548	-4.5084	0.1624	-7.0600	-5.2770	-5.2208
960.0285	-7.5484	-3.8969	3.6129	2.6258	-4.6327	3.3194	6.8063	12.1207	-13.2803	-48.0822	-5.7046	-12.3581	-2.3454	5.1730	-6.2895	5.2459
968.0287	-8.8751	-2.9261	2.1223	-2.8946	-5.2947	1.0733	3.5999	-17.0744	2.2824	-51.1150	5.2470	-11.4522	0.0252	0.6445	-1.0697	-1.3571
976.0290	-14.4651	-9.7040	-0.1705	-12.0088	2.0488	-27.3880	6.9108	3.5779	8.3615	-52.8336	7.8850	-6.7054	2.0125	-3.3760	8.4701	-1.7129
984.0292	-5.9854	4.6383	3.5991	-2.0083	0.9433	-4.3060	16.8789	24.5010	1.5911	-55.6807	-1.0877	-5.2619	1.3651	4.3119	8.8587	6.9241
992.0295	-6.8599	-10.7236	-3.4871	1.3133	3.4629	9.2797	3.6252	-17.3331	-19.2031	9.3376	-6.1241	-1.6223	-0.1546	0.9587	0.7841	-0.6783
1000.0297	-0.6821	-1.3417	-1.3857	4.3092	2.9697	13.1163	0.6634	-8.0914	-17.4473	13.3518	-6.2676	4.9387	0.3344	-1.9796	0.2196	1.3056
1008.0299	3.0383	0.0784	-2.1760	8.8504	6.0360	16.3108	4.8384	29.7785	-13.4615	15.4182	-8.1727	6.0256	0.3694	0.7030	-1.7353	7.0754
1016.0302	-2.4290	-6.6625	-1.8276	4.8253	2.5109	15.4793	2.0917	25.9487	-15.8413	8.6566	-5.6374	0.0867	0.9549	-0.7926	-0.2724	5.2089
1024.0304	-3.7988	-3.8018	-3.0429	6.1555	1.6237	25.2768	3.7669	-18.8632	-15.6696	6.0898	-1.2999	-2.1108	0.8249	-1.1126	-0.6927	0.8490
1032.0306	-9.8199	-10.9570	-5.7511	6.1210	6.2089	9.9654	4.7580	13.9552	-14.4425	6.0193	-7.5792	-6.2231	-0.8325	4.5067	-2.1881	5.8246
1040.0309	-10.6539	-10.1922	-4.9676	4.2344	3.4789	-3.4636	-2.7664	-3.6201	-9.1355	-0.9653	-7.5593	-8.3692	-2.9004	-0.9078	-3.6455	4.3829
1048.0311	-4.9763	-3.4884	-3.2353	2.5655	1.7128	7.5576	1.9879	-31.0659	-1.9380	-1.0600	5.5270	-3.3615	0.2222	-8.2009	-0.6913	-1.3660
1056.0314	-7.8555	-11.5422	-1.5620	-1.7346	2.2185	3.1131	8.7137	3.3791	-11.9498	0.2393	2.7366	-4.4575	1.5531	-4.7284	2.7180	0.6653
1064.0316	-6.0267	-10.3969	-1.1701	0.1875	-0.7142	6.1581	1.8731	-33.6133	-15.7177	-2.3045	-4.1225	-4.1332	-1.0318	-6.4434	0.1342	-1.8591
1072.0318	0.8610	-4.0480	-2.2568	2.3635	1.5395	8.5231	2.1769	-33.9325	-6.5346	-0.0907	3.5593	1.5847	-0.0322	-9.9510	-1.5998	-3.1678
1080.0321	-2.1171	-12.4145	-5.5396	1.3406	6.0747	-8.2974	5.7811	20.7274	-6.4800	-2.9892	5.8866	-4.6769	-0.6407	-7.3483	-1.9666	2.6989
1088.0323	-5.6066	-21.4242	-7.8764	3.8869	3.9004	-1.2092	4.8315	8.8089	-12.9791	-12.9898	-0.0372	-14.6856	-3.2271	-4.6828	-4.5900	3.6817
1096.0325	-2.5391	-21.2940	-5.3335	2.8804	-0.8255	1.8689	3.9787	-41.2538	-23.4624	-17.0972	-1.9821	-14.5101	-5.2780	-6.7927	-7.8012	-2.7921
1104.0328	1.1820	-16.4496	-6.0678	-0.0465	0.1905	-11.1972	-1.1457	-68.9954	-24.5186	-13.7403	3.2071	-9.2941	-5.9128	-12.3967	-6.2270	-7.6575
1112.0330	5.5249	-6.9339	-6.1839	3.2405	4.1422	1.6080	3.2281	-8.9198	-18.5969	-7.7699	7.9663	-2.9225	-1.4964	-7.8488	-1.0177	-0.8013
1120.0333	7.2597	1.0617	-4.3046	6.4048	3.5446	8.2131	1.5303	-10.3758	-19.4790	0.2310	6.6139	1.1690	-1.2615	-5.8925	-3.8514	-0.0698
1128.0335	4.2485	-5.5042	-11.4754	5.5976	5.9886	0.2231	-12.6759	-74.8105	-16.9377	2.6703	8.4794	1.2060	-3.7187	-13.5024	-6.3135	-8.2611
1136.0337	5.9563	-13.2440	-14.1389	7.8194	11.8935	8.1592	1.1613	8.0594	-22.6062	-6.5576	9.2265	-1.4133	-1.1224	-5.7864	-2.7314	0.8204
1144.0340	10.8267	-7.2142	-6.9933	10.6868	7.0998	10.3102	11.0986	28.2445	-30.3442	-9.9194	4.7364	-3.7845	-2.7985	-2.6219	-7.4062	5.3975
1152.0342	11.8554	-3.0763	-5.3039	6.2700	3.0789	-2.3434	0.5334	-32.6190	-22.5754	-5.3797	7.7539	-0.3236	-4.3286	-12.0930	-8.2694	-3.0776
1160.0344	10.9323	-5.6840	-9.3892	5.0655	12.8571	-10.5044	11.0355	33.3581	-20.6728	-10.6347	9.5710	2.1174	-1.5344	-5.3918	-0.0874	3.8919
1168.0347	7.8806	-7.1339	-12.3705	10.4127	14.2260	-7.1784	8.4930	16.1383	-23.4636	-14.0455	2.2331	-2.2895	-4.4133	-3.9117	-3.2625	6.3006
1176.0349	11.3358	-4.5653	-9.7289	10.3926	5.4539	0.7698	-4.2585	-61.1499	-20.2737	-7.7073	3.7728	-1.4000	-6.4270	-14.5102	-9.4905	-3.3905
1184.0352	20.0046	1.2269	-8.1409	10.8504	8.0100	9.9184	8.7883	-19.6663	-10.7896	-3.9499	12.9922	4.2644	-2.6227	-11.2661	-7.1594	-1.5971
1192.0354	16.8485	-0.4514	-10.6213	11.2993	8.1583	18.3672	2.9315	-24.8120	0.4738	-1.5173	11.7624	3.6440	-1.5142	-8.8079	-5.7752	-2.3686
1200.0356	10.3022	-7.5069	-10.1226	4.2873	2.6806	6.5163	-13.3744	-65.0423	-6.0286	-2.3897	6.5081	1.4600	-3.1251	-13.3384	-3.8362	-8.6479
1208.0359	9.8230	-7.2280	-12.3348	4.7504	7.8820	-0.7319	-7.8059	-29.0039	-14.1836	-9.5923	5.8556	0.8478	-2.9632	-8.1030	0.1175	-3.4332
1216.0361	8.8003	-1.5037	-12.9108	8.9346	7.8437	16.4011	-8.3269	-31.7312	-10.0367	-8.8206	5.6148	1.3021	-1.5903	-4.0388	0.2434	-2.0144
1224.0363	8.8615	0.3124	-8.6561	3.0301	4.6195	8.6330	-9.3109	-45.0716	-12.0489	1.4503	8.9160	5.4183	-0.5000	-6.4874	0.8258	-7.0736
1232.0366	-15.9618	-9.6538	3.6903	-3.6367	-2.9453	-5.2437	4.2361	30.0415	-90.7049	-5.1818	-8.1906	-11.3108	-1.5647	9.4742	2.2404	5.3584
1240.0368	-4.8683	0.3932	7.6991	-1.9739	-9.6555	0.2749	-7.1931	19.8310	-54.2985	-3.4390	-16.7300	-5.9220	-2.4819	6.2879	3.4717	5.5309
1248.0371	-4.3579	0.9166	11.3743	-12.0583	-12.7689	-4.9148	-12.3529	6.1693	-30.2542	2.2429	-7.6721	3.6675	2.2059	-0.9411	8.0655	-3.2231
1256.0373	-3.6111	-0.2083	8.0155	-14.3904	-8.8585	-16.1724	-14.4601	-4.2762	-44.8325	3.0313	2.8349	6.6656	2.4888	-7.0775	8.0331	-7.1275
1264.0375	-3.4845	-1.5409	7.7226	-12.8810	-13.6993	-13.8796	-23.9507	-25.6684	-17.3813	-3.4378	0.0979	1.6579	0.7116	-11.1220	4.7183	-8.0434
1272.0378	3.4645	4.7542	10.4461	-10.5186	-15.7226	-4.4963	-16.8505	0.6057	-3.2323	-2.3718	6.3307	1.4328	2.1507	-8.2990	2.2833	-6.0174
1280.0380	9.5769	10.2538	8.4762	-4.3437	-10.3220	-3.7557	-8.5675	20.2202	-26.4127	1.4952	9.4317	3.1566	0.7841	-4.8515	-1.6332	-2.2021
1288.0382	-0.1914	5.0552	5.4913	-3.7942	-5.9953	-5.7121	-3.4806	-14.3594	-19.5368	0.9828	3.8422	0.6653	-0.0331	-5.4858	0.1455	-2.6958
1296.0385	-2.7586	5.1676	6.0030	-1.6727	-0.3061	-0.8535	14.1708	12.9393	-1.9916	3.8505	-3.4369	1.8691	1.5783	1.5751	4.8592	3.5929
1304.0387	-2.9860	2.2157	4.0568	-0.5549	1.4056	4.5274	14.4603	40.5601	-14.8324	0.7636	-7.9717	0.2975	1.8467	8.2485	7.9996	7.2599
1312.0390	-3.7498	0.2892	5.2212	-6.1934	-6.8225	0.9525	1.1380	11.1262	-41.6146	-6.7612	1.2207	-5.3582	1.0679	3.6711	7.3119	0.0684
1320.0392	8.6574	9.7013	10.1965	-5.6679	-10.3826	-2.9477	3.7964	10.7454	-42.9234	-0.5446	8.1833	-0.2045	0.3364	-1.4681	2.3314	-2.0351
1328.0394	6.6247	7.4410	4.2133	-3.5597	-2.4457	-6.0405	-0.9712	-4.9312	5.4437	6.5745	1.5125	7.2872	0.8974	-3.9784	3.4725	-2.4300
1336.0397	-2.2386	0.9951	0.8643	-5.5436	-1.4599	-11.9783	-9.9624	-6.6996	10.7932	-1.0406	4.3984	3.8725	1.2602	-4.1763	0.7883	-4.1224
1344.0399	-1.2997	-1.5758	9.1723	-7.0744	-10.8581	-10.7471	-4.4100	23.1651	-64.6860	-10.1198	11.6579	-4.1842	-0.1779	-3.4031	-8.2342	-3.4795
1352.0401	-6.5008	-6.6521	5.9084	-6.6945	-10.1458	-5.6007	-8.1276	-13.0247	-81.0206	-8.7923	7.2606	-6.6225	-1.0659	-7.8381	-3.3413	-4.8222
1360.0404	-4.7605	-3.0899	-3.5891	-1.4020	0.8845	-4.4914	-7.1136	-29.4926	-40.5144	-2.5021	5.3789	-2.3993	-0.8763	-8.5608	3.7754	-2.4852
1368.0406	-1.4169	-3.2721	-0.9954	0.0054	2.8031	-8.3978	8.0818	-0.1411	-39.0039	-3.1357	0.9764	-3.4467	-1.7709	-3.1384	2.7403	2.1878
1376.0409	-6.4020	-9.2491	2.8898	-3.6758	-4.0626	-10.0433	1.8503	-13.1028	-48.0799	-8.5604	-7.8106	-7.7539	-3.1002	-3.6989	2.7951	0.9135
1384.0411	-7.2550	-11.5548	0.6399	-4.1371	-4.1695	-8.7215	-7.1714	-16.9248	-48.1149	-7.6052	-4.4994	-6.6047	-2.4992	-6.2631	1.1400	-1.4336
1392.0413	-7.9996	-16.3139	-2.4345	-3.3017	2.5610	-14.0101	5.5993	18.5849	-35.6050	-5.3081	-3.6530	-8.7163	-1.8091	-2.5734	3.6297	3.4137
1400.0416	-0.5460	-9.9608	-0.7057	1.5459	0.8128	-9.1451	11.0408	46.7985	-31.7482	-8.9412	-7.7860	-12.6549	-3.4793	2.3277	4.0848	10.1048
1408.0418	4.6936	-2.1784	5.7742	0.7914	-10.2644	-6.1241	-3.0528	14.5009	-53.0122	-11.1331	-3.2566	-11.4082	-5.2473	-0.7313	-6.5948	3.0366
1416.0420	-3.5115	-7.0320	4.6178	-8.7288	-9.1168	-19.3595	-10.7285	-26.0924	-41.7552	-6.3336	1.4720	-5.7668	-2.8276	-6.7558	-1.7963	-6.2363
1424.0423	0.6227	-2.8438	-1.0427	-6.0584	2.6035	-8.0354	3.7866	18.6457	-23.3849	-0.9920	1.9017	1.6861	1.7466	-0.3490	12.6091	0.5821
1432.0425	1.8334	1.2479	3.8963	-1.8790	-0.9073	3.6870	9.5726	36.5758	-24.9065	-2.5489	-5.6445	0.3844	1.2414	5.6348	8.4054	5.0701
1440.0428	-11.8020	-7.9705	10.0827	-11.2403	-11.6608	-15.2804	-3.9356	-2.1025	-21.4423	-9.0774	-8.4596	-6.9545	-0.2935	-5.4515	5.2127	-0.5149
1448.0430	-11.8337	-11.6242	6.5691	-14.2341	-8.7236	-22.5634	-2.5781	23.9969	-41.7958	-12.9605	4.1384	-9.6996	1.4336	-11.8858	12.0696	0.9700
1456.0432	-4.3884	-4.9264	2.5056	-5.6110	-2.6955	-16.0599	3.6515	47.7253	-47.4724	-10.8605	1.7897	-9.5755	-0.3565	-3.7964	10.6362	7.2363
1464.0435	-4.4379	-0.1234	6.2207	-3.5472	-8.3127	-10.9620	-4.6814	12.6589	-30.9402	-9.4366	-7.1732	-8.0957	-2.3640	-1.8749	3.4146	4.3259
1472.0437	-4.7137	-0.2615	8.5875	-7.2042	-12.3826	-5.2328	-7.4511	-3.5375	-40.7809	-8.2144	3.2259	-6.2083	-0.1483	-5.5218	0.6352	-2.2537
1480.0439	-2.9284	3.5720	-0.4356	0.3875	0.7942	-0.9016	0.4500	12.7607	-24.6763	-0.3120	1.8129	-2.5812	0.1887	1.6957	4.3446	3.3526
1488.0442	-6.8473	3.4401	-3.1238	5.5092	5.7380	-2.3976	1.9447	6.7508	-7.9961	0.1878	-12.7368	-2.6777	-2.2391	7.3292	3.4976	8.0107
1496.0444	-11.6750	-5.2396	6.4355	-4.2869	-8.0593	-12.5237	-4.6951	-20.9702	-40.8322	-6.8530	-9.3552	-8.1943	-3.3728	-1.2371	-3.1733	-0.3439
1504.0447	-4.7271	-3.1561	5.9220	-3.4422	-6.1478	-5.4018	0.8352	3.1486	-50.6843	-1.8615	-5.8601	-4.8988	-1.6763	-1.4392	1.7850	1.7056
1512.0449	-0.7889	2.6156	1.1075	3.9503	3.5223	1.4149	12.4442	35.6899	-39.4829	1.7757	-13.3955	-2.4129	-1.6354	7.7295	8.1060	10.7271
1520.0451	-5.0286	1.5528	2.6066	1.7030	1.6342	-6.7971	13.3352	21.6793	-48.3602	-3.9512	-11.9492	-6.4398	-2.8641	8.2653	5.7437	8.8912
1528.0454	-5.5304	1.4960	1.9465	1.0163	1.1131	4.4035	11.3656	19.6741	-46.8764	-5.4284	-8.2149	-4.5470	-0.4308	8.1185	7.9319	6.9677
1536.0456	-10.7099	-1.6714	1.1900	-3.8656	-3.0207	-2.1593	-3.6148	-8.8030	-39.1581	-5.1467	-3.6635	-6.3702	-0.1514	1.3652	8.0406	1.3347
1544.0458	-7.8400	2.8865	-0.2436	-5.1560	-3.6546	-12.3809	-12.5153	-37.9519	-40.0890	-0.8574	7.5485	-4.3450	-0.9403	-6.4922	4.5012	-4.2834
1552.0461	8.5345	16.3104	0.3307	6.2853	3.7095	11.7061	8.0680	10.1429	-26.2306	3.5920	1.7996	6.2143	0.5372	4.2730	4.4831	4.4534
1560.0463	7.9686	14.6101	5.2628	5.0092	-0.4271	2.9356	9.5143	24.9798	-15.8073	-0.6021	-5.5866	3.4905	-1.1460	5.5115	0.7305	6.8388
1568.0466	0.1058	10.6803	4.1492	-1.7749	-5.3207	-9.2004	-8.7408	-16.5069	-25.4724	-0.2562	7.9317	0.4247	-0.8740	-5.1935	-2.5642	-2.4324
1576.0468	2.6084	17.7763	4.1469	-0.9932	-5.2494	4.0931	-9.5303	-37.8862	-14.6401	4.8932	14.3568	6.4375	1.6364	-4.1402	-3.2444	-7.0824
1584.0470	1.0856	16.2485	7.4627	-4.6256	-6.5786	-6.7514	-4.8928	-19.7223	-6.5753	6.0847	16.5138	5.4153	2.1744	-5.1677	-4.0326	-6.4882
1592.0473	1.5022	14.1829	4.7748	-0.5247	-3.4819	2.0069	-0.1446	22.5015	-27.9719	4.9054	18.0366	1.9373	2.8865	-2.7205	-1.8961	0.2155
1600.0475	6.1933	22.9372	2.9123	6.8487	-2.5965	18.1389	-1.7199	-4.6337	-19.7274	4.9346	11.5334	3.9897	1.3976	2.1718	-3.1064	0.9601
1608.0477	0.1429	20.3844	1.8233	0.7467	-0.0870	7.2894	-4.3889	-36.5806	-7.5181	10.7514	18.3623	9.3796	3.3861	-2.8267	-2.6611	-6.5890
1616.0480	-7.9134	10.6291	0.4139	-1.6924	3.7110	9.2582	1.0520	-2.2601	-27.6712	9.4363	14.7286	8.4212	5.5584	2.5013	1.8356	-3.4612
1624.0482	-9.2636	8.9822	2.0013	0.2872	-1.0954	1.8052	-3.8852	-22.5153	-24.2749	-0.1263	-0.5359	0.1027	0.1405	5.8575	-0.9951	-0.9515
1632.0485	-9.1556	5.1248	1.9001	-1.6300	-1.5209	-0.8507	0.4960	-18.8977	-13.1184	-0.0256	7.3806	-2.6983	1.0981	0.7984	-1.4030	-2.1198
1640.0487	-6.7403	6.3210	0.4715	1.5936	1.3859	13.5362	8.2492	20.4731	-10.3559	2.1885	7.8324	-2.7439	3.5161	5.8734	3.3462	3.4907
1648.0489	-3.3686	9.2691	-1.7816	0.2775	0.3402	-2.6678	-6.2091	-36.5736	11.3718	2.6540	2.4290	-0.4580	-0.3754	0.2915	3.1524	-2.0415
1656.0492	0.0153	0.0412	-0.9007	-3.9533	1.5397	-0.1495	2.3177	-21.8703	13.9703	2.5299	6.8924	4.1047	2.4413	-4.2644	4.6999	-5.0173
1664.0494	2.0678	-1.9324	0.9731	3.4602	2.9643	22.3374	19.0310	52.3741	-8.9553	-4.1897	-2.4940	-0.4108	3.3361	7.1920	6.0353	7.6196
1672.0496	-1.8403	-1.1988	-3.6551	5.1688	4.2460	8.1147	4.6254	6.4109	-26.6183	-3.5324	-2.9301	-2.9175	-0.9072	1.9999	2.1219	4.7334
1680.0499	-1.5264	-5.0820	-1.1706	0.9078	1.8074	7.2754	3.0792	-13.4834	-42.1560	1.4937	1.7543	1.5918	0.1224	-3.6836	-0.7479	-1.9012
1688.0501	5.7006	2.5858	3.6565	6.5749	-0.3781	23.0716	12.3985	14.4723	-44.9608	1.8807	-6.9662	3.1444	-0.2298	5.6147	-2.9014	3.7653
1696.0504	2.7825	2.5017	-1.9558	6.3793	5.1869	15.5487	7.6510	-3.4453	-28.1635	6.3120	-1.9202	5.1868	-0.0099	5.4699	-3.6236	0.6314
1704.0506	-7.8453	-8.5133	-2.3087	-0.4016	2.7550	6.7058	1.7780	-6.6899	-9.8175	-0.4030	0.9323	-0.1412	1.4411	1.4478	-2.8015	-2.3522
1712.0508	-8.4589	-8.2124	-0.3082	-0.4218	-5.6220	2.1080	-9.8329	-35.8215	1.1463	-13.8537	-5.3279	-8.8868	-2.2634	-3.6574	-3.5088	-2.2174
1720.0511	-0.4952	-3.6291	-2.3410	0.5942	-4.4985	5.5400	-11.9987	-64.9726	21.6612	-8.2193	-0.8062	-3.3818	-2.0357	-8.3281	-2.9764	-6.6920
1728.0513	1.5992	-0.8139	-1.8466	3.6803	-0.5431	14.6394	-1.4380	-25.2275	57.4252	-0.2309	-0.1429	0.6279	0.9359	-2.5277	-4.5857	-2.5633
1736.0515	-0.0057	-1.5239	-4.9353	6.4784	2.3465	9.7801	-3.0596	-14.2057	79.5515	-1.2058	0.2278	-2.0435	0.0214	-0.6292	-8.6529	-0.2195
1744.0518	2.9968	-7.3376	-5.9818	2.6507	3.7299	4.2293	-2.1689	-8.5267	82.3842	-2.1968	2.5890	0.6925	0.7997	-1.5833	-7.3446	-3.2748
1752.0520	-0.3183	-11.1168	-2.0751	0.2303	1.1976	4.0470	0.8822	38.7181	77.9706	-7.9249	-2.7932	-1.7281	2.1394	3.0096	-5.1165	1.8508
1760.0523	-5.8308	-11.3764	-2.5892	1.6958	-0.4380	9.5747	-5.4946	47.6589	79.5586	-10.6258	-5.0606	-5.4202	2.4960	4.5802	-5.2229	4.5409
1768.0525	1.3556	-10.4655	-4.0171	2.3660	0.0660	14.0200	-7.1589	30.4167	100.8130	-6.6592	-6.3370	-0.9967	2.4475	3.1599	-4.3786	1.5825
1776.0527	4.8920	-10.6517	-1.5261	-1.7676	-3.9623	1.4913	-14.1757	6.2142	107.7266	-6.6142	-6.7185	1.1950	0.8821	-2.6610	-6.0980	-3.3557
1784.0530	-1.3200	-8.3759	4.1247	-8.2730	-11.0869	-2.3307	-23.1557	-24.6066	91.3743	-2.1168	-2.0564	3.2609	2.2454	-8.8307	-6.9547	-9.9268
1792.0532	-1.5074	-5.6158	3.1096	-7.7839	-7.4142	1.9152	-17.8190	-25.7538	83.2747	6.2435	-0.9637	7.0962	3.6407	-6.4507	-3.5857	-9.9534
1800.0534	0.6755	-7.3424	-4.4459	-2.4463	2.6341	-0.0038	-10.4709	-16.9521	72.3833	5.4725	-2.0634	7.0622	1.9645	-0.9295	-2.9101	-6.5897
1808.0537	-4.1431	-10.9928	-5.0075	0.2603	5.7528	6.5083	-1.3841	-2.2117	61.7777	2.9693	-5.0731	5.0384	2.4032	2.5691	-3.7827	-2.8895
1816.0539	-8.5365	-16.3569	-5.6902	1.0698	8.7175	1.3254	6.8161	16.9646	58.2202	1.2609	-8.7084	0.9564	1.7518	3.0396	-2.7132	1.8417
1824.0542	-3.2115	-13.8774	-8.5901	2.6031	11.1171	-7.6663	7.6244	21.9774	51.0201	-3.9725	-6.4813	-1.5693	-0.5214	4.4641	-1.7111	3.4598
1832.0544	-1.0528	-13.7044	-7.3333	1.0652	8.1652	-5.8338	8.8373	32.0074	59.3396	-7.2345	-3.3918	-4.8200	0.0653	5.7732	-0.3144	3.4947
1840.0546	-5.2670	-22.8070	-8.1004	-2.0515	6.8662	-7.9080	7.9911	48.1659	68.7690	-8.0477	-3.1664	-10.0842	0.8654	5.0136	1.5732	4.1790
1848.0549	-1.6108	-14.1300	-8.3056	2.3410	7.9248	4.7149	7.0031	60.1889	66.7133	-4.1308	-3.9722	-6.1625	1.9453	9.3076	2.5357	6.8995
1856.0551	-3.1993	-8.3038	-8.0000	3.2587	8.7053	3.4754	3.7268	34.7495	76.4427	3.0711	-2.7324	-1.8411	2.1259	5.9657	0.6498	4.6762
1864.0553	-4.8406	-14.5036	-6.9921	-2.3581	7.0720	-14.7140	0.5113	8.3089	79.9103	5.3670	-1.0526	-1.8999	0.6318	-1.1058	-1.8121	-0.9331
1872.0556	5.5321	-5.7026	-3.6901	2.0681	4.7438	0.3329	5.5654	27.9678	74.5000	7.4557	-3.5585	1.1014	0.7247	5.6855	-3.1554	1.6998
1880.0558	2.9543	-5.5756	-7.2798	5.4637	5.5753	7.2830	0.6094	-13.9361	73.7514	9.7786	-1.3024	-0.3926	-0.3875	2.6848	-6.7776	-1.6720
1888.0561	-1.3832	-9.5294	-8.8787	1.6869	7.1900	-1.8184	-0.4671	-37.5735	65.7165	7.8087	5.7726	0.2389	0.2028	-5.7393	-5.1913	-5.7854
1896.0563	2.3784	-5.8044	-5.9561	1.4821	8.4890	-2.5364	8.0953	23.7794	65.4126	6.0501	5.0597	2.3883	2.3273	-2.3273	0.1198	1.6063
1904.0565	-0.4748	-12.2262	-8.7325	-0.0557	6.3425	-14.5934	-3.5653	-24.3001	71.8914	7.3065	3.0202	-2.2177	-1.3250	-7.9147	-4.1527	-3.8128
1912.0568	4.1374	-11.2746	-8.9704	1.3355	5.9327	-11.7236	-2.3258	-50.6023	63.9558	9.4712	3.0270	-0.9313	-2.7801	-9.2410	-6.2368	-6.8874
1920.0570	2.9774	-14.1997	-10.0310	6.3847	11.3101	-5.1126	10.6830	26.1371	54.1668	5.4879	-4.1393	-4.4352	-1.9072	-0.2567	-2.8116	5.7300
1928.0572	-4.5871	-22.1017	-12.9938	6.6546	9.2824	-7.9465	1.3651	-3.1113	55.6992	1.2559	-7.5086	-12.4762	-4.4668	-1.7365	-6.6803	3.8032
1936.0575	2.4472	-13.9291	-9.8355	5.8150	8.0276	1.9202	8.9334	-20.2865	61.7428	4.3251	0.3604	-6.0385	-2.2117	-0.7908	-7.1197	-1.2961
1944.0577	1.3019	-18.0653	-11.3993	3.8156	13.9714	-5.8176	17.8539	10.9675	55.2924	4.2071	3.9589	-3.4673	-0.4548	-0.8861	-3.9254	0.8978
1952.0580	-1.3318	-24.2143	-14.7928	4.7389	12.1808	-9.6359	2.9653	-6.4727	46.4433	4.8365	2.5066	-7.4267	-2.8790	-6.4654	-7.7256	-0.6062
1960.0582	1.3004	-19.8690	-13.5667	6.8587	11.2332	-1.1820	5.7320	6.1468	54.5706	5.8145	4.1002	-7.2542	-1.8961	-3.8504	-8.4091	1.0686
1968.0584	-2.8714	-21.6690	-15.3424	3.0987	14.1572	-13.7675	9.9531	-29.0570	56.5178	1.0355	6.2602	-7.9060	-2.5354	-6.7468	-4.4593	-2.6705
1976.0587	4.8852	-16.0103	-16.3124	6.4626	13.4945	-4.0670	7.4644	-58.5756	46.1311	1.5369	5.9725	-4.6147	-3.7477	-8.1464	-4.4104	-5.2117
1984.0589	5.2915	-17.9838	-16.1756	12.3951	15.5892	11.1504	15.7250	-7.7282	37.8843	-2.7014	-1.2550	-6.3873	-3.1042	-0.1565	-5.6296	3.2240
1992.0592	-5.4721	-25.8016	-17.1010	6.9278	13.9854	-1.9405	5.7077	-37.3732	26.7580	-8.1422	-4.7678	-9.8090	-4.1698	-5.4765	-2.8710	0.0698
2000.0594	-0.4193	-20.2389	-14.1915	2.0266	10.0379	-0.7884	-2.6017	-31.8137	13.3223	-3.6577	1.7463	-3.1788	-1.5791	-8.5722	1.7709	-3.6382
2008.0596	0.2936	-19.7638	-9.0507	1.8420	10.7469	6.1687	12.3356	59.3220	1.1184	-7.9925	-0.2455	-2.5855	1.8850	3.2733	3.8601	5.5450
2016.0599	0.0674	-12.0407	-3.5670	-1.1335	5.3472	5.6805	8.7566	51.5980	4.0856	-2.8667	-1.7019	-0.3019	2.5997	5.5129	4.8277	3.7598
2024.0601	5.5142	-3.1458	-0.0616	-4.8374	-1.4344	7.9691	-4.9054	3.4082	14.9415	13.2517	4.8280	7.1762	3.5267	-0.1635	2.5771	-6.1998
2032.0603	-0.4045	-12.3867	-1.0151	-3.8955	-0.6830	7.1462	-1.7505	-29.1301	4.6297	7.2137	-2.1612	3.7679	1.1070	-2.2667	-1.5071	-7.9491
2040.0606	-1.2267	-12.4862	-1.5815	-0.0604	-0.3948	10.5139	-2.0673	-40.5411	-10.8893	0.2375	-11.1455	1.9485	-1.2498	-2.7121	-0.9152	-4.8142
2048.0608	4.9261	-6.7339	2.1367	2.1390	-2.8835	11.5030	-1.3197	11.9750	-26.7720	-0.7418	-10.4456	2.1051	-1.2207	0.9757	-3.3757	0.9673
2056.0611	8.6483	-0.3396	6.2781	4.4676	-3.1057	9.8022	10.4172	41.2940	-40.1345	-4.3187	-8.2980	1.3598	-1.6606	4.5491	-6.5153	5.3716
2064.0613	12.7568	15.0998	7.2523	3.6565	-3.6585	12.6508	5.5538	22.0837	-26.5962	5.2086	0.3235	8.5551	0.7197	2.8900	-1.9826	2.1839
2072.0615	10.3701	19.2333	9.9084	-1.4867	-10.8145	7.7282	-12.7376	-10.9738	-25.4222	9.0558	3.9082	10.4506	1.1675	-3.9311	-1.5718	-4.0900
2080.0618	9.0594	20.1007	13.7509	-1.1798	-15.5050	4.7308	-14.3649	-43.0677	-43.0306	4.1368	-1.1761	8.5927	-1.4526	-10.6871	-3.7087	-4.9319
2088.0620	12.9806	30.1697	13.3309	3.7131	-10.8182	12.6558	-3.5982	-11.6586	-35.9510	8.0031	-0.4771	11.0574	0.0281	-4.0666	0.0188	1.4676
2096.0622	10.7793	30.9318	11.6750	4.4498	-7.9757	11.6252	-1.9206	17.7603	-28.6340	9.0755	-1.9631	9.5690	0.8200	2.0979	2.7921	5.7448
2104.0625	7.1294	25.2426	10.1633	0.9561	-8.5203	-3.6998	-10.2364	-15.3329	-29.6685	7.9490	-4.0541	8.4589	-1.2482	-7.1049	4.1242	2.4745
2112.0627	9.3009	27.3791	11.0816	1.1937	-9.3013	-6.4358	-7.3378	-1.1886	-28.2329	5.2200	-0.3043	6.1650	-1.4298	-6.4259	3.1773	3.9405
2120.0630	9.8451	31.3143	13.0107	6.2666	-10.4968	10.5170	2.7468	27.3209	-34.0483	1.2828	1.5292	1.4152	-0.4980	1.0451	0.3266	8.9714
2128.0632	8.9926	33.2816	9.0094	7.6594	-6.0330	15.7098	1.2335	-4.5608	-25.0249	10.2904	4.4704	6.4859	0.6018	-2.0146	2.0776	5.5112
2136.0634	13.0642	36.4151	8.4540	6.3588	-2.4016	7.5433	4.1184	4.2240	-16.3700	18.2699	4.5102	11.8470	0.7670	3.5924	2.2158	4.3331
2144.0637	11.3783	32.6258	12.6539	2.7240	-7.3697	2.9388	4.1046	25.9488	-24.9129	13.6107	2.7240	7.8311	0.4905	8.0325	-0.2924	4.5735
2152.0639	6.5068	26.6979	10.8224	-3.9925	-10.7442	-5.2386	-11.8018	-3.4540	-17.5569	9.2611	8.1070	6.9892	1.2428	0.5220	1.6308	-2.4858
2160.0641	8.7241	28.3377	9.1499	-2.8622	-9.3446	-8.2148	-15.8167	-11.8740	-10.7793	6.1681	5.4016	8.9920	0.0496	2.5419	0.1380	-3.3724
2168.0644	8.1554	28.7906	9.6458	2.4144	-9.6494	3.4138	-12.6740	-16.7370	-10.0737	3.8908	0.0882	7.5621	-0.9898	5.8652	-5.3820	-1.4932
2176.0646	8.5404	31.4432	9.7945	1.8339	-9.8424	8.2025	-10.5926	-16.3586	8.9071	6.5276	7.1956	8.2565	1.1450	5.2163	-5.1679	-2.9665
2184.0649	7.3610	30.0723	10.3687	-1.5537	-8.4013	-0.8967	-5.1639	-17.3102	21.8171	8.1644	10.5488	9.0047	1.9984	2.7581	-3.0791	-4.2044
2192.0651	-0.1200	19.0501	7.0805	-6.2264	-7.1415	-5.0661	-9.1901	-55.9497	28.4026	7.0930	11.0343	8.4690	2.7086	-6.7819	1.3177	-9.3636
2200.0653	5.1377	23.1095	6.7620	-5.7466	-4.2383	-3.1939	-1.9562	-10.1358	36.9796	6.6768	10.2045	9.9159	4.4966	-1.9481	9.6659	-3.1834
2208.0656	9.5059	29.1001	8.5966	-0.8659	-2.2598	-4.6298	8.4509	36.4135	35.4665	4.2070	3.8208	7.8892	3.2143	3.7579	11.2689	6.6960
2216.0658	0.0352	20.8333	3.3918	-2.7259	-2.1082	-6.0324	-4.2709	-29.3647	40.8687	2.8462	9.3801	5.7553	2.9145	-8.9417	9.5227	-1.2024
2224.0660	-0.4896	22.7272	2.2174	-2.2627	-0.6617	-6.8603	-6.6235	-22.2401	40.6253	4.0601	12.7280	6.9103	3.4173	-6.1946	7.2515	-1.6695
2232.0663	7.3464	30.4684	5.7467	3.7155	-2.8389	-3.6185	-5.2831	8.9629	27.9949	2.7894	5.3024	7.0154	0.6574	3.7489	-0.6055	3.4807
2240.0665	12.3201	34.9321	4.3158	3.4877	-4.1793	1.4280	-16.2453	-20.3268	31.3035	9.1053	11.0442	12.8158	1.2590	0.5887	-2.5459	-2.9304
2248.0668	14.8606	41.1599	3.8465	4.7648	3.0262	2.1253	-3.3897	2.2798	31.3672	21.9094	14.7035	20.3428	3.7074	4.5757	0.4906	-0.6810
2256.0670	11.1767	34.5931	3.0546	8.0479	7.7383	7.5200	14.3954	-5.1150	25.2258	20.6336	7.2986	17.6268	2.6800	6.9936	0.5239	2.2679
2264.0672	2.8473	1.5387	1.5705	-2.3959	-0.3071	-3.7081	-0.7684	-44.4908	12.3575	1.0376	-8.5284	7.1168	-0.7004	-7.2683	6.1074	-3.5524
2272.0675	3.2383	-1.9803	-1.6754	-1.1947	3.3409	-5.3225	1.2282	-51.4630	25.1241	1.8724	-3.6718	7.8319	-0.7648	-7.8694	0.9526	-6.0366
2280.0677	1.8894	-2.4439	-1.9719	0.0051	3.4155	4.3189	1.4841	-42.9325	18.6218	2.6008	4.2216	8.5067	1.2496	-7.9546	-3.5679	-7.3550
2288.0679	-2.5949	1.3465	-2.9615	3.6616	4.6934	-5.1278	-0.4822	-39.2971	20.3363	2.5431	3.7843	3.4330	-1.3885	-3.0006	-11.0432	-4.4933
2296.0682	-4.7757	0.5856	-9.3659	8.5876	16.4447	-5.9467	14.3258	-4.5576	38.0434	6.6979	9.3532	3.2796	0.2525	-0.4077	-9.4358	1.9060
2304.0684	-3.3518	-3.0413	-5.2456	10.0517	13.2757	3.2187	21.9800	41.0191	22.4180	0.9207	5.4429	-0.1291	0.9010	0.8073	-9.4565	8.1922
2312.0687	-2.5342	-4.9455	-3.5801	11.5091	9.5974	-3.8871	18.2595	40.3773	8.7953	-6.8459	-4.1734	-5.8535	-3.3137	3.8270	-13.4764	10.4932
2320.0689	-2.3098	-4.3976	-9.1018	13.6391	13.9039	4.9171	14.6639	20.5726	17.8745	-1.0804	2.5780	-2.6263	-1.8294	2.9578	-13.8987	6.9160
2328.0691	-0.0576	-5.9618	-8.5478	11.1695	9.1629	5.5253	5.7102	-5.4588	13.8022	-1.5250	8.8770	-2.8106	-2.0028	-3.6545	-16.6215	0.9216
2336.0694	0.5570	-8.5775	-6.8421	7.0736	5.4587	-13.1181	-6.1824	-18.0389	6.2507	-5.9702	4.1399	-2.5418	-4.9297	-6.9312	-19.3246	-2.0157
2344.0696	-0.3712	-6.1055	-3.2584	5.9451	3.0031	-6.1881	-7.8591	-10.6461	2.3586	0.4323	2.3781	1.8225	-3.0611	-5.0851	-19.8672	-2.7086
2352.0698	1.5922	-2.1874	-2.1472	6.0810	2.1529	0.4669	1.4553	-23.7668	1.2182	4.8587	6.8859	-0.3392	-2.3048	-6.2585	-15.2343	-2.9113
2360.0701	-1.8238	-4.2806	-8.5928	3.9189	6.9085	-10.4633	-4.8288	-51.0568	5.7747	4.4145	7.1161	-1.0914	-3.0141	-10.3661	-6.4496	-4.3614
2368.0703	-6.5757	-7.1638	-10.2581	1.2405	8.6791	-23.2982	-13.7488	-50.8719	3.5381	5.9322	6.1227	0.9971	-3.1246	-14.7224	-5.2589	-4.8010
2376.0706	-0.9669	-2.0906	-10.2117	6.5252	14.3270	-16.8639	4.7854	2.3362	5.7405	7.9953	12.7026	1.9647	-1.1445	-13.3863	-4.3154	3.2080
2384.0708	3.3849	-1.8010	-12.9356	14.0718	18.1245	7.5099	13.9572	40.5167	9.2020	5.8616	8.4572	1.5704	0.4139	-5.6447	-2.1425	10.3263
2392.0710	3.4756	-9.9029	-9.8272	12.2974	11.9708	-6.8131	9.4968	19.5632	-1.8086	-4.1938	-7.3108	-5.6739	-5.6871	-2.1258	-7.7889	9.2507
2400.0713	5.2197	-7.3413	-6.3787	11.8654	8.9482	-12.9675	15.1250	28.7831	-5.1413	-10.6956	-9.3439	-10.4753	-7.5388	2.7900	-9.3307	11.1697
2408.0715	4.6460	-1.1975	-8.9506	16.1846	8.3461	17.7718	8.1259	45.3708	5.0513	-5.1820	-3.6482	-8.8896	-2.9463	7.8356	-6.6863	12.5088
2416.0717	4.8650	-4.2626	-10.0105	11.7146	6.6479	-1.0636	-2.8246	5.1069	16.1901	0.8827	-0.1376	-8.1365	-5.0467	-1.2378	-9.6634	5.4743
2424.0720	3.8077	-9.4229	-8.0736	3.2951	5.0398	-22.5183	-8.0319	-19.0511	19.7382	1.4473	5.5044	-3.9288	-5.0479	-10.3584	-11.5779	-2.4650
2432.0722	1.2877	-12.8159	-10.2181	2.7791	5.1250	-7.0588	-14.2894	-16.1662	7.2991	0.1114	7.9330	-1.3678	-2.1679	-9.3771	-9.5151	-4.5702
2440.0725	5.9851	-10.0265	-12.3817	6.8473	7.5680	-5.6789	-8.0635	-20.2705	1.3422	0.5532	5.0244	-3.9958	-4.2560	-8.8862	-6.0163	-1.0007
2448.0727	8.9052	-5.9890	-10.1143	6.5068	7.1394	-4.1081	-3.9326	-3.0062	6.9962	3.6680	1.7138	-2.0647	-3.3803	-7.1939	-0.9312	2.0418
2456.0729	8.5242	-3.7950	-11.6970	4.7471	11.2910	-9.0424	-0.9001	12.0576	1.8215	5.0197	4.7612	0.8217	-2.0143	-2.5422	2.8042	2.3548
2464.0732	16.3427	7.0847	-13.4530	9.8070	16.6264	-0.0108	12.6565	-6.8594	0.5622	9.7373	12.4491	5.3296	-1.6578	0.2667	2.5789	1.1940
2472.0734	22.3719	13.7823	-9.9283	12.0164	14.1848	28.4063	14.0756	-4.2910	6.7053	18.6204	13.2193	15.1809	2.5198	3.0707	2.0368	-1.1644
2480.0736	19.8728	7.9157	-10.0607	6.7293	13.1961	14.0913	3.0048	14.0683	0.5758	17.5175	9.7216	16.1911	2.2133	4.6807	2.5046	-2.2589
2488.0739	17.7044	7.3046	-9.8682	5.4376	9.8268	6.5178	-6.1425	3.2099	-5.6570	13.0413	9.8651	12.3229	0.4951	1.8208	0.9995	-3.2000
2496.0741	14.0132	10.2406	-4.1803	6.3822	4.5658	23.1419	-4.0877	11.8955	-5.5887	11.1283	9.7099	12.6653	3.1183	0.4208	-0.6604	-1.6270
2504.0744	5.9613	7.0152	0.1674	2.5965	-0.1389	12.4250	-3.4929	0.0107	-10.3810	3.3170	6.9762	6.6794	1.7196	-0.2783	-3.3363	-2.4256
2512.0746	0.5636	4.4286	2.9308	-2.8119	-6.6848	4.3952	-14.0780	-37.1888	-15.1685	3.3763	5.3040	3.8271	0.4563	-3.6572	-4.3111	-8.1000
2520.0748	-0.6971	4.1277	1.0337	-0.8582	-0.0308	3.6127	-3.8147	11.8964	-15.0993	7.4104	3.9143	4.6113	1.9949	2.5035	-0.5851	-1.0660
2528.0751	-6.7512	-2.9895	-3.5356	2.9359	4.7692	-0.2813	5.8882	35.4502	-16.8361	-3.1612	-1.0169	-7.1457	-0.5291	11.9961	-1.3141	5.7628
2536.0753	-14.1475	-11.0044	0.8519	-5.2900	-5.0574	-1.3589	-6.1485	4.0120	-21.9055	-9.7973	-6.1753	-11.1753	-0.5556	11.0430	-0.4346	-0.9563
2544.0755	-7.3463	-1.9790	5.6609	-8.0435	-5.9810	2.4346	-1.2434	21.6565	-17.9953	-4.2416	-4.1855	-1.7233	2.6486	11.8271	5.1825	-1.2789
2552.0758	1.4958	8.7440	1.9185	-1.8500	-2.0910	13.6284	4.1677	-15.3597	-4.4237	0.3590	3.2783	1.6446	2.2928	10.1724	5.0252	-3.6161
2560.0760	-2.1912	2.8132	1.0118	-6.7901	-0.7957	2.3490	0.7104	-35.3268	-1.1588	0.9447	4.1040	4.6911	2.8664	1.0957	8.4933	-7.2091
2568.0763	-2.0246	2.3487	5.0771	-7.6674	-2.7395	-2.2759	-0.2209	8.8517	-8.1114	-2.7360	-0.9972	6.3174	3.4912	-1.5720	9.9888	-1.3677
2576.0765	0.6465	5.3708	6.6797	-4.9739	-11.8843	10.2428	-15.7101	-32.1577	-10.9474	-2.5268	0.5917	2.7285	1.4566	-5.2365	1.6385	-6.4772
2584.0767	-1.4607	-1.3821	6.8210	-7.5770	-11.2236	3.2912	-14.1248	-24.3470	-14.2164	-0.4462	-0.0161	2.3280	1.3850	-5.7966	0.3065	-7.3277
2592.0770	4.5493	4.6414	7.7037	1.9246	-5.9162	16.5165	5.4703	37.3674	-18.0129	-2.1979	-6.6947	1.9820	1.3008	4.4455	-0.2952	4.9191
2600.0772	6.7409	10.8085	7.3370	3.4595	-6.2309	18.2390	5.6190	14.5179	-11.4260	3.0525	-4.3537	1.8641	0.5862	5.3064	-0.7637	3.1632
2608.0774	-0.6821	1.1612	5.5144	-6.9905	-4.8790	-9.6013	-0.4803	18.9487	-5.7416	5.8389	-1.6731	0.0112	1.0485	1.9493	5.7035	0.0430
2616.0777	1.0234	3.2836	5.4733	-3.7446	-10.2641	-2.1971	-11.3942	19.1381	-10.8701	-1.1357	-3.2563	-5.7611	-0.8369	3.9644	1.8277	1.2834
2624.0779	2.0029	7.5094	6.4286	-4.5268	-12.5363	-0.0397	-14.1478	-15.7154	-5.8752	-0.5409	3.5049	-3.8998	-0.5595	0.8237	-1.6432	-4.5443
2632.0782	-1.8040	4.6886	6.4813	-7.7896	-3.9380	-0.6192	8.1550	21.2075	3.6009	4.5067	7.9680	1.5266	4.3937	3.6166	6.2497	-1.7371
2640.0784	4.0092	12.3771	7.6644	-1.3533	-3.6599	16.9266	16.0545	53.1662	-4.6879	3.9482	1.7692	0.8285	4.3913	14.7859	7.7671	5.1291
2648.0786	8.6803	13.4626	6.2318	-2.6277	-6.0997	5.1097	0.7532	12.5504	-4.9964	5.2617	-3.0664	2.7490	0.5722	13.7661	4.5668	-0.6575
2656.0789	7.3138	7.6662	2.8306	-4.9388	-3.8296	-0.1072	-8.8240	-39.2119	4.4140	8.2562	-1.5860	9.7967	0.5088	2.0067	2.8803	-8.7327
2664.0791	5.2015	4.3685	3.2457	-4.6299	-4.8227	1.1394	-9.8695	-26.6731	-2.6976	2.9403	-0.5115	7.8777	0.8976	-2.5428	2.3863	-6.7314
2672.0793	1.1182	-5.0977	0.8513	-3.8181	-4.3139	-7.7173	-12.6157	21.0249	-4.9020	-4.8145	-2.8875	-1.2997	-0.5744	-1.2492	0.5831	0.0027
2680.0796	4.9909	-2.2393	1.8409	3.3155	-5.2085	6.2190	-12.1950	22.0585	-2.9974	-3.1184	-4.4847	0.3562	-1.1605	-5.4142	-6.3816	2.5852
2688.0798	10.0338	8.8485	12.5073	3.5685	-10.5385	11.6262	3.0834	34.7254	-11.5006	0.8529	-5.3364	3.7964	-0.2706	-4.0248	-8.0774	4.8124
2696.0801	3.7997	9.4214	9.9660	3.2537	-6.1571	8.5721	10.9782	42.7170	-4.3682	3.7088	-2.5074	-0.3733	0.4792	4.9874	-6.1868	6.2475
2704.0803	-0.9807	8.3118	0.6643	3.7572	-0.4272	3.8830	-3.9573	-11.7527	7.5511	7.5283	3.7468	1.8349	-0.0793	1.1114	-7.3404	-0.9310
2712.0805	0.6296	5.7906	6.8465	-5.0871	-7.9985	-7.8205	-9.0801	-22.0227	3.4872	4.3626	2.3322	3.3939	-0.0041	-3.6965	-4.3443	-5.8826
2720.0808	4.9786	9.3219	8.6862	-1.3954	-8.5149	6.6711	3.0627	7.5844	0.6956	2.6982	-0.4218	0.3693	0.6721	3.3569	-1.0300	-0.0361
2728.0810	3.4945	11.5335	1.5010	2.7238	-0.1720	9.1676	2.6897	-13.5727	0.2202	9.3363	3.4875	3.8451	0.9470	1.2956	0.7941	-0.5026
2736.0812	-5.5426	1.9170	1.1340	-6.0317	-1.1520	-5.8937	-4.7586	-38.9919	-1.4155	9.3218	5.6134	3.9150	1.6252	-2.4518	1.6732	-7.6879
2744.0815	-3.1501	5.2956	1.0463	-0.6609	-0.2085	1.1242	4.2890	-7.4262	-0.7184	1.0828	4.0691	-1.7870	0.6711	6.6173	-0.5348	-1.3115
2752.0817	0.1941	6.2211	1.6711	2.8033	0.6510	2.2791	9.8777	36.0551	-3.5013	-3.2369	0.0422	-4.4673	0.1298	8.1075	1.4997	6.7803
2760.0820	-5.0145	-3.7350	4.7694	-3.4503	-5.7282	0.2989	1.0899	21.0128	-7.6717	-0.6199	-3.3704	-5.5578	0.7196	0.1973	2.8027	2.7965
2768.0822	-2.0595	2.2868	2.4291	0.6453	-3.4826	0.1551	1.6872	-22.4302	-7.7594	1.5654	-1.5929	-4.3341	-1.4408	-4.7989	1.3408	0.8358
2776.0824	-2.5986	3.0015	-0.7975	0.7819	0.4247	-2.8232	0.8806	-36.6004	-4.9884	2.9235	1.8707	-1.6494	-0.9553	-9.4953	4.2264	-0.2676
2784.0827	-5.1594	-0.8464	-1.6825	-0.3795	-0.1843	5.4082	-5.7063	-16.9216	0.7079	9.3324	3.5270	-0.0168	1.7009	-8.6521	4.3242	-0.6864
2792.0829	1.4723	7.2003	-2.6024	4.8568	2.4192	6.0458	-2.4711	5.7926	7.6378	13.3582	3.0999	0.7802	0.6460	-4.1160	2.9587	4.1002
2800.0831	1.5213	7.1726	-2.1508	4.6449	-0.1194	11.3481	-7.6494	-6.9064	2.6142	11.9944	3.5379	1.0293	0.6092	-2.8054	0.1953	1.1366
2808.0834	0.7198	6.4665	-1.1685	4.7643	-3.1999	18.9753	-12.4694	-24.9923	-8.8340	9.2861	6.3720	1.4035	0.5437	0.5264	-7.7360	-4.0897
2816.0836	4.9614	7.8517	-1.3145	4.6798	1.5033	7.1404	2.6070	-18.6345	-5.8227	4.4192	9.5182	1.7306	-0.4012	0.8185	-6.8181	-2.7537
2824.0839	5.7484	4.6233	-1.2469	3.3432	3.9197	9.8699	11.5806	3.8766	-5.2356	1.8933	8.4423	2.9542	1.5044	0.0439	0.1055	0.1779
2832.0841	0.8599	0.5100	-0.5316	2.5989	1.5339	9.5348	5.1157	25.2489	-12.9606	-3.2145	-0.9215	-0.8186	0.9212	3.8690	2.3634	4.1504
2840.0843	-8.7458	-10.4830	-0.6327	-3.3803	-1.0865	-11.4919	-0.5055	-3.3009	-11.7244	-12.5542	-9.5429	-8.8524	-2.3246	-0.0609	4.8605	2.5180
2848.0846	-9.8087	-10.3146	1.0121	-5.7722	-1.7231	-13.8858	2.7015	-35.2498	-13.4710	-11.3944	-12.2459	-6.8669	-2.5143	-5.0828	9.2279	0.0085
2856.0848	-12.8730	-8.1651	1.7159	-9.3945	1.3818	-12.6894	8.7509	0.1037	-13.4273	-5.9154	-12.8718	-3.2113	1.3984	-0.9718	20.9333	3.8558
2864.0850	-22.5220	-18.4762	-1.1946	-16.2406	3.8355	-18.6732	10.1659	40.6249	-9.6206	-8.1428	-11.2219	-8.8676	4.5815	3.9765	31.5190	6.5632
2872.0853	-15.0446	-7.7632	0.6833	-10.8917	1.9333	-13.8633	13.9729	35.8346	-11.8349	-7.4284	-9.6837	-10.3266	2.4783	7.7288	26.6782	8.1030
2880.0855	-8.2689	3.6616	-0.1766	-4.8977	3.6160	-9.0879	14.4941	13.2646	-1.4249	0.5553	-4.9570	-6.3899	1.3531	7.4590	20.5889	6.7378
2888.0858	-5.9188	1.4230	-6.9786	1.2535	8.9393	-4.8897	6.9503	9.5173	3.8779	3.8270	-2.8116	-4.2430	0.1354	7.7155	12.2579	5.8548
2896.0860	6.8320	10.5225	-2.9008	11.3910	4.8234	3.2240	4.4481	17.2759	-3.5564	0.4346	-7.3384	-1.9410	-4.1478	10.9693	-5.8617	7.9373
2904.0862	6.6522	7.4473	4.3552	7.8893	-5.2105	10.6394	0.5920	16.6459	2.1814	-1.2284	-4.2320	-3.1941	-2.9125	9.1382	-14.4629	3.1747
2912.0865	5.6582	3.7532	6.2244	2.9654	-11.8358	14.2972	-11.4979	15.6951	2.0581	-1.0250	-4.2957	-4.2969	-1.7720	10.0183	-13.5569	-0.7856
2920.0867	15.0439	13.7760	8.8220	1.6797	-14.2013	5.3063	-18.4584	-9.2434	0.9743	1.0669	-5.8366	3.2592	-3.3609	4.9349	-11.5441	-3.8507
2928.0869	9.1830	5.9550	7.7310	-6.3718	-10.7355	-4.7288	-14.2196	-38.4340	6.9679	2.5995	4.0971	8.6774	0.1057	-10.0405	-4.5561	-10.3970
2936.0872	0.3648	-3.6423	6.3853	-6.0257	-7.2387	1.3667	-5.1648	-9.3815	-5.4384	-3.2636	-0.8731	4.6222	1.6391	-7.3117	-0.5431	-4.9691
2944.0874	-3.2779	-8.3938	7.0628	-3.3585	-5.0508	0.2157	4.1859	46.0394	-16.4095	-9.1775	-13.2052	-1.4515	0.4985	1.9160	1.9001	5.5701
2952.0877	-10.8575	-15.7537	6.9099	-9.4066	-3.7073	-14.5980	11.7493	51.7082	-14.1236	-11.5179	-11.3717	-7.2414	1.0709	-0.5354	8.9487	6.4921
2960.0879	-12.3863	-9.6191	9.0176	-11.2257	-7.6464	-11.6522	11.0261	11.5123	-9.0547	-12.8301	-9.7018	-8.9217	1.0018	-0.3398	11.4644	2.5365
2968.0881	-12.9645	-7.2515	10.6501	-10.3407	-10.1642	-6.8216	5.4574	14.2355	-4.3337	-10.5726	-10.6569	-7.7091	1.3679	1.9406	7.2382	1.9401
2976.0884	-15.8455	-10.7844	12.4152	-8.7877	-11.8681	-15.2223	-0.2565	41.7710	-8.4152	-10.0036	-15.9987	-10.1602	-0.5930	2.7961	-1.1393	5.5362
2984.0886	-11.4438	-6.2718	10.5585	-3.7664	-13.3750	-9.5567	-12.1937	10.9246	-4.5335	-10.2232	-16.3478	-8.1539	-3.0449	3.7601	-11.2935	1.6086
2992.0888	-6.5924	-3.6524	5.9822	-3.8584	-11.7511	-7.1605	-21.4617	-13.0353	1.9595	-8.9449	-5.0513	-4.0410	-2.3533	4.0024	-15.3855	-5.8728
3000.0891	-6.9627	-1.8135	10.4348	-9.7440	-16.2059	-16.1783	-21.6254	-12.7718	0.1193	-6.8014	-2.6756	-4.4963	-1.7370	3.2583	-12.4794	-7.9891
3008.0893	-8.8009	-2.9041	11.5169	-12.6272	-15.8552	-11.2395	-17.9224	-30.5598	7.0390	1.4998	-2.7525	-0.2380	0.6186	-1.3776	-6.5627	-10.4646
3016.0896	-10.1436	-6.6300	4.5012	-9.9581	-5.2074	-7.7161	-8.8811	-9.5312	4.7072	5.9229	-2.4084	2.3100	2.4266	-0.1290	1.2013	-6.0696
3024.0898	-10.7582	-8.3228	1.4633	-5.5123	-0.4585	-6.6568	-2.3405	28.2795	-3.8216	1.6606	-10.0609	-2.0006	1.3332	5.1169	6.0653	3.1051
3032.0900	-9.8970	-10.4560	-0.7293	0.0584	1.5937	0.8335	1.6576	19.6040	-5.7434	-4.2826	-14.1647	-4.2735	-0.3683	3.1066	3.8093	5.8095
3040.0903	-4.2202	-2.8420	1.7968	3.7470	1.0175	5.6929	11.4399	-2.6748	-14.4690	-9.2373	-14.9078	-3.5093	-1.9661	1.6572	3.1541	6.3547
3048.0905	1.8218	5.5678	6.1015	1.4464	-1.6327	11.8143	16.4455	0.9778	-5.7244	-4.9179	-9.4381	1.6751	0.7644	1.0029	7.4032	4.7618
3056.0907	1.0684	1.7073	3.4966	-0.7452	0.9754	1.2433	12.0313	10.4256	8.0532	-2.3498	-4.6225	3.1163	1.1403	1.1325	3.8644	2.4090
3064.0910	-3.2064	-3.6697	3.6059	-2.1068	-1.6101	-15.3989	3.7202	-10.1857	-1.7450	-7.2960	-9.3034	-2.2453	-3.0807	1.4124	-3.9288	0.0209
3072.0912	-8.2298	-7.8627	3.2717	-3.4559	-5.0863	-6.4725	-4.7290	-26.4824	-4.5253	-6.0538	-4.4749	-3.7856	-1.4796	-4.2379	-5.4107	-3.5105
3080.0915	-9.8216	-9.2392	-1.1414	-2.7910	-2.0018	-5.9865	-8.9592	-21.7352	0.2628	-7.3272	0.1511	-4.4329	-0.6610	-4.4201	-4.3733	-3.4996
3088.0917	-4.4497	-7.6473	-0.3700	-5.6957	-1.9742	-16.6625	-11.2469	-31.9339	-1.1769	-6.7571	-4.2951	0.0327	-2.0574	-3.5137	-1.8855	-5.9283
3096.0919	-1.5734	-3.6765	0.9696	-5.2820	-2.0232	-7.8880	-10.6080	-43.2595	-1.9104	-0.4131	-0.6173	6.6854	-0.0964	-7.5435	-1.8985	-8.5312
3104.0922	-4.1344	0.4214	-1.1582	-1.2802	-0.2486	-2.6291	-7.9791	-39.9211	-2.3567	-2.1450	4.0209	2.3164	-0.0653	-5.5951	-2.8104	-5.6380
3112.0924	-4.5281	-6.1411	-2.4982	-5.0437	0.0047	-8.3911	-9.4411	-21.5991	-0.2303	0.7404	2.5952	0.4684	0.5140	-6.3542	3.3360	-4.5906
3120.0926	-1.2626	-8.7885	-2.6911	-3.8960	1.4381	-5.1130	-4.9494	-4.5688	-2.6029	1.8148	-1.8326	1.6416	0.6208	-7.1885	6.5275	-1.4848
3128.0929	1.5114	-3.5561	-3.5196	2.7917	4.4233	4.6045	8.3573	-2.8337	-3.6191	-6.5619	-3.4879	-1.5515	-0.5909	-2.1657	5.8589	3.2163
3136.0931	-1.0371	-8.1359	-5.5327	1.4118	7.4621	-1.6302	9.8345	1.0009	0.7109	-4.1034	-0.9329	-1.2771	-0.0888	-4.3495	5.8434	2.6943
3144.0934	-2.9064	-9.5443	-4.5452	-0.3944	4.4776	-16.9670	-0.7153	-17.4961	-3.2949	-4.3122	-2.7453	-2.6790	-2.9750	-7.7138	-0.1931	-0.0833
3152.0936	0.7346	-4.7092	-0.2642	0.2234	-1.6499	-1.7117	-0.9073	-24.2818	-3.4672	-6.7305	-0.2219	-2.3167	-1.8384	-5.8535	-3.1909	-2.4477
3160.0938	-0.5890	-4.4799	0.7184	1.0202	-1.2683	11.6285	3.5068	13.9781	-5.4864	1.6836	2.1997	-1.5301	1.5056	-1.3563	-1.4860	0.8606
3168.0941	-5.4189	-1.7735	-2.0822	2.0458	0.2375	-6.6730	-4.0970	4.2554	-13.2825	-0.0055	-0.7198	-7.3131	-2.3318	1.6060	-3.0757	2.8804
3176.0943	-5.4576	-1.5744	-6.0305	1.7574	2.9438	-4.3328	-9.7594	-15.2898	-5.9178	-0.8488	7.4590	-3.6258	-0.8303	-2.6431	-3.3888	-1.5736
3184.0945	-6.9550	-10.5259	-10.4734	5.4784	10.4410	0.5341	-4.1441	19.8957	-10.1294	4.1618	7.7386	-1.1952	0.3434	-0.8436	-8.0929	1.4677
3192.0948	-10.1585	-15.3739	-9.3321	7.4777	9.6966	-12.5842	2.2847	4.0861	-24.6705	-5.0414	-3.6144	-10.0397	-5.4106	4.4504	-14.4399	3.6338
3200.0950	-8.8420	-9.8071	-4.2765	2.5522	3.3112	-2.4359	6.5927	-37.4394	-12.2484	-6.3212	2.4094	-8.7135	-2.7979	0.0580	-8.4240	-2.7720
3208.0953	-5.9640	-10.9407	-7.1855	0.3662	6.5789	-2.5235	6.5132	-4.3849	-3.2148	-0.2196	10.2929	-6.0116	0.4731	-3.8566	-0.5671	-0.9968
3216.0955	-3.1356	-16.2122	-10.7112	2.7257	8.4878	-11.8308	0.7416	19.8003	-11.3185	-5.8655	7.9504	-9.0835	-2.0333	-7.4254	-1.9974	3.2315
3224.0957	-0.4990	-7.4262	-8.4688	5.4170	3.2733	6.1333	-7.0993	-29.9603	-6.9648	-3.5668	11.0875	-4.7878	-1.4177	-11.4055	-6.4609	-2.7952
3232.0960	-1.7998	-5.2642	-12.2258	4.7865	7.4468	-0.7843	-10.9537	-61.7737	-1.5050	2.3749	15.1448	-0.9706	-1.7093	-11.7352	-7.5182	-7.6897
3240.0962	-0.9979	-10.1949	-14.1879	4.1015	14.7956	-18.0444	0.9522	-19.0091	-4.7031	0.4477	14.4823	-0.7882	-2.1219	-12.1090	-4.1845	-1.8386
3248.0964	4.7049	-2.6638	-9.1457	7.5009	12.7732	-2.0106	12.2228	32.4337	-3.4558	0.4788	13.1498	0.0861	0.1851	-5.4058	-2.3964	5.2483
3256.0967	6.0849	-1.3433	-10.7448	7.2634	11.8790	0.4115	2.4469	34.1429	-0.4832	-0.5487	12.8711	1.3624	0.2123	1.0681	-4.6376	2.9231
3264.0969	7.8238	0.5969	-12.9119	7.7098	14.8763	-4.9314	0.7970	5.9213	0.2617	3.9395	13.3248	5.4815	-0.8810	-0.7164	-5.7935	-0.4974
3272.0972	9.4813	6.2665	-10.7322	12.4450	14.1323	8.7212	10.3648	-8.9854	-0.8309	10.9212	10.1295	4.7885	-1.3503	1.9118	-6.8801	1.1440
3280.0974	2.2519	-2.7725	-11.2141	10.4202	12.2383	10.6141	5.9241	3.2377	-1.2632	9.2702	7.0944	-0.0905	-0.8108	4.1414	-7.6541	1.5971
3288.0976	1.1888	-4.2596	-11.4389	9.0410	13.7142	8.7113	8.2086	23.0364	1.9272	12.1548	8.2011	0.4285	0.6609	2.2693	-3.3997	3.9018
3296.0979	4.4881	-4.2639	-12.1783	12.1182	13.0666	15.2381	8.3232	6.2357	-2.2797	12.6198	4.7874	-0.3155	-0.7475	-1.4568	-2.6570	4.5312
3304.0981	-3.5642	-15.0570	-13.8787	7.6099	8.6382	5.7546	-10.8538	-50.1737	-11.2771	7.2006	2.3104	-2.8292	-3.0826	-11.2136	-6.7616	-3.5759
3312.0983	-4.0947	-10.7581	-13.6685	5.3237	11.0460	1.2132	-6.4310	-40.2150	-10.4631	7.8645	7.7532	-0.3376	-1.2692	-9.1163	-3.1351	-3.6991
3320.0986	6.6972	-1.3197	-14.4904	12.5455	17.1806	20.8905	10.4812	32.4582	-8.0796	4.7702	7.1872	3.5137	1.4659	4.9920	1.6543	6.2185
3328.0988	5.9811	1.6633	-13.8938	11.1204	16.8070	17.6563	5.7954	19.5486	-7.2695	6.4233	5.1311	6.7045	1.4573	5.1331	2.8697	4.4580
3336.0991	1.9997	1.2870	-9.6563	0.9559	12.7119	-1.0882	4.2867	-13.2701	-5.2477	12.5543	10.4935	7.7491	2.0906	-0.1601	6.3127	-3.1038
3344.0993	10.6961	-1.6246	-5.9457	0.6225	6.1343	13.3494	3.6257	7.6279	-9.8700	6.1269	9.4426	7.5979	2.7969	1.4229	4.3809	-3.8009
3352.0995	15.6262	5.0962	-4.5861	4.3397	2.0269	22.5018	-5.2195	-33.9061	-13.4884	5.3307	6.6878	10.7107	0.8691	-1.8529	-0.6491	-7.4021
3360.0998	7.3026	8.0494	-3.5228	2.6211	3.9996	16.3859	-3.1596	-47.9507	-10.5202	12.5912	9.8414	12.7543	2.1430	-2.8504	-1.5593	-8.8850
3368.1000	3.9321	7.5765	-1.2313	4.7703	4.2930	25.3230	3.9428	25.1607	-7.2567	15.0953	8.2101	9.6109	4.7747	6.4657	-2.0869	-0.0727
3376.1002	5.5809	11.8018	-0.2749	5.1551	2.0621	11.5802	3.1282	18.7838	-4.1749	13.3905	4.9861	3.4330	1.2185	7.0401	-1.4318	2.4320
3384.1005	2.5248	2.4257	1.8164	-1.6728	-1.5759	-5.9426	1.3569	1.3411	-5.3924	4.4958	4.4029	-0.2788	-0.3178	-0.5234	-1.0748	-1.2835
3392.1007	2.6298	-0.6511	6.6743	-2.0671	-6.0748	3.8008	4.5203	31.4983	-9.2851	-0.1815	0.9622	-0.9570	1.1673	-0.1067	-2.1436	1.5468
3400.1010	0.8034	4.2383	6.9199	-1.7367	-8.6129	-4.9255	-2.0403	-13.1580	-6.3965	-0.3583	-2.6790	-3.9893	-2.0851	-2.3103	-2.7905	-0.5233
3408.1012	-5.2520	-4.3734	4.3965	-6.8900	-8.0176	-11.2815	-10.6955	-31.0965	1.5526	-3.0340	-2.6923	-2.8164	-1.2034	-4.9050	-1.6233	-5.6314
3416.1014	-2.2565	-1.3549	3.0572	-4.0975	-2.6431	1.3913	-2.5976	22.0666	3.0142	-1.2647	-4.8158	1.9497	1.9628	5.0082	3.4608	0.4330
3424.1017	4.4595	8.2680	1.5866	1.3163	0.1573	0.1342	0.1794	27.7275	-0.2883	-0.6200	-9.9678	2.0212	-0.6044	10.7088	5.4798	5.3270
3432.1019	9.0888	9.8437	4.6504	1.0880	-2.4716	4.6594	3.2426	25.8509	6.3515	2.4799	-7.7188	4.4704	0.1237	7.2814	3.7761	3.8569
3440.1021	12.6889	15.5699	9.2812	-0.5042	-6.3265	4.3591	8.0895	6.8550	14.2085	8.4570	-1.3849	6.1204	0.7237	1.2594	2.6681	0.7990
3448.1024	10.6962	14.9961	11.0476	-6.3945	-11.8229	-13.0342	-7.0244	-30.2270	15.4892	9.7429	0.5421	5.9529	-1.0226	-7.1934	1.0737	-5.6235
3456.1026	7.4441	11.0386	12.5362	-8.5753	-11.5818	-11.8727	-6.5770	4.4845	20.2838	11.0566	-1.1898	7.8692	1.3111	-4.2074	1.4208	-3.7135
3464.1029	5.1503	9.6647	9.1810	-1.5038	-7.9739	-2.5076	0.9700	15.6648	20.3065	3.0956	-6.9992	1.2011	-0.4658	3.9180	-1.0624	2.1815
3472.1031	3.7510	8.3212	3.4534	0.9706	-4.5036	-3.0191	-2.8978	-11.9238	17.2204	-1.9500	-5.1924	-1.2133	-2.0779	2.8253	-1.3169	0.5641
3480.1033	4.7173	10.1768	1.5774	-0.5173	3.7178	-12.5632	10.9862	6.8960	16.7440	5.6496	2.1113	3.8302	0.1212	0.1107	5.1836	2.5269
3488.1036	0.7107	1.7973	1.2846	-1.6771	2.5108	-18.7008	11.2622	4.7804	8.7971	-1.6134	-1.9565	-2.2603	-1.7487	-1.5318	4.3706	3.3811
3496.1038	-1.7936	-2.8346	4.5078	-5.5680	-4.3922	-7.1489	6.3407	10.6873	5.3168	-10.5442	-5.7212	-5.2607	-0.2669	4.8669	5.4366	1.1367
3504.1040	4.5442	5.6072	6.9819	-5.9234	-4.9820	-7.7072	10.7658	33.1335	7.2693	-5.4793	-6.3485	-3.2101	0.1860	11.8973	9.2892	3.4478
3512.1043	4.8967	2.2034	6.0551	-4.2311	-12.5095	-10.0169	-15.5043	2.2504	3.5167	-4.4519	-10.5803	-6.5648	-3.7244	4.3476	0.0537	-0.1521
3520.1045	-2.2621	-2.6544	8.2131	-5.2221	-18.6888	3.3249	-28.9936	-6.6289	4.7188	-6.1802	-9.3724	-6.3970	-1.7006	1.1551	-7.1333	-4.1083
3528.1048	-3.0449	-0.7875	9.0186	-7.5364	-16.1592	-10.4076	-22.0674	-13.7521	8.3967	-5.6114	-6.2990	-5.1188	-2.0596	-0.3067	-6.6643	-5.1208
3536.1050	4.5237	4.1575	11.1461	-11.1688	-15.4302	-24.3702	-16.9663	-39.1390	11.9904	1.4512	-0.5092	1.5254	-2.4138	-8.8313	-4.3044	-9.7305
3544.1052	9.2303	14.8489	15.0689	-10.3189	-9.3517	-10.3011	12.2326	-11.0880	22.4401	9.2682	9.7465	10.7040	3.5249	-6.6488	2.2513	-7.0434
3552.1055	4.1932	11.7947	8.0284	-6.0724	-1.3205	-8.1860	17.5278	-6.1922	29.8743	6.5512	13.4028	7.4301	3.9657	-7.0214	3.9609	-3.4644
3560.1057	2.0880	8.2558	1.8140	-3.2176	-0.5022	-6.7430	2.0828	-22.1590	27.2278	6.2750	12.5024	4.1285	2.2061	-9.9020	2.8514	-3.8990
3568.1059	4.1772	17.0066	2.1262	-0.0517	1.2472	5.8164	9.1168	-15.7257	22.4977	10.4273	12.6172	5.9181	3.4427	-0.8801	5.2619	-1.9667
3576.1062	-0.5056	12.1392	-1.8598	-1.0215	4.7270	7.9602	6.7671	-20.3358	21.8307	12.0197	12.4311	6.3531	4.5855	0.3432	8.4851	-3.0424
3584.1064	-1.1768	7.3292	0.4298	-3.1523	3.7856	-1.1773	6.2662	9.9476	17.6416	10.4672	5.3267	6.2050	3.9937	0.3001	9.3730	0.4910
3592.1067	4.1834	13.5147	3.7017	-1.0716	0.3726	-11.1469	5.1821	10.0310	13.6041	4.5855	-1.3124	3.6109	-0.1196	4.4718	4.6365	2.6486
3600.1069	5.0304	13.5133	-0.4446	0.5638	-1.3630	-0.4629	-9.4031	-27.4678	17.9630	3.2444	4.3517	4.1477	0.1022	-1.9704	2.9860	-2.6510
3608.1071	2.1442	13.3356	5.0149	0.7741	-5.0255	11.5131	-5.0796	28.0050	16.1140	1.4140	2.0176	3.3659	3.3099	-0.2639	4.3213	4.1051
3616.1074	-6.5131	8.9174	10.0709	-2.2678	-9.0125	-4.0591	-4.9785	65.9156	13.3557	-6.3799	-7.1476	-4.1379	1.6198	6.3262	1.0958	9.5399
3624.1076	-13.2377	-1.6974	3.7649	-4.9063	-7.6236	-12.6791	-17.5102	20.3748	15.2225	-10.0282	-5.1500	-7.5190	-0.0319	0.7119	-0.8295	2.8600
3632.1078	-9.9956	0.6871	2.0238	-2.2749	-5.6957	-4.7686	-14.6813	10.0402	10.1093	-8.0754	-5.3538	-5.9851	-0.1647	2.7313	0.2156	2.4845
3640.1081	-8.1503	8.0981	1.9691	-1.7178	-1.9747	-2.6627	-4.6335	3.3027	12.6604	-0.2185	-6.5188	-2.7323	0.5712	9.0154	5.9376	3.1208
3648.1083	-6.8285	8.0213	0.7155	-3.4811	0.9056	-1.3202	1.6301	-27.4973	16.4892	6.5073	-4.3938	1.4818	1.6790	3.6768	12.0854	-0.3331
3656.1086	1.9801	12.5950	5.1222	-4.3208	-2.2918	5.0679	3.3407	6.0572	13.9909	8.2083	-0.4819	6.7656	3.8521	3.3352	12.0775	0.3908
3664.1088	6.9799	18.1823	6.9042	-4.3468	-2.2366	10.0970	4.9773	60.7704	22.8799	9.2838	9.9497	10.5813	7.4343	7.9158	9.4360	2.3041
3672.1090	1.6862	12.6745	5.0655	-2.8032	-4.4911	1.4129	-7.6636	16.3634	24.0222	5.2865	8.6112	6.5254	3.7695	-1.1246	-0.1810	-1.4442
3680.1093	2.6729	10.6599	6.2828	-1.4334	-9.5494	-0.3989	-20.5639	-19.7201	18.6553	4.7020	-0.2266	6.1683	0.1601	-6.4271	-5.9496	-4.1898
3688.1095	9.7431	15.7597	8.0724	0.9006	-6.3799	16.3170	-4.2591	42.4370	26.4106	7.3378	0.7427	10.3029	4.1875	3.5702	-0.4783	2.2399
3696.1097	3.9405	10.8264	7.7136	-0.9064	-6.7026	7.2317	-5.3252	26.9199	27.6095	3.2860	-1.5425	6.4375	2.8542	0.1914	-0.5865	1.7361
3704.1100	0.3679	4.3077	6.3348	-5.4200	-8.8030	-7.9444	-16.4232	-25.5089	20.8533	1.0316	-5.9618	5.0873	-0.0901	-8.6752	1.0636	-3.9920
3712.1102	7.3156	5.8591	7.6832	-4.0904	-4.7285	1.5295	4.3586	35.5147	14.8296	-1.2938	-5.3547	6.3523	2.5483	0.2455	7.6827	2.9536
3720.1105	2.3204	4.7970	8.2137	-6.8512	-3.1745	-10.0478	9.7207	56.4211	14.2108	-2.3450	-2.5417	2.8875	3.0033	2.5827	9.4644	5.2624
3728.1107	-0.8683	7.1745	4.1054	-7.0017	-0.8997	-15.4233	1.7745	5.9899	22.0236	2.3819	-0.1179	4.1416	1.9575	-1.3745	10.0450	0.2655
3736.1109	11.2923	18.1262	6.2651	3.8016	-2.5923	18.8293	8.4892	10.3525	20.7422	3.2682	-1.0175	8.7334	2.3550	7.0404	0.9964	1.5923
3744.1112	14.9549	19.3621	11.6358	3.4633	-10.2582	23.0578	2.4860	16.4839	20.6247	2.9136	2.0011	8.7445	2.1142	7.6456	-9.8457	-1.5536
3752.1114	7.5725	10.1879	5.2663	-3.0938	-5.5070	-8.2025	-9.3023	-17.6836	29.5034	3.4740	6.2736	8.1109	0.3618	-3.2382	-7.5071	-6.9611
3760.1116	3.2393	5.6189	-1.9426	0.2516	3.5146	-11.5583	-8.8547	-16.5290	28.0359	2.9699	5.1877	9.3324	0.1913	-6.9598	-4.7183	-3.8311
3768.1119	1.6180	2.4490	0.4515	5.2832	-0.3231	7.7618	-4.3126	30.1553	19.9408	-3.1492	-2.0489	1.5017	0.6225	-2.5431	-4.6549	5.2894
3776.1121	0.6795	1.9828	2.1618	7.4412	-3.9836	7.0436	-0.6584	20.9651	11.4345	-12.7826	-11.0432	-7.7593	-2.9606	0.2089	-3.7653	9.1695
3784.1124	-1.2373	4.9194	2.0129	1.1716	0.4420	-7.9635	5.8303	-14.9508	12.8850	-7.9204	-4.5062	-0.9364	-1.6199	-3.0096	1.5187	2.6233
3792.1126	-5.8133	-1.7530	4.0311	-7.0317	-0.7249	-6.5951	9.2283	22.9275	18.6954	-5.9526	1.1240	-0.2066	3.5666	-1.8578	9.5557	2.0022
3800.1128	-6.8719	-5.2996	4.2003	-5.1845	-4.8344	-2.0500	3.2032	35.6124	6.2592	-16.0541	-5.5541	-7.4239	1.4577	3.6181	7.0609	4.8053
3808.1131	-4.7759	-1.5415	2.0650	-4.5302	0.0452	-4.3963	5.9527	12.3769	-0.2110	-12.4093	-0.7006	-0.8502	1.6445	3.5360	5.0623	0.6393
3816.1133	-4.0863	-5.2375	2.2757	-4.6290	1.0405	-0.2565	10.4956	36.4381	-0.3680	-7.5318	-0.8032	-0.2595	3.0268	3.7991	6.3303	2.6678
3824.1135	1.4892	-2.3247	4.4155	-0.6944	-2.9345	1.1087	7.4775	21.7543	-13.1160	-6.7166	-7.4955	-2.1629	-0.7431	3.9757	0.7691	3.3052
3832.1138	1.1367	-2.1237	0.9141	-1.5760	2.4868	6.7630	9.5352	-5.9361	-12.8281	-0.7226	-0.3506	5.7334	1.8890	0.3902	3.0540	-2.2547
3840.1140	-9.4418	-13.2625	-2.4606	-0.9859	3.0787	13.5749	2.9718	23.8490	-14.9770	-5.7002	-4.3804	-0.7191	3.1558	1.2986	4.4714	2.4086
3848.1143	-7.3268	-6.7037	4.1742	2.0817	-5.4485	1.9478	0.6209	17.5855	-31.1329	-13.0233	-14.1681	-9.8705	-3.2598	5.9642	-4.8885	5.9075
3856.1145	-4.3616	-1.9744	4.5430	-0.2435	-4.6328	-1.8075	5.6180	-21.0928	-28.6612	-11.7518	-8.0899	-6.5706	-3.3671	7.1673	-5.5880	-0.8847
3864.1147	-10.3490	-12.6405	-3.6586	0.0560	0.3288	7.7638	-4.2725	-16.2217	-26.7300	-9.6144	-4.5230	-6.2403	-0.8416	4.8461	-3.1790	-2.1656
3872.1150	-6.6784	-12.3115	-1.6625	2.8294	-1.7392	10.0995	-2.9275	2.1206	-40.2307	-8.4403	-7.1310	-7.9097	-2.0553	2.2892	-4.7307	1.8326
3880.1152	-5.8528	-13.8194	1.2397	-1.6923	-4.6693	1.0178	-0.8857	-13.9166	-44.1793	-10.6770	-7.3568	-8.4762	-2.7732	-1.5949	-2.2029	-0.8572
3888.1154	-10.6069	-16.3517	0.3724	-7.6342	-3.6363	-13.5418	-5.4615	-29.3424	-39.1788	-10.3696	-4.1140	-6.8246	-2.1112	-4.8830	0.7379	-4.9570
3896.1157	-7.6947	-8.6107	4.5756	-5.6041	-3.9289	-0.7173	8.6184	-10.4693	-35.6435	-10.4188	-1.1946	-4.6879	0.3659	-1.1669	2.0029	-2.1031
3904.1159	-6.1864	-10.5972	3.3499	-1.3605	-5.6677	15.1067	7.2822	-16.2955	-34.8761	-13.5054	-3.6947	-7.6500	-0.0602	-0.8846	0.0583	-1.1769
3912.1162	-7.9485	-17.2773	-2.0974	-1.8278	-0.6840	-4.6896	1.3539	-33.5788	-34.7220	-10.4787	-4.0246	-8.1758	-2.8626	-8.8397	-0.8022	-2.1951
3920.1164	-9.9945	-19.5284	-4.4759	0.1092	4.5170	-10.5266	8.7338	-4.8622	-35.7114	-13.2501	-6.7344	-10.5860	-3.2470	-7.5423	2.5166	4.1217
3928.1166	-6.2029	-17.7692	-6.8786	5.1991	3.5801	0.4213	1.4606	6.8228	-35.0198	-16.6032	-13.9873	-13.1468	-4.9546	1.6337	0.3366	6.9670
3936.1169	1.7839	-8.3057	-4.1627	3.2853	5.4541	-1.6607	8.9753	-4.7143	-24.3958	-6.1256	-9.5271	-2.8929	-3.5530	6.1084	-0.6114	1.8234
3944.1171	-1.0463	-4.9194	-0.5535	-1.2986	5.2862	1.3279	14.6846	-0.1130	-17.6566	1.4469	-3.2575	2.9081	0.5503	8.0613	1.3218	-1.4268
3952.1174	-2.5896	-5.5797	-0.7133	-1.4015	-0.7867	2.9798	-7.4516	-9.6544	-17.7601	6.3827	-4.2170	1.9090	-0.4060	5.9314	-4.5933	-4.3251
3960.1176	3.3462	-2.9468	1.3309	-1.6844	-2.5794	2.8721	-10.8725	-16.4553	-11.5601	11.0269	0.6011	7.9896	0.1906	-1.2711	-8.6920	-7.6064
3968.1178	4.3221	-5.1436	0.7579	-0.5600	-2.1931	8.1647	-7.3586	-20.9065	-10.7726	6.9533	3.5457	7.4978	0.5599	-3.7306	-10.3130	-8.3842
3976.1181	4.5546	-6.3837	-2.9348	3.4188	-0.3395	11.3862	-7.7598	-35.8863	-13.1602	8.1213	1.1745	3.5812	-1.6882	-0.4279	-12.8336	-8.0302
3984.1183	3.1292	-5.3554	-4.8218	3.1550	2.7196	13.4662	-3.2114	-46.6893	-11.3702	11.0805	3.7055	4.6052	-0.5713	-0.8979	-8.4104	-8.6305
3992.1185	2.1644	-1.5059	-5.9851	1.3927	0.7326	4.8594	-12.2185	-74.5584	-12.1333	10.0754	4.4858	2.0346	-2.1732	-3.9963	-4.5715	-10.4467
4000.1188	5.1079	3.7900	-4.6651	2.8120	4.0830	2.4555	-3.2227	-33.4102	-4.1342	16.7453	3.4878	4.7851	-0.8875	-1.5556	-0.5046	-4.0796
4008.1190	0.9221	-2.3451	-2.0002	1.7382	8.3785	6.7491	14.0734	45.9645	2.5878	12.4747	0.6164	6.2894	3.6112	1.3004	5.3933	5.3766
4016.1193	-2.0537	-5.7643	-0.0091	-3.0250	0.4545	-9.2433	0.2373	-24.3550	-2.1997	1.8332	-6.9326	0.6972	-1.4049	-5.2068	3.9687	-1.6193
4024.1195	2.7239	-2.2919	0.6285	-6.3753	-0.2667	-10.9308	-2.4257	-62.5324	2.8560	11.1597	-3.2847	7.8142	-0.5658	-12.6369	7.9197	-8.0228
4032.1197	3.9593	-5.4495	-1.7109	-3.8090	7.2825	3.5776	10.1679	49.6839	6.0248	11.8499	2.9714	10.4662	5.7166	-5.7026	13.3666	3.0848
4040.1200	4.9199	-1.8052	-4.7382	2.8098	6.5105	0.0603	2.8967	57.6856	-1.0171	-0.9859	-0.1599	1.0161	0.9272	3.8901	4.7631	7.1331
4048.1202	5.6208	2.4509	-7.9216	6.5190	7.6380	-0.6533	-6.8143	-2.2462	1.3017	0.0213	1.2368	4.1528	-1.7008	-0.3235	-2.9857	0.9799
4056.1204	0.6108	-1.7883	-9.9945	9.6620	11.5353	7.5546	-4.0323	-5.9917	5.1222	1.9180	-1.5178	6.1889	-0.7950	-1.5563	-5.5896	1.9021
4064.1207	-3.9708	-1.5211	-9.4704	11.5005	11.6715	15.2388	5.6453	-2.0896	6.8256	3.5232	-6.3297	-0.1647	-1.0572	8.5209	-4.2445	5.0273
4072.1209	-5.9130	-6.5766	-8.4988	6.4321	10.1941	11.5238	10.6711	32.0994	8.9324	3.1419	-1.8881	-5.4373	0.8807	11.6024	1.0976	6.5954
4080.1212	-3.7016	-11.3425	-7.4884	3.1740	5.0122	-8.4000	1.1589	14.4848	4.1659	-6.4565	-1.0837	-10.9043	-3.0964	3.3802	-3.2007	3.7637
4088.1214	0.3332	-4.4692	-7.8679	3.6190	3.6783	-9.9986	-7.2688	-33.1541	4.9849	-2.9367	4.2471	-5.9265	-3.9400	-5.5492	-4.9871	-2.0375
4096.1216	0.8504	-0.8264	-5.8823	2.1934	5.1895	-1.9312	-0.5231	7.7792	10.5965	0.7768	10.0348	-1.0828	0.8356	-6.0265	1.3517	1.2805
4104.1219	6.2588	4.4853	-1.0675	2.2919	3.2705	-6.7278	7.9224	13.3674	11.0817	-2.0372	4.7851	-0.0787	-0.6089	-3.7660	1.7297	3.4080
4112.1221	13.9549	8.4148	-3.5680	2.2615	6.3515	-2.5514	4.5786	-18.4276	16.0122	6.1390	8.0200	10.4525	0.4245	-8.7057	4.1107	-2.4310
4120.1223	15.1876	3.6122	-7.4509	3.3570	7.4080	0.4277	-3.5048	-21.5573	18.0070	4.5201	11.5426	11.0874	0.4744	-11.9986	0.8136	-4.6775
4128.1226	13.1533	3.3518	-6.1682	7.2209	5.1342	-3.1640	-2.9221	-34.6531	11.9445	0.4009	7.3435	4.6411	-3.4386	-8.3177	-9.5988	-3.9348
4136.1228	2.9207	-2.9273	-9.3709	10.1128	11.4900	4.6874	8.7205	-1.5113	10.8867	1.4542	1.6509	-0.3578	-1.9648	0.7501	-6.2021	3.2616
4144.1231	-6.4551	-12.3191	-14.2055	15.1543	15.5657	7.1773	16.4293	7.8576	9.2072	-7.2792	-13.6388	-13.2464	-5.1635	9.2692	-2.4037	12.1250
4152.1233	-4.0836	-10.7002	-14.5412	16.3863	15.3472	-2.6952	14.5604	-21.9608	3.5683	-4.3373	-19.9975	-14.3664	-8.9890	7.0997	-2.8796	11.6225
4160.1235	-4.7335	-12.0693	-14.6971	13.2718	18.0404	-4.5270	16.1039	11.6663	3.4118	0.3106	-14.7320	-9.8056	-5.6943	7.0476	0.4730	12.3180
4168.1238	-4.5127	-10.2007	-13.9221	13.7734	14.2688	3.8250	10.1267	0.1281	8.3367	-2.6954	-13.0110	-10.9195	-5.5275	10.4789	-3.9000	9.2992
4176.1240	1.6938	-4.3740	-10.9968	8.2471	8.4282	1.3567	-2.5676	-16.7667	17.4134	4.2097	-2.2868	-4.3582	-3.5440	4.3623	-4.8421	1.1803
4184.1242	4.1143	-5.5960	-9.7658	3.4057	9.8848	-11.1064	2.6836	24.0476	24.6817	1.1006	8.0745	-2.4333	-0.8735	-1.8693	-0.7072	2.7823
4192.1245	10.4533	-0.2200	-9.1899	7.3622	10.2367	-10.0201	5.3960	-17.8264	24.1602	-1.7454	8.6140	1.5114	-3.0839	-9.7127	-5.0161	0.0964
4200.1247	14.0164	1.2552	-7.0558	4.5074	8.1566	-6.9638	-0.8904	-40.3166	24.2231	6.6074	8.3166	10.4468	-1.7215	-14.7938	-4.3843	-5.5148
4208.1250	5.5826	-11.2003	-10.1500	2.4322	11.9514	-13.4574	4.5130	-0.8547	20.1752	0.4492	2.2752	2.9913	-1.6386	-7.8003	0.0045	-0.1060
4216.1252	1.6763	-18.0523	-15.8385	6.4588	14.6928	-11.2519	2.3678	-24.1530	6.5152	-7.1281	-3.6725	-3.6855	-4.6974	-8.5572	0.3473	1.4842
4224.1254	3.4984	-17.4452	-11.9122	4.9046	7.9584	-1.9477	-4.5914	-26.8906	0.0174	-7.0962	-7.1627	-2.8907	-4.0241	-10.7213	1.9118	0.4312
4232.1257	2.5235	-16.2960	-9.2297	5.1574	6.6157	3.7841	1.2686	-9.4034	1.3454	-6.5528	-10.8560	-4.3142	-3.4494	-2.1096	1.0756	2.3271
4240.1259	0.9468	-15.3959	-14.9522	7.0744	15.8246	1.7325	9.9366	-12.4105	0.3389	-4.5927	-7.0847	-2.3699	-2.9523	3.7874	2.7909	2.3110
4248.1261	0.3820	-9.7555	-13.9100	7.5443	17.3846	2.5967	16.6931	10.1079	1.1537	-6.2862	-7.0440	-2.7365	-1.8642	10.1706	6.4685	6.1029
4256.1264	1.8834	-0.8019	-9.1758	9.3440	10.7158	15.7810	8.7489	-9.0271	2.6135	-2.9307	-12.8316	-0.0979	-1.8176	11.1310	5.3725	5.2692
4264.1266	5.5049	2.2794	-6.1645	4.1445	5.7648	15.2361	-2.6001	-31.2086	5.4733	1.8567	-7.6615	7.3708	0.0224	3.8479	6.0922	-1.8969
4272.1269	10.4691	9.0023	1.3753	0.8751	0.9736	10.5367	4.4919	1.3049	12.5405	4.1133	1.0784	9.2029	2.0339	2.9712	3.4330	-1.5327
4280.1271	8.8911	9.5908	5.6853	1.8050	-4.5420	13.9233	0.1734	2.2531	15.0992	7.8218	0.8547	8.0606	1.9108	-2.1079	-2.6874	-1.1520
4288.1273	-2.2847	-6.5801	5.3114	-6.6556	-9.7773	-6.8754	-17.2769	-10.9646	14.9638	-3.3707	0.0138	1.1977	0.4775	-10.7064	-5.5464	-5.8587
4296.1276	-4.5227	-8.1436	6.5800	-6.9574	-11.4516	-12.9210	-15.4555	1.3527	15.7922	-13.8041	3.0152	-4.1195	-0.4617	-8.1695	-11.1813	-5.1537
4304.1278	2.0180	0.4399	5.8906	2.6029	-9.2850	9.4048	-7.4973	9.9921	9.2111	-9.6739	0.0466	-2.7380	-0.6359	-3.3427	-12.2961	0.1345
4312.1280	-2.1846	-3.8813	5.1172	-0.9378	-9.7501	0.8403	-9.3832	6.5621	2.7810	-11.6479	-6.1840	-6.9559	-1.7764	-0.8262	-5.9885	0.8935
4320.1283	-6.9620	-3.9520	6.0684	-5.4121	-9.2739	-7.3394	-4.7821	7.3402	5.1786	-10.9001	-5.7620	-8.8883	-0.9662	3.0138	-0.8882	0.5172
4328.1285	-1.9462	2.4596	6.2248	-3.0275	-4.7213	0.8417	8.1628	32.5652	2.9841	-2.5745	-4.9202	-4.2985	1.0808	7.9480	4.6227	4.4232
4336.1288	2.1028	5.8762	6.7671	-5.4763	-3.3542	-1.3466	9.2095	42.1940	0.8237	3.2917	-3.0897	1.2493	2.4718	11.0028	7.9032	2.9518
4344.1290	5.6477	10.0967	5.5048	-6.3427	-3.8865	9.9392	1.0130	24.9606	12.0114	9.1088	6.5700	8.7152	5.7031	6.3334	8.1447	-2.9554
4352.1292	6.7604	11.4163	3.8843	-4.4275	-3.9527	5.4309	-4.6530	5.6057	15.2854	7.0309	12.6114	8.3818	4.4503	-2.0069	3.3150	-4.7711
4360.1295	2.3953	9.2314	6.3395	-4.0013	-7.6420	-7.9463	-9.0192	-11.2777	6.2440	1.3008	8.4997	2.7155	0.3998	-2.8233	-6.4526	-5.4214
4368.1297	-1.4778	3.7536	7.9612	-1.7872	-11.7063	15.5059	-8.3108	14.9828	5.8307	1.2705	3.4051	-2.0133	2.3892	3.8721	-7.5904	-2.2411
4376.1299	-10.9930	-8.8722	5.9780	-3.8676	-11.9203	12.7602	-10.2995	40.3177	0.9472	-1.6792	-1.3031	-10.5873	2.3707	5.7320	-5.3160	1.4426
4384.1302	-17.3627	-13.2745	5.7157	-6.9225	-8.2831	-9.9393	-7.4934	44.1390	-13.9063	-4.1602	-8.0206	-11.9599	0.1545	5.5164	-2.7973	3.8794
4392.1304	-12.6340	-2.5958	5.3268	-2.8664	-1.4603	-0.1046	8.8534	73.2859	-15.3133	0.6906	-9.0693	-6.5155	2.5383	11.3380	6.9624	10.8455
4400.1307	-19.8401	-4.7046	-0.0845	-4.2693	1.7797	-7.8844	4.0605	47.3835	-7.9193	0.6326	-5.7250	-10.7692	2.1476	9.1796	11.3318	9.3270
4408.1309	-25.4925	-13.9682	-1.5188	-9.7793	-1.3359	-21.5206	-5.4504	9.6867	-11.6285	-9.3185	-8.0385	-16.3420	-0.1660	3.7698	12.7636	4.3702
4416.1311	-7.1964	0.8059	3.8034	-5.1380	-2.9886	-3.0242	9.9158	39.3879	-17.8423	-8.8798	-6.1255	-9.8912	1.1858	8.9037	15.8185	8.1006
4424.1314	4.9566	14.7878	4.6272	-1.8048	-2.7009	7.3014	10.3283	21.4475	-8.1869	4.3971	5.1966	-0.2949	2.4938	9.5548	9.9321	2.6079
4432.1316	4.5096	12.2161	5.3610	-5.6933	-7.5465	4.3763	-5.0981	-25.9062	1.4156	8.8749	11.0136	3.7455	2.3573	3.5409	0.7746	-8.5611
4440.1318	11.4592	15.8008	10.6753	-5.0507	-14.7240	7.2478	-12.5114	-33.1534	-1.7098	7.6061	14.8185	7.1637	1.6921	-3.4036	-9.0074	-12.1219
4448.1321	14.2219	17.6081	11.5409	-4.2418	-15.9665	2.7962	-17.0044	-38.7616	4.9215	5.3226	21.6812	9.4991	1.3697	-10.6554	-16.3096	-14.4433
4456.1323	8.9472	14.5799	9.5186	-5.3074	-12.3781	-7.4781	-13.7729	-32.7042	11.9051	-1.1468	19.1016	6.6731	0.6196	-5.4813	-15.8788	-13.0384
4464.1326	4.4692	12.2031	6.3111	-2.6173	-7.4282	-2.5038	-7.5886	-17.0181	4.9232	0.1424	12.0043	4.0825	0.5189	3.5103	-12.0752	-8.3105
4472.1328	-6.3503	1.8557	-0.4847	-1.8015	0.2871	5.1760	-0.6430	-13.9302	3.6895	2.4222	8.2391	0.3160	2.5011	2.8623	-1.5594	-4.1169
4480.1330	-17.0268	-4.9774	-2.4784	-1.3593	3.7856	-2.7107	8.7566	-19.2290	-0.7012	-3.4968	-0.9632	-8.5899	0.4673	4.3256	3.9092	1.3250
4488.1333	-18.6803	-7.3002	2.8542	-1.6159	-1.9449	-3.8758	12.1616	-2.1316	-10.9425	-6.7637	-9.0770	-15.0149	-1.4609	8.9526	0.8838	4.7672
4496.1335	-21.1905	-10.6908	3.7623	-6.2622	-3.0308	1.5636	12.3128	22.7502	-7.9279	-4.6614	-5.1014	-13.9677	2.4343	8.9784	7.2464	4.6307
4504.1337	-18.6634	-4.9068	-1.8961	-2.9695	3.4128	6.0864	9.7937	3.5371	-6.6536	0.8044	-2.4681	-8.1175	2.9085	10.2664	9.8056	3.0916
4512.1340	-8.2603	0.2284	-0.2359	2.8455	1.4799	13.6043	10.3372	-1.4823	-16.8244	0.5411	-8.3803	-6.0692	-0.0062	12.3227	4.0200	4.1411
4520.1342	-3.7356	1.7784	6.4370	-1.1702	-6.5023	3.5080	8.5597	-3.2525	-21.5458	-2.5155	-7.2732	-7.7215	-1.2832	4.1764	3.5137	3.1333
4528.1345	-0.0670	9.8885	5.4606	-1.4863	-6.7693	-0.3847	-3.3063	-24.0701	-12.7846	8.7275	1.8507	-1.1232	-0.5309	-2.8168	1.3467	-1.5276
4536.1347	4.6491	16.0763	4.5475	3.1535	-2.5350	8.1132	-0.3189	6.2577	-5.7235	16.0664	4.2436	5.3161	1.1799	2.5406	-2.4261	1.0461
4544.1349	7.6484	18.2006	6.3495	3.8611	-1.8168	-2.3459	7.9752	-9.3375	-9.4316	10.2349	5.0029	5.0169	-1.2206	0.1448	-6.3450	0.3496
4552.1352	13.2103	19.3388	5.7018	4.1088	-3.0979	6.6639	2.7080	-42.2553	-7.8094	11.0724	10.6031	10.9303	-0.4127	-6.1889	-9.0865	-6.2456
4560.1354	12.2391	16.6471	6.7414	3.5333	-3.3572	20.8661	1.1964	0.8093	-11.0627	10.3162	7.2546	14.7163	3.1645	-1.0584	-6.0320	-3.3350
4568.1356	8.1795	13.5447	6.9872	2.1529	-3.6452	8.0186	1.1829	-16.2938	-23.7733	4.9962	-0.6411	10.5166	0.0059	-0.3486	-5.0322	-2.7037
4576.1359	4.4083	7.7774	5.9568	-0.4682	-3.4608	14.1598	4.2053	-10.4524	-18.3384	6.9249	3.0344	8.3920	2.4103	0.0936	-1.6248	-3.8011
4584.1361	-6.3523	-1.4685	3.1815	-3.2725	0.6171	13.6387	9.3585	58.2196	-15.2531	6.6327	4.6546	1.8990	6.0694	7.3966	5.3112	3.5490
4592.1364	-8.0720	-1.6805	-1.3112	0.3005	4.2644	-2.4048	6.8210	32.2891	-28.4321	2.8716	-4.7663	-4.0051	0.3177	8.1814	5.8740	6.6046
4600.1366	-5.4563	1.6509	2.3702	1.9927	1.3152	5.5138	9.2675	20.7224	-29.7529	2.1460	-11.5048	-1.8639	-0.1858	7.2918	6.0412	7.2838
4608.1368	-12.6304	-3.7853	5.7777	-3.5007	-3.5115	-1.1283	3.6598	13.4135	-29.6035	0.3849	-13.4167	-3.8624	0.3366	2.7479	6.5975	5.2061
4616.1371	-8.2383	0.6447	3.9003	-5.8505	-6.8287	-10.6088	-9.8465	-52.5374	-29.2022	1.4234	-6.8612	-3.2809	-2.1883	-6.1280	6.1336	-3.5970
4624.1373	4.1742	15.4673	6.5035	-5.5347	-7.6529	3.6389	-4.2572	-17.1254	-9.8517	8.6583	10.5503	4.2770	2.9832	-3.2653	7.7005	-4.4837
4632.1375	4.0049	14.1837	5.8257	-6.7782	-5.3311	2.1823	-1.2335	34.8857	2.8165	9.4986	18.1216	4.3171	5.8208	1.3771	6.7743	-1.8718
4640.1378	1.9220	8.9848	3.3520	-7.1673	-6.0696	-6.2871	-11.6437	2.5136	-2.4146	0.1334	13.4989	2.4596	2.7921	-2.8353	4.0647	-4.8513
4648.1380	6.9137	15.0487	5.0853	-4.4132	-5.5292	-6.3165	-10.7255	-6.9398	-4.8118	-1.5476	11.4240	8.0353	1.7951	-4.7692	0.7059	-5.0072
4656.1383	10.9841	16.2117	5.5889	1.2115	-0.6963	2.9636	1.1590	16.4813	-5.9657	4.9600	6.1621	13.4998	2.1822	-1.5865	-2.3711	-0.6163
4664.1385	7.2806	8.6862	7.3432	1.6089	-1.0507	13.0592	8.6245	41.2110	-8.8985	3.3478	-0.3860	11.6677	3.5152	0.5832	-1.2785	3.0767
4672.1387	2.6984	1.8096	5.3849	-1.8027	-0.7036	-3.0748	6.2919	34.0646	-13.5232	-0.7063	-1.8678	5.6805	1.4822	-2.2023	1.4740	3.1191
4680.1390	3.1327	0.3939	2.2222	1.0429	0.5152	-2.3491	2.0085	7.6042	-24.4751	-1.5373	-7.6294	4.3645	-1.0430	-5.1992	2.9802	3.3837
4688.1392	-3.7671	-3.8121	5.5159	0.2577	-4.6235	17.0939	-1.6891	8.2830	-25.3622	-4.1641	-13.4508	4.0260	1.6401	-5.0990	4.2254	3.4957
4696.1394	-14.9665	-13.3914	5.1777	-9.2409	-6.4396	-5.0076	-6.1914	-15.7365	-17.4755	-7.0251	-13.2272	-2.4340	1.0747	-8.3113	9.0492	-0.7883
4704.1397	-12.6907	-9.0283	5.7387	-13.4305	-7.8950	-22.2326	-5.0160	-50.4101	-14.4902	-9.2397	-8.3216	-5.0637	-0.8826	-13.0956	13.6075	-4.3256
4712.1399	-5.9939	2.1339	7.6447	-12.6574	-9.3591	-10.9371	-5.3416	-35.9965	3.1462	-6.0760	5.4417	0.7275	2.7580	-11.3434	10.3625	-6.8898
4720.1402	-5.8565	1.8476	1.8738	-10.7564	-4.0932	-13.9785	-13.9494	-8.3837	17.8564	-0.4495	14.0908	3.1745	3.8653	-5.1381	2.5847	-7.9921
4728.1404	-2.0722	4.3082	0.8067	-4.4000	-4.4734	-9.2530	-20.1156	-4.5402	4.9752	1.9600	10.7664	2.7520	1.2266	-3.0107	-5.7559	-6.0181
4736.1406	4.0311	9.7834	2.4823	-0.4316	-4.5051	2.4092	-15.0825	-8.5830	3.0740	7.6128	11.8255	7.2012	1.6544	-3.9561	-8.6356	-6.0342
4744.1409	6.2143	5.5599	0.7731	-0.0473	-0.4152	-3.6463	-7.8774	17.6892	5.0933	5.2073	10.9532	6.9014	1.3173	-1.9548	-8.2103	-3.1520
4752.1411	12.8998	4.1936	2.7557	3.1193	-4.2868	-5.3390	-10.8198	30.7711	-12.7438	-3.3684	3.6124	3.6744	-2.3732	-2.2685	-12.9204	0.1024
4760.1413	18.6408	8.7755	0.2932	6.8543	-0.0246	4.2697	-5.7297	1.9942	-11.4158	1.5386	3.6845	10.0501	-2.1962	-4.8627	-10.6361	-1.6613
4768.1416	11.7283	2.5970	-3.7694	6.8781	8.3889	11.8000	11.7584	19.8172	-1.0426	0.5511	3.6715	8.8056	1.0557	-0.4725	-1.6572	2.1846
4776.1418	4.9122	-6.9284	0.3148	0.2919	0.5218	3.0991	9.3144	48.2364	-8.5492	-10.2056	-0.8178	-3.1264	0.3669	3.0385	1.2274	4.6487
4784.1421	4.6910	-5.8440	1.8336	-8.0955	-5.8616	-12.9899	-7.5073	15.5892	-1.9180	-9.0723	3.7453	-2.8699	-0.0336	-3.5759	4.4230	-2.8326
4792.1423	1.7184	-5.7164	-1.2997	-9.6341	-4.3107	-12.9458	-14.6110	-4.5375	12.4805	-7.4743	11.1603	-0.5521	1.6893	-7.7953	4.8088	-7.0966
4800.1425	0.1691	-5.5854	-1.4500	-7.4553	-5.3543	-14.1046	-15.1694	-18.2298	12.3326	-8.3136	9.4402	-4.6214	-0.4811	-4.9910	-0.6647	-7.4671
4808.1428	0.9818	-1.3791	-1.3780	-4.9993	-3.5214	-15.2610	-10.6854	-50.8696	15.8361	-3.7667	7.6912	-2.4243	-1.9421	-7.3442	-2.3233	-8.8079
4816.1430	-1.1080	-5.3206	-2.8356	-1.4250	-1.6491	-1.7561	-7.4627	-33.6880	16.6540	-4.1896	8.4904	-2.7028	-0.1983	-9.6568	-3.3976	-5.7622
4824.1432	-1.4235	-6.0097	-2.7824	0.0897	-3.1162	-5.9254	-11.5213	-3.7893	11.0079	-8.2527	3.9012	-7.8182	-1.9837	-3.7416	-5.6465	-1.2250
4832.1435	-1.2551	-2.9684	-4.7898	0.6692	1.4905	-19.4008	-8.7825	-5.3344	14.9792	-9.5905	1.4087	-7.0735	-3.7759	-0.4087	-4.8184	0.2408
4840.1437	1.4634	-8.0811	-7.1150	5.0110	7.6990	-9.0791	7.0706	14.3272	10.4104	-9.7135	0.2135	-5.8416	-2.9560	-0.1489	-3.9693	4.1687
4848.1440	7.6095	-4.7158	-2.6568	8.3471	5.9211	-0.6897	18.3310	28.6700	3.1676	-7.9262	-7.6635	-5.3030	-3.8646	2.3772	-3.3426	8.6958
4856.1442	4.8988	-2.9660	-0.8536	2.9451	3.0724	-6.3102	10.0474	11.8611	12.4831	-3.4508	-9.3318	-2.3154	-2.8293	1.7408	0.9720	4.9451
4864.1444	1.5413	-11.6933	-3.5327	-2.8972	2.6786	-3.0190	2.4229	0.7705	11.2337	-0.1995	-4.2356	-0.5927	-0.0874	-1.0131	4.9916	-1.2104
4872.1447	2.4955	-9.0535	-3.6812	-1.0439	4.7855	-0.0530	8.8516	-13.3546	10.0602	-3.1850	-2.2613	1.2113	-0.0648	-1.7298	3.8369	-2.0118
4880.1449	-4.4320	-8.2660	-7.2438	-0.5200	9.5412	-7.4453	5.0313	-22.1362	25.0722	-5.8635	-0.2788	2.3729	0.3143	-2.3151	2.5772	-2.2300
4888.1451	-8.8078	-14.9986	-7.0312	-1.4284	5.4998	-5.2364	-3.9714	-20.1699	25.0639	-7.0085	-1.0860	-1.7932	0.1989	-5.7065	-0.5020	-2.7287
4896.1454	-7.4627	-15.5217	-3.6236	2.0689	-0.1375	-3.0863	-1.5019	-15.2014	20.5369	-13.9737	-2.7011	-10.2243	-2.5757	-6.9730	-7.5721	0.3902
4904.1456	-6.4297	-14.1820	-8.1161	5.9368	4.4424	-7.6062	0.0226	7.1574	24.8498	-15.1249	-1.5150	-14.3038	-3.9395	-2.3415	-7.8334	5.1057
4912.1459	1.5098	-3.7502	-8.6528	10.2390	8.0258	5.3805	5.7512	6.2717	30.4161	-5.3945	-1.1349	-6.1360	-2.2782	-2.0639	-3.0954	6.7228
4920.1461	4.3237	0.5935	-8.9472	11.6762	10.2055	8.1811	5.8574	-8.7827	40.8467	-0.6589	-1.8813	0.4284	-1.7700	-3.0909	-3.7386	4.9130
4928.1463	-4.6275	-15.6136	-13.4936	8.3928	9.9349	-7.7956	-8.0549	-6.2470	35.1503	-4.3525	-9.7411	-7.9569	-5.0673	1.8421	-8.5740	3.5317
4936.1466	-9.4788	-20.3928	-11.8438	10.5443	10.4095	-3.2288	5.7488	-11.0070	26.7438	-7.4794	-16.9107	-13.5532	-6.2542	2.8291	-8.0547	7.2221
4944.1468	-7.8191	-13.9073	-14.7096	16.8260	22.1491	3.3352	30.7704	8.9385	35.2887	-7.3358	-17.3887	-9.2829	-4.4344	4.5242	-0.0058	15.3622
4952.1470	-4.4169	-13.9518	-17.7254	17.7559	23.5968	2.8719	24.1638	20.6815	35.1008	-5.6407	-20.9596	-8.5196	-5.2483	9.8986	1.2206	16.1932
4960.1473	-1.3230	-11.3717	-11.7663	11.5712	14.3263	2.8037	15.9198	1.3333	40.8946	-2.0605	-14.4610	-6.6534	-4.1336	8.3498	-2.8255	7.9832
4968.1475	2.2585	-6.3338	-8.6776	4.9343	12.7040	-5.2127	13.5191	9.1609	55.0174	0.5446	-1.5411	0.8197	-0.5996	4.1621	-1.9305	2.5679
4976.1478	7.5254	-0.9052	-10.0526	6.8080	10.2774	4.8242	0.5217	-25.3146	58.8296	4.0354	2.2182	5.9494	-0.4190	-1.1315	-4.1244	-2.7064
4984.1480	9.3254	0.3444	-15.8753	12.3748	13.4635	14.6981	-3.3084	-67.5495	64.9497	9.9498	5.4768	6.2970	-1.5672	-5.4015	-6.7599	-5.6288
4992.1482	7.6702	-3.6308	-16.0918	15.1455	17.1460	6.5755	7.8065	-19.9494	55.4554	4.2005	-1.7920	0.5604	-3.3885	-0.4031	-5.9959	3.7412
5000.1485	0.8290	-5.0971	-9.9156	14.9631	10.4569	8.5289	9.8367	5.2606	38.6963	-4.8592	-10.3838	-7.7175	-4.2688	2.2673	-5.9917	10.0685
5008.1487	-9.7171	-11.1080	-15.3678	11.2670	11.3914	4.5034	-5.3033	-9.6110	42.0301	-2.8842	-4.0852	-10.7106	-2.6972	-1.9624	-3.0048	6.7098
5016.1489	-8.2687	-12.8621	-16.4787	11.1405	15.3270	3.1190	2.2538	15.1803	44.9131	-5.8780	-6.8800	-9.4180	-1.9387	1.3530	1.6050	10.0609
5024.1492	-1.9722	-5.7361	-10.2299	11.3777	15.9460	6.7861	28.1304	32.6180	43.5466	-9.5846	-10.8023	-8.1349	-1.2641	6.9119	8.1838	14.7052
5032.1494	-4.7511	-5.4038	-11.2634	5.3765	14.2347	-4.5996	14.8862	-2.5188	32.3010	-5.4880	-6.1251	-5.6433	-1.2476	2.1878	10.9324	7.6383
5040.1497	-2.1053	1.5766	-5.1655	2.6177	4.2299	8.1995	-2.9030	-43.0235	21.9885	-0.1975	-4.8617	2.6301	0.1286	-1.9428	5.8926	-1.4935
5048.1499	4.1464	10.6506	1.0604	0.8952	1.3364	18.2960	5.6265	-15.7500	35.2194	7.8698	2.3063	8.9757	4.2034	1.1269	6.4296	-1.9877
5056.1501	3.6605	3.9770	-0.1303	-1.2772	1.4205	-3.1568	-0.8522	26.2638	31.7696	4.5624	1.1587	3.7380	1.8853	2.2160	3.4560	1.6562
5064.1504	6.6269	1.8566	0.5541	2.2741	-3.5802	-0.1751	-11.8147	-15.9350	13.7102	-0.4211	-6.6552	2.4354	-2.6343	-1.1080	-5.8512	-1.9289
5072.1506	9.5922	5.3678	-0.7848	2.1872	-2.0610	15.5703	-12.8718	-58.8531	3.9094	8.4251	-0.0889	11.9150	0.0169	-5.2106	-4.3580	-9.6297
5080.1508	10.5811	7.5100	5.3485	-1.3840	-6.0120	16.1115	-10.5236	-8.9736	-15.0920	5.4128	-0.9239	13.5936	2.1283	0.9672	-2.7853	-6.6510
5088.1511	10.4872	10.9651	10.6038	-4.4772	-11.7985	5.0036	-11.2381	12.4869	-13.8335	1.8869	-3.8127	8.3503	0.6009	9.1151	-4.9677	-5.0160
5096.1513	1.9555	2.3790	2.0791	-8.8226	-6.5705	-12.6534	-23.7796	-40.2814	-0.2434	8.0277	4.8107	7.7872	0.1773	-2.2214	-3.5862	-12.7722
5104.1516	1.9166	-4.1523	2.3756	-5.4019	-3.5042	-10.1011	-10.4968	-10.0391	-10.5089	0.8319	2.9130	5.5655	0.1000	-7.6776	-3.8639	-6.2383
5112.1518	7.0543	1.0626	7.4459	-0.0768	-3.9338	-1.8118	11.9097	36.8834	-18.4130	-1.9478	-2.6210	0.2159	-0.7339	0.9153	-3.1621	3.8114
5120.1520	2.2338	0.0831	4.6176	-0.4221	-4.7063	2.6645	1.6227	-12.7797	-21.6309	4.4997	-2.6838	0.3785	-1.1157	-2.9117	-2.5134	-1.4825
5128.1523	6.6317	1.8031	4.0705	0.9845	-5.0667	11.1028	-1.2785	-18.0367	-23.3054	5.1574	-4.0526	3.7100	-0.8330	-2.0647	-2.1841	-2.6953
5136.1525	9.4436	8.2408	5.4656	0.0244	-5.1348	4.1006	1.9077	0.6643	-17.3589	8.1494	-2.1946	2.8956	-0.9330	3.9170	-0.4572	-0.8557
5144.1527	-2.0429	7.6865	8.7827	-4.4754	-9.8929	1.1795	-4.4738	-24.7896	-14.6315	12.3231	0.9432	0.6962	0.4860	-1.2501	-1.3442	-4.4164
5152.1530	-7.8102	6.7372	8.3083	-6.4282	-9.8013	7.6375	-5.8245	-25.5900	-6.4483	17.3432	6.0980	1.2107	3.4571	-1.4268	0.2510	-6.1986
5160.1532	-10.1879	5.3950	4.1121	-4.5704	-6.8061	4.3481	-10.1206	-20.1491	-8.9516	15.6901	6.6098	-1.5537	2.4682	1.6839	-0.9746	-4.8607
5168.1535	-11.4733	2.0312	7.9157	-0.6172	-10.2349	0.2109	-5.7375	-7.6937	-22.3127	5.1778	-8.3134	-9.1341	-2.1466	4.9302	-6.4726	1.7662
5176.1537	-9.7488	0.7673	7.2014	-0.7382	-9.4374	-2.8914	-4.6535	-12.0336	-17.4757	7.3150	-15.9407	-9.5197	-3.5397	6.8536	-2.5201	3.0242
5184.1539	-7.9820	1.4777	2.4912	-2.0864	-5.2639	0.5729	-8.2159	-15.0869	-12.5468	10.4960	-6.6245	-4.6257	-0.6966	3.1444	2.9651	0.2052
5192.1542	-3.9579	2.7305	5.2874	-3.3284	-5.9170	-0.9135	2.2997	15.6037	-5.5597	5.9008	-2.5020	-5.9568	0.3690	5.9316	3.5484	2.3793
5200.1544	-2.4338	3.5610	3.7072	-4.4635	-6.1361	1.9686	-3.6377	-15.6245	9.0690	10.3615	-2.5595	-2.4203	0.6854	4.7930	4.6070	-2.5853
5208.1546	2.5365	6.2959	3.6322	0.4373	-4.8876	21.7615	-4.3203	-2.6036	11.3699	10.5311	-2.0744	5.3252	3.0998	2.5774	2.0670	-1.5463
5216.1549	5.9054	7.2542	9.5020	-0.9805	-7.9541	2.1652	2.4550	37.6170	18.0354	2.9980	-6.7977	1.3514	0.4302	6.0252	-2.5100	3.5454
5224.1551	3.2836	8.6615	7.9057	-6.3794	-11.4037	-19.3163	-15.9518	-40.4077	27.0677	5.3679	-2.5723	1.3781	-2.5535	-5.8981	-3.4508	-6.4871
5232.1554	8.6451	13.4857	5.8119	-2.5958	-7.7478	3.1744	-9.1979	-28.6729	29.3172	9.3833	6.3464	7.5319	1.7800	-10.1023	1.8048	-5.2057
5240.1556	6.0205	8.9428	6.6094	-3.1870	-5.5963	-0.1940	3.1228	54.6524	31.3277	4.7332	1.4469	0.1139	2.9032	2.5327	7.0221	5.5138
5248.1558	0.2371	6.5953	6.1467	-3.6158	-9.6154	-4.5855	-12.4465	34.7514	24.0638	1.6328	-1.8355	-3.6546	0.7663	2.2864	1.6114	3.2109
5256.1561	7.2398	14.3239	8.2899	-1.1145	-10.9255	8.7430	-13.5623	-16.8980	27.5544	8.5587	2.4822	7.0929	1.4691	-3.3462	-5.2158	-4.8953
5264.1563	5.2119	11.9439	6.8048	-5.9976	-8.7244	-2.4009	-16.2209	-46.7744	31.6377	12.4544	5.7824	11.4560	1.7437	-4.3663	-5.5083	-11.9115
5272.1565	0.9828	7.0363	1.9017	-1.8095	-5.6013	4.1623	-17.9523	1.5858	7.6573	2.2576	10.4426	4.2185	2.2346	0.1270	-7.2607	-5.4999
5280.1568	-1.4772	3.9628	2.6821	1.1044	-6.3617	11.5089	-8.3635	4.7830	-5.9228	-4.6255	9.1734	-2.6406	1.3273	0.8131	-8.3814	-2.1588
5288.1570	-8.7794	-2.8492	4.2776	-6.8659	-7.2150	-2.5477	-4.9952	-51.0465	-6.0380	1.0955	6.9182	-2.5710	0.7683	-4.9629	-3.9973	-9.5574
5296.1573	-3.1433	0.0586	0.9430	0.3629	1.4979	7.4842	9.6364	33.4432	-17.1656	3.7173	7.0045	-1.7365	2.5695	5.3060	-0.6181	2.4797
5304.1575	0.6883	1.9179	-2.2867	5.6304	4.0667	8.0294	3.5481	45.6115	-27.3892	1.0787	0.0955	-1.1600	0.1357	8.7147	-2.2153	6.4779
5312.1577	-3.1562	-3.1270	0.1077	-4.2009	-3.9777	-5.0845	-18.0366	-49.1538	-48.4648	1.8442	-0.1585	3.5663	-1.8100	-2.8696	-4.6045	-9.5867
5320.1580	2.0586	-0.0504	4.8671	-4.2779	-3.6851	6.5706	0.8890	-3.5438	-77.0438	4.2266	4.8601	5.7713	1.1631	3.1076	-2.0071	-6.1696
5328.1582	1.6704	1.8836	4.8770	-2.1038	1.8022	10.0745	16.4151	47.1580	-88.9462	8.1841	3.8795	5.7925	3.1835	6.8495	5.7416	2.7261
5336.1584	-3.7342	1.0068	2.7217	-4.2433	2.0079	0.3868	5.1083	21.6302	-97.9411	10.6348	3.0332	5.8543	2.2127	1.4827	8.1717	0.6347
5344.1587	1.2359	9.4800	6.7232	-2.1652	-2.9062	4.5031	2.6667	6.1133	-108.7213	8.6743	0.0642	6.5048	0.3189	4.7087	4.1407	-0.4070
5352.1589	6.6104	16.4149	10.7250	-4.8848	-5.5055	5.5881	3.7951	7.0543	-100.8210	14.0955	3.7429	12.3409	2.2610	2.7430	6.8872	-2.4935
5360.1592	1.3219	8.8688	4.9472	-9.4646	-1.3903	-7.3317	-2.5100	-4.9862	-86.0301	20.4030	12.4672	11.7862	3.4062	-3.4393	9.3318	-6.7338
5368.1594	-4.0031	0.6542	2.3449	-8.0940	-2.6067	-9.4201	-7.3619	-30.3987	-93.2487	10.8942	9.3751	4.1751	0.3572	-3.9300	3.4385	-8.3810
5376.1596	0.0563	3.4217	7.7157	-6.6158	-7.1392	0.2817	-1.5614	11.1957	-96.8890	0.2183	6.7536	2.5380	1.2852	-0.8006	3.2964	-2.9368
5384.1599	1.0957	4.0276	5.7143	-5.1741	-3.1977	2.1608	4.9324	39.8370	-71.7155	-0.1766	8.7563	2.5232	2.9878	1.6933	6.0436	0.9172
5392.1601	-2.4165	1.7040	1.4063	-3.4550	0.3839	4.2651	3.9452	3.1427	-54.5531	0.8961	8.6117	2.7673	2.5494	-0.2991	4.9609	-2.1220
5400.1603	-1.2728	3.3248	3.4355	-5.3775	-2.5113	2.8672	-0.6587	0.1395	-52.4723	3.5228	8.4539	4.4183	2.9455	-3.8898	6.6143	-3.0456
5408.1606	0.8963	2.8161	6.1539	-8.1176	-6.1013	-5.0468	-6.6759	3.9133	-49.3507	4.8855	5.8206	5.6283	2.1363	-5.2990	5.0841	-4.2622
5416.1608	1.2994	2.1429	6.2890	-7.5291	-5.3551	-6.7197	-4.6660	15.0382	-54.3868	-1.6069	5.8239	5.2082	1.6148	-0.6308	1.1540	-4.0303
5424.1611	0.7838	4.0246	3.8411	-4.8314	-2.1779	-6.4132	0.3569	16.5973	-53.5821	-2.7553	6.1709	2.3994	0.9191	2.3376	2.5149	-1.4535
5432.1613	2.9114	9.3541	6.2211	-2.1986	-2.9237	4.4198	5.4574	7.6657	-47.6865	5.7248	4.0045	5.4039	1.6739	1.9045	2.8954	-0.7449
5440.1615	1.0927	10.1871	6.9201	-1.9081	-3.2522	7.8147	3.8551	22.1865	-49.9214	4.5501	4.5766	6.1542	2.7655	3.9246	1.7130	0.2963
5448.1618	-5.7600	2.4541	-0.1236	-3.0405	-1.1393	-4.9153	-9.0549	-23.8853	-41.2716	-0.4959	3.7849	0.8821	0.0537	-3.9638	3.2619	-3.0241
5456.1620	-0.4550	6.8990	3.9961	-0.5062	-2.6747	4.8114	2.7799	-13.5833	-27.9564	1.3987	3.7306	2.2099	1.0504	-5.7774	3.3332	-0.2674
5464.1622	0.8877	8.9728	9.2990	0.4569	-4.6098	6.8130	14.9589	41.5103	-21.8810	-5.4022	0.5062	-1.0780	1.6632	4.3536	0.7401	6.2666
5472.1625	-12.8884	-8.4537	1.9572	-6.7929	-3.5740	-10.4301	-3.9769	-19.3212	-11.0521	-12.2829	-3.0364	-5.6882	-0.1928	-1.7663	1.9575	-2.6555
5480.1627	-14.5453	-14.3971	0.1644	-10.1191	-1.4647	-9.7277	-4.5371	1.9878	-4.5055	-10.5943	1.2978	-3.4579	2.6967	-2.4695	4.8831	-3.5992
5488.1630	-5.7009	-6.1271	2.5362	-2.5339	-0.1690	-6.9498	8.9521	68.5131	-2.7500	-14.1190	-4.2286	-7.3923	0.8658	9.0912	2.4888	8.1724
5496.1632	-2.1068	-0.2676	2.6400	0.7968	-1.5079	1.5085	8.2754	25.7303	11.4038	-11.7743	-7.1045	-5.7334	-0.3316	5.7811	2.4810	6.0347
5504.1634	-3.1610	-0.9509	0.2295	-3.6990	-0.4378	3.5456	0.0247	14.2067	22.0492	-4.4878	2.2106	0.3244	3.2472	1.6331	5.8844	-0.0592
5512.1637	-3.9800	-7.0177	-5.4547	-0.5344	5.2661	-9.3504	-1.6001	22.8261	14.3135	-7.2925	-4.5659	-3.5141	-0.5618	4.8799	3.6264	3.5141
5520.1639	-2.3141	-6.6550	-2.2237	3.3456	4.2455	-6.6383	10.6313	17.0377	10.8632	-10.9287	-11.7814	-6.8130	-2.9810	4.8873	0.8436	7.0583
5528.1641	-4.2064	-5.0464	3.0885	-4.3676	-5.6845	-14.2133	-3.5014	-21.0356	15.8840	-10.7444	-5.6242	-6.6808	-2.5519	-3.1261	-1.0314	-1.6129
5536.1644	-1.9227	-0.0339	2.9219	-5.3032	-7.9252	-7.3056	-15.9078	-54.3357	17.8144	-3.1422	-1.2084	0.4045	-1.2266	-7.2899	-2.3161	-8.2918
5544.1646	2.4001	5.8513	3.1395	0.6229	0.7321	15.3859	10.0374	31.3593	23.3011	3.7959	3.7754	5.7159	4.6884	3.5532	2.3555	2.1328
5552.1649	-1.9661	-3.0337	-2.2725	-0.5571	6.3881	-11.7956	12.8689	49.4626	19.8338	-4.6617	1.6930	-3.6983	0.9330	3.9670	4.5126	6.8898
5560.1651	-0.0090	-4.0180	-4.7882	3.4433	5.6441	-15.3213	8.3491	-6.3887	10.1020	-9.0846	-3.6348	-7.4260	-4.1693	-1.8525	0.5078	4.4890
5568.1653	0.4690	-1.5657	0.5671	5.5318	1.3761	12.1048	13.5697	29.4081	16.2267	-4.9523	-1.3492	-4.4850	0.4968	2.4686	-2.7839	6.3696
5576.1656	-7.0235	-9.5960	1.0939	-1.5419	-1.5801	-7.1754	-0.6861	22.6019	16.1148	-4.7964	-2.7175	-5.5560	-0.1884	-2.1797	-4.1766	2.5840
5584.1658	-4.2117	-5.8928	-0.3571	-0.4515	0.2057	-13.7244	-2.2576	-5.5554	8.3904	-3.1914	-5.5834	-3.4860	-2.4893	-3.9510	-2.8659	1.2641
5592.1660	-2.7235	-3.4662	0.3650	0.3561	-1.0659	-2.6127	-2.3371	6.7147	10.6215	-5.1307	-5.5181	-2.6946	-0.9747	1.0709	-2.1505	1.7963
5600.1663	-6.3918	-4.0676	0.2301	-3.1338	-3.1234	-9.9729	-11.8427	-20.1304	10.5956	-5.8590	-2.8826	-2.2467	-1.1985	-2.8848	-2.9586	-2.9672
5608.1665	-6.1106	-0.5739	-2.8529	-1.3723	-0.8093	-3.8773	-16.6122	-23.8215	16.0483	2.2986	1.7214	0.4793	0.2201	-3.6990	-1.7898	-3.6681
5616.1668	-4.2297	-5.2679	-4.7438	-0.1969	-1.1508	3.2546	-21.3650	-3.2677	18.2802	3.2470	0.3123	-0.2591	0.6906	-1.9250	-2.6820	-2.5083
5624.1670	2.7963	-1.5078	-2.9897	2.3855	-1.2205	-3.4690	-8.7423	-26.0774	7.3862	-1.1930	0.0570	-3.2923	-3.0275	-3.8462	-4.7407	-2.1703
5632.1672	2.6146	-0.7402	-6.5710	3.5137	0.9556	-8.8079	-11.0169	-52.4281	9.1372	0.7357	3.7180	-5.0527	-4.5034	-7.7403	-4.6779	-3.8979
5640.1675	-6.0743	-10.1427	-8.5472	2.2115	3.0292	-0.2535	-17.0692	1.2849	9.9740	2.1367	3.1915	-4.0178	-0.3756	-4.1870	-4.2783	-0.5125
5648.1677	-11.7423	-9.7335	-4.8944	2.1971	7.7501	0.0011	11.4930	68.9872	6.8273	-3.4842	2.8488	-8.8778	2.3545	7.0734	1.2141	9.7594
5656.1679	-16.1800	-14.6522	-5.6592	-4.0397	7.5355	-17.7490	15.3447	38.8272	14.7946	-10.4483	2.0316	-15.0638	0.8395	2.8464	9.7174	7.7339
5664.1682	-9.1144	-15.8120	-4.6513	-2.6055	3.7019	-4.2633	7.1641	28.3754	7.8789	-11.2733	-4.3880	-10.4232	0.5717	-0.1833	9.6455	5.8583
5672.1684	-0.8799	-9.8308	-3.8588	4.0519	5.1950	5.5211	11.2405	28.8369	0.4464	-7.9969	-10.2414	-5.3564	-1.0207	3.0366	4.7341	7.8570
5680.1687	-0.3846	-11.9669	-4.7840	-1.1272	4.3974	-9.7753	-0.5289	-21.9057	11.3122	-3.6908	-7.9743	0.3333	-2.0237	-7.3806	3.7152	-0.9544
5688.1689	8.8857	-5.3773	-0.8651	0.3013	0.8752	5.0953	2.3131	0.8918	10.3956	-2.0150	-4.5546	4.6737	-0.0080	-4.4337	2.4201	-0.7664
5696.1691	10.0391	-3.9921	-3.0103	3.3934	3.6086	3.7971	6.9939	3.5380	8.1972	-3.7099	-5.1753	1.7342	-1.5521	-0.8365	1.7405	1.6451
5704.1694	0.8468	-8.4950	-7.9255	0.4114	10.1305	-12.9591	2.6637	-24.1517	20.2167	-1.9969	-2.9965	4.4167	-1.2460	-9.0518	4.5987	-0.9740
5712.1696	2.1457	0.5117	-7.9197	7.3719	11.8624	0.4409	5.6785	11.8244	21.5268	-1.3247	-2.5142	4.3881	-0.3467	0.4090	0.6136	5.1183
5720.1698	2.4553	0.4945	-8.6001	8.6381	8.5751	-2.3708	-2.4376	-26.6866	15.1401	-1.1251	-1.6186	0.8193	-3.5250	-0.5767	-7.0800	0.4579
5728.1701	-1.5367	-5.8375	-8.2121	2.8061	9.1155	-7.5757	1.0566	-51.6007	20.7363	2.5442	4.7735	3.2536	-1.3974	-10.4815	-3.7729	-4.9599
5736.1703	1.1808	-7.2908	-11.0984	6.4287	12.4055	1.6097	8.4216	18.0540	27.5136	-0.1360	3.9510	-2.0013	0.1729	-2.3086	2.1099	4.9471
5744.1706	8.4585	-10.3008	-14.6425	10.4404	11.7802	0.0796	0.3458	30.1576	23.3871	-3.7917	-0.2048	-6.2732	-3.3764	-0.7227	-1.4030	7.3196
5752.1708	10.1691	-10.1558	-12.9404	9.7072	10.3904	2.1394	1.4145	11.7320	18.9729	-4.4135	2.1126	-3.5704	-3.3862	-1.2424	-5.9529	2.9292
5760.1710	7.7798	-8.6104	-14.5051	7.9689	13.9181	1.3284	5.2535	11.1567	21.0734	-3.4822	7.9646	-1.2490	-1.4132	1.6172	-3.9292	1.0743
5768.1713	10.3627	-0.7069	-14.6108	11.3163	19.1718	-0.8443	12.7740	12.0155	22.1977	5.9396	9.8749	5.0695	-1.0137	-0.9255	-3.7001	3.2831
5776.1715	10.1534	6.0159	-11.3074	14.4758	15.6754	-1.5290	10.8755	-6.9637	18.0309	8.2762	5.3987	3.5101	-3.5174	-1.2500	-8.5926	4.2791
5784.1717	10.0090	1.1724	-13.4422	9.8430	13.6471	-5.4327	3.9309	-27.4961	14.6482	3.2254	9.7266	1.0296	-3.5503	-3.8561	-5.1723	-0.7621
5792.1720	11.5592	-1.4654	-16.6316	11.5505	22.8677	3.5610	21.2621	14.1683	14.8440	6.7391	10.3800	5.6126	-0.1482	1.5582	1.8215	4.1045
5800.1722	5.6116	-4.9221	-17.5928	15.5445	21.7759	8.7947	16.5187	13.6188	11.4002	4.5071	-2.0381	-0.2343	-2.6875	9.2983	-2.2009	7.5428
5808.1725	4.8344	-9.5527	-17.5971	10.0711	13.6327	4.2723	-2.8738	-33.0668	9.6188	-1.8484	2.0428	-3.4487	-3.9762	1.2071	-3.9778	-1.3383
5816.1727	5.5359	-9.1995	-16.0101	5.5515	14.9258	-3.4831	3.3915	-11.8333	14.2193	-3.2908	7.7541	-0.8970	-1.5724	-1.8930	1.8381	-0.7799
5824.1729	3.7180	-4.6032	-13.3872	8.4061	13.8059	1.0012	6.8255	14.3292	14.3025	-5.2222	0.7092	-3.3724	-1.6811	2.6884	3.9341	6.1261
5832.1732	6.9189	5.8239	-11.4425	13.6125	13.6100	26.7027	11.8170	23.3297	15.5248	0.8916	1.8404	1.7406	1.5139	5.7229	5.9982	8.7701
5840.1734	3.4915	7.9276	-9.8064	10.7437	16.4197	16.5474	15.2276	34.4227	17.5097	5.8215	-0.6512	6.2356	2.3994	10.6569	6.9524	8.9427
5848.1736	3.7251	7.7009	-5.1697	7.2776	11.0968	1.8651	10.0336	32.8956	10.2987	3.4683	-4.8706	4.6698	-0.0812	11.4532	2.3691	7.4399
5856.1739	6.9121	11.8816	-2.1920	8.5450	5.8452	25.8953	10.2930	13.7809	8.7851	9.9784	1.0529	6.7983	2.4887	10.2695	0.5158	3.2515
5864.1741	2.7361	7.2030	0.1665	1.7884	1.6750	20.7876	5.0706	-0.0225	5.9283	11.6816	1.4780	6.4682	3.3593	9.8252	1.9086	-1.8720
5872.1744	8.4604	7.9782	5.0013	0.7206	-2.4807	7.3772	6.9708	34.1553	-8.7964	0.8413	-0.9251	3.4049	0.9533	8.9991	-0.2391	2.3124
5880.1746	11.9638	12.4500	2.3061	4.8981	-2.1871	9.3631	4.5892	-4.6715	-6.3709	-3.1738	3.6014	1.7589	-1.2352	3.5621	-3.4388	0.0628
5888.1748	13.2507	14.8337	1.8528	0.2673	-5.8838	4.6189	-6.9695	-64.1283	5.5351	-1.1663	9.7706	4.3110	-1.4599	-3.1810	-2.9618	-9.7995
5896.1751	20.8446	22.8113	9.0346	2.2830	-8.1427	14.8939	2.5875	12.7921	0.4713	-0.7544	8.9232	9.1076	1.4727	2.7841	-3.0166	-1.7695
5904.1753	10.5132	19.2073	6.2963	3.1564	-2.8794	6.5690	2.1396	14.8236	-0.8895	0.0161	3.2110	8.4094	0.9476	4.0919	-3.1195	1.2207
5912.1756	0.1173	14.4804	4.3185	-2.4148	-2.3657	-7.7563	-5.8870	-39.0885	4.9597	1.5947	1.9515	7.9527	0.3822	-4.6896	1.6034	-4.1614
5920.1758	2.4777	17.2740	11.1725	-0.9152	-6.2677	6.7549	5.2418	24.5429	-1.6656	3.2740	0.3508	7.1534	3.1849	0.0723	2.4859	3.5134
5928.1760	-1.8162	16.4981	11.4803	-0.1706	-6.4621	10.8767	9.8530	31.6236	-8.5803	3.2051	-1.3834	2.3958	2.9206	10.0346	0.1785	4.4846
5936.1763	-2.7522	22.2357	9.0497	0.5568	-5.3122	9.9532	8.0695	-17.4134	-7.2700	3.0664	0.3870	2.0085	1.6378	9.3098	2.4346	0.7810
5944.1765	-1.6632	16.4673	9.6529	-0.8198	-7.3489	0.4791	2.2526	-15.6549	-9.6890	2.8542	-0.8678	1.3456	0.1433	1.0982	-0.0454	0.5227
5952.1767	-7.3841	-3.6299	8.4550	-5.8450	-9.0310	-9.6008	-1.3720	-5.4865	-14.7677	-4.4565	-6.0131	-4.9856	-1.2731	0.0158	-3.6272	-1.4083
5960.1770	-10.7529	-15.0663	5.7414	-5.4660	-7.4274	-3.1937	4.7969	9.9617	-19.2297	-17.6988	-12.4766	-11.4759	-1.5507	4.3653	-0.3159	1.7307
5968.1772	-9.5805	-23.7221	5.2119	-6.0646	-8.4363	-11.2372	5.0094	10.4909	-28.0588	-26.0867	-16.9000	-15.9759	-4.1297	-0.7973	-0.5722	2.9616
5976.1775	-9.5075	-24.5242	6.5063	-3.8843	-10.5185	-1.0169	6.8026	-3.0099	-32.9734	-23.6957	-20.3990	-16.9124	-4.5847	-1.2055	-2.3213	2.7367
5984.1777	-13.5857	-23.2534	5.1686	-5.2390	-9.8372	8.1893	2.0921	-21.2069	-25.2893	-15.5163	-19.0750	-13.0962	-2.0736	0.5400	0.2749	-0.8676
5992.1779	-10.1789	-22.1985	7.0842	-12.9283	-10.6089	-9.9251	-2.7236	-8.8847	-20.3141	-10.7563	-12.4406	-7.3897	-0.7104	-1.1118	2.0567	-5.2467
6000.1782	-3.3168	-10.8250	9.9776	-8.1948	-11.9186	2.1619	0.7424	19.0248	-22.4300	-8.1376	-12.7417	-4.9275	0.1690	2.6089	2.9279	-0.0469
6008.1784	-4.9549	-13.9825	4.3175	-9.6853	-12.1256	-3.5999	-17.5747	-39.9977	-15.5230	-3.0201	-5.1228	-3.9218	-0.8784	-9.9293	0.8966	-8.5370
6016.1786	0.5841	-15.3898	5.5850	-14.1475	-12.2536	-17.8118	-13.6594	-30.7270	-9.1475	-1.8332	6.5320	-2.3128	-0.4674	-13.0821	-3.1078	-12.8283
6024.1789	4.8166	-2.5066	12.8434	-5.4237	-11.7028	4.3931	13.5929	61.9208	-12.2049	-5.7902	0.1254	-5.3326	1.5974	6.4270	-3.0140	2.8176
6032.1791	-2.5207	-8.9519	8.3981	-9.1582	-10.9879	-7.0346	0.0043	5.8577	-8.3296	-5.6692	1.1469	-5.7420	0.2588	-1.4749	-3.0930	-4.4786
6040.1794	2.3479	-6.1534	6.3176	-8.7519	-8.9913	-6.1845	-3.6783	-28.4692	-2.6739	0.6193	5.8901	1.2611	0.4505	-7.6259	-4.3072	-10.0731
6048.1796	7.7058	8.0089	10.4209	2.0571	-7.7480	16.7682	9.9966	45.3343	-6.6456	3.9853	-3.1411	1.9093	1.6403	5.6624	-3.5289	4.6965
6056.1798	-2.7965	-2.8307	8.0653	-5.1342	-11.6971	-5.8498	-13.0805	21.6484	-10.9880	-2.3686	-1.6740	-3.5167	-0.2923	-2.3002	-6.3146	-0.8153
6064.1801	-4.3347	-5.2398	6.8761	-8.4657	-14.8026	-8.7413	-26.5628	-16.5728	-10.7650	-6.2102	4.2739	-2.2715	-0.2266	-10.9195	-8.1603	-8.0372
6072.1803	2.9636	4.4951	7.3701	-2.5791	-10.0452	-1.8194	-11.3778	6.6048	-6.9691	-1.5449	2.5269	1.0446	0.2891	-10.8332	-2.2563	-0.3932
6080.1805	0.9862	1.7835	5.8174	-6.1104	-6.8895	-21.4817	-8.0417	-7.9381	-1.1264	-2.0344	2.4674	-0.0551	-1.1949	-15.0585	1.7845	-1.1618
6088.1808	1.5769	5.0513	6.7162	-9.2393	-7.7647	-14.0106	-7.6780	-27.5450	5.3730	-1.1911	7.2288	4.5001	1.3778	-12.6952	4.1551	-6.7186
6096.1810	6.4991	8.5552	3.3398	-5.7380	1.2493	-0.3084	8.5690	10.5332	10.6641	5.3712	12.0250	10.6480	5.2428	-6.6226	10.3116	-2.4816
6104.1813	0.2444	2.9461	0.0144	-1.4744	6.0053	-2.4424	14.3378	38.1318	11.4210	1.3836	3.8639	3.8723	3.6070	-1.1955	10.2803	5.3799
6112.1815	-4.8534	3.8778	5.1855	-4.1986	-4.8173	-5.8509	-0.4685	11.4866	8.0847	-4.3443	-0.5463	-2.4508	1.2986	-1.7815	5.0040	2.3178
6120.1817	-0.8212	5.3291	4.6191	-5.7280	-3.5020	-9.9575	0.8367	22.7382	-0.2282	-2.1708	7.3154	-0.2428	2.1089	-1.8093	4.7539	0.6517
6128.1820	-2.0426	5.5219	1.7457	-1.2156	2.6375	-2.4230	11.6520	49.8227	-5.2516	-2.0399	5.5099	-1.2752	2.6942	6.9570	5.4231	5.8414
6136.1822	-0.2219	15.2746	7.8804	-2.1135	-6.4551	5.7481	5.6323	12.3021	1.2671	-1.1614	6.0115	-1.0572	2.4629	6.8167	2.5201	1.0734
6144.1824	5.8549	15.7157	8.4480	-4.3150	-8.0731	-1.7356	0.9448	2.4970	3.8641	0.0008	9.5829	2.0569	1.7915	1.6820	1.0681	-2.6329
6152.1827	0.6517	0.6913	5.1897	-6.8709	-4.1027	-15.4662	0.4530	17.4146	-5.9078	-3.0785	2.0962	-0.0131	0.2913	0.3887	1.5941	-1.1535
6160.1829	0.0170	1.3816	5.7440	-5.7514	-6.6253	-10.6080	-3.8227	-18.2313	-11.4477	1.4120	1.0412	0.1306	-0.8674	-2.2365	-1.9562	-4.8241
6168.1832	5.0929	8.4710	1.8935	0.3544	-3.3533	6.2513	-9.1681	-30.3608	-3.4098	13.1808	6.4151	7.0566	0.5663	-2.3379	-5.7213	-6.7814
6176.1834	-2.2322	0.2196	2.4414	-2.4882	-2.5605	7.4651	-9.9979	4.1272	-1.1844	13.4924	3.8144	7.7953	3.1947	-0.0838	-5.4063	-4.9425
6184.1836	-4.7810	3.2369	6.8977	-1.0421	-5.2319	11.7979	0.8755	17.1412	-9.3940	7.5568	-1.6864	2.1533	2.4532	7.3019	-5.2397	-0.3647
6192.1839	-2.0968	12.2556	4.3388	0.7269	-2.0245	8.7318	1.2273	-4.6213	-1.8721	12.7015	-1.3104	3.8331	1.5372	9.4588	-0.7592	-0.4723
6200.1841	-6.8651	7.1890	4.0163	-6.0686	-5.1787	-6.2407	-13.1806	-30.9575	8.3995	13.7452	0.2997	3.9460	1.4287	0.3104	1.3352	-5.8404
6208.1843	-2.0270	12.1768	4.5972	1.8858	-10.1728	10.1548	-18.1112	-54.3110	4.9156	4.9969	1.5405	-0.1717	-1.0283	-2.9348	-8.1512	-5.7232
6216.1846	4.5146	18.0640	3.3913	4.3746	-8.1641	17.5144	-18.3630	-62.5685	9.3313	7.7889	9.2002	6.5090	0.3819	-7.1845	-9.7899	-8.0901
6224.1848	0.0360	7.6108	6.1170	-6.7318	-8.5940	-5.4286	-18.9436	-28.6037	12.1107	10.6169	7.3839	8.3849	2.2138	-9.4427	-3.2148	-8.7757
6232.1851	0.4675	6.8483	6.0549	-2.8900	-10.0913	-7.9486	-19.0521	-6.1322	6.2844	1.6579	-1.0242	0.2540	-1.2427	-1.7257	-6.3870	-2.8099
6240.1853	3.0175	12.7213	5.8793	-0.1259	-11.1275	0.6505	-21.7031	-24.2089	9.4596	2.5129	6.5028	2.1082	-0.6747	-4.1347	-11.1732	-5.6754
6248.1855	-0.4151	6.1886	6.9681	-5.3727	-12.1099	-1.8231	-22.0364	-21.3155	13.2591	9.7717	11.2387	3.6674	1.6688	-7.6429	-10.8090	-9.3415
6256.1858	-2.3827	1.1118	4.3085	-4.2787	-9.0304	-7.8230	-17.9779	-4.7785	10.3278	6.0010	5.4295	-1.3843	0.0134	-4.8799	-7.7067	-4.6099
6264.1860	3.1906	8.3657	4.9718	-1.3079	-7.0806	-1.8110	-9.6552	-9.6065	9.4613	4.1230	3.9307	1.9795	0.2690	-8.2412	-1.4218	-1.5440
6272.1862	9.6207	13.5453	3.4725	0.4799	-4.1811	9.3208	-9.4317	-10.6833	17.4255	11.5925	5.1756	10.3992	2.4188	-8.5054	2.2028	-2.5332
6280.1865	4.0562	8.1316	-0.1288	0.9022	-0.1765	8.0169	-13.1379	17.3454	17.9874	11.4225	6.3190	10.0602	3.5471	-3.8041	-0.7909	-0.9922
6288.1867	-3.2466	8.7615	3.5810	2.3433	-2.4908	10.7142	-4.0656	30.9435	7.6382	5.7813	4.8644	2.5214	3.1441	2.0501	-4.3270	3.0118
6296.1870	-2.1446	13.7103	1.4313	0.9597	-0.3736	6.0548	-0.9305	-6.3828	16.7701	9.6615	7.0076	2.4656	2.3081	6.0429	-0.6176	-1.1208
6304.1872	0.4882	8.0887	-1.9885	-1.7323	3.7377	0.7373	-0.9807	-13.5584	18.0164	10.5365	6.9911	6.9712	2.6980	3.9175	3.1439	-4.1785
6312.1874	4.1231	4.9889	3.5193	3.0418	-0.8412	15.3455	8.9716	18.5479	-6.0909	1.4583	-2.8368	3.0319	1.4628	4.0674	0.6877	3.1218
6320.1877	1.7346	2.4241	-0.2837	4.3624	0.3004	7.4938	5.0332	-2.6940	-7.9107	-1.3023	-4.1599	-2.9071	-1.4446	2.4052	0.4940	3.2809
6328.1879	-4.3979	-5.6111	-5.0401	2.0664	2.7993	-2.7797	-4.4342	-38.0262	-4.4553	0.4038	-5.4813	-3.3053	-2.8529	-1.4624	-0.8134	-1.6080
6336.1881	-2.2737	-2.9646	1.9956	1.4557	-1.2027	3.9624	3.1300	-13.6753	-11.4178	-2.1459	-11.4876	-0.8665	-1.8892	3.8477	-1.9902	0.6360
6344.1884	-4.1903	-3.6035	-0.4305	-2.0838	4.6078	-9.1134	11.2155	24.7488	-1.6347	-1.2279	-8.3942	-1.9394	-0.2157	9.2157	6.3659	4.5143
6352.1886	-10.3734	-13.1386	-7.9777	-1.1111	9.8307	-12.7512	6.1579	18.8542	-1.4833	1.8959	-11.1087	-6.4105	-1.2580	7.9576	9.4797	5.7809
6360.1889	-4.4408	-8.5017	-3.1475	2.1455	2.7125	-2.4373	0.1407	11.6893	-14.5545	-0.9233	-13.7066	-5.3773	-2.7317	5.7611	2.1062	5.1042
6368.1891	1.9366	-1.5055	1.3830	2.5860	-1.0025	5.3200	1.1422	27.7422	-10.5080	0.1541	-8.2657	-1.1009	-0.9004	5.0264	-1.0104	4.5940
6376.1893	-1.6936	-2.7737	0.6855	0.5809	-0.4326	9.9709	-0.1609	18.4369	-4.2996	6.2976	-6.6657	0.8388	1.0307	6.7378	0.3903	1.7030
6384.1896	-0.4937	1.5251	1.7773	-3.3062	-0.1115	-6.0116	1.6746	20.9489	-7.6163	4.1018	-0.6115	0.8006	0.6925	7.4509	2.0416	0.3417
6392.1898	2.7064	4.7369	-0.8864	0.2643	2.7482	-6.8590	4.1109	20.8497	-3.7217	0.7350	4.3573	-0.1569	0.0421	2.8999	2.1822	2.5216
6400.1900	-3.8070	0.6590	-5.5094	3.5016	3.8598	3.3951	-8.1977	-23.3694	4.4206	-0.7471	0.8634	0.8256	-0.3535	-1.9640	-1.2224	-0.9526
6408.1903	-7.4789	-0.2798	-3.4606	2.0689	2.8111	-1.0349	-9.3507	-13.4147	0.8554	-1.9055	-3.7196	0.5767	-0.5906	1.6943	-2.5687	-0.0079
6416.1905	-7.7696	-1.3018	-1.4919	2.9129	3.9625	5.4540	6.1133	1.5599	-4.4816	4.7720	-7.2076	-1.7289	0.0374	6.1073	1.2613	3.7259
6424.1908	-11.9605	-8.5308	-4.3305	-0.9602	6.1444	-0.4192	9.4540	-31.6508	-7.7992	1.3998	-6.5166	-3.9458	-0.3155	3.4573	6.0648	-0.4097
6432.1910	-11.4561	-12.4713	-4.3511	-1.7730	6.5973	-6.6940	9.0588	0.9825	-15.9185	-7.4527	-11.7396	-5.6109	-0.9517	4.7481	8.9370	4.0537
6440.1912	-11.0071	-12.8263	-3.3576	2.7798	7.4996	6.4547	12.0922	36.5995	-18.1136	-1.7785	-18.3920	-3.9700	0.0319	8.8674	7.3395	9.8137
6448.1915	-13.1483	-14.1818	-4.4160	1.3664	7.5756	5.3793	10.2856	4.3383	-19.7072	-0.5922	-14.2432	-3.4180	-0.1197	7.1578	4.5862	4.3822
6456.1917	-9.5737	-7.9162	-1.3316	-1.0947	2.6702	7.2016	5.3202	-29.2336	-16.5537	5.6302	-11.6901	-0.2965	0.2554	0.9924	7.4128	-0.1629
6464.1919	-2.4384	-0.4813	1.0518	-3.2516	0.5445	4.0433	2.6483	-42.4957	0.3577	15.8424	-5.5571	5.9111	1.2349	-3.7323	7.6242	-4.2950
6472.1922	4.0466	-1.1725	-3.1422	-3.3418	3.7748	-5.7226	4.0018	-24.2498	8.8262	2.6308	6.4967	3.5861	0.6275	-1.2032	3.5275	-5.8039
6480.1924	6.3604	3.2988	-4.7685	-0.2104	3.7202	5.1433	-1.7432	-11.2794	10.5406	1.5093	10.0924	4.8534	2.1031	-3.0876	5.0385	-3.6089
6488.1927	7.8237	9.8403	-2.8754	2.6084	3.2392	1.7727	-6.6832	-27.2728	8.0930	12.0578	7.3536	9.8294	0.8248	-10.3815	2.1324	-2.9594
6496.1929	7.6160	2.9445	-5.3724	4.5705	5.7958	-7.5531	-1.1433	-31.9577	3.2553	-1.0333	5.1448	4.1338	-2.5427	-9.9945	-2.8145	-1.9672
6504.1931	1.7008	-8.2396	-7.5375	-0.8159	6.7837	-6.4760	1.6800	-17.0846	11.4828	-9.7845	7.4817	0.4488	0.1688	-9.1566	3.6620	-2.7725
6512.1934	-1.8225	-14.2182	-6.6230	-2.7677	7.5744	-13.1025	5.6501	14.0277	3.2865	-12.1051	0.9586	-2.2606	-0.1127	-4.5327	5.7739	1.1799
6520.1936	-6.9152	-18.1541	-8.4624	2.4340	10.5271	-10.2622	9.8794	26.5292	-14.0791	-19.0622	-11.2856	-7.5490	-2.8244	4.2640	3.2393	7.2179
6528.1938	-11.7692	-16.5017	-7.2723	-1.0885	10.5895	-7.4595	11.4269	25.6964	-4.2880	-14.4969	-6.4590	-5.1639	0.4969	3.8973	7.3142	5.4335
6536.1941	-8.9963	-12.7270	-3.1257	-4.0398	7.0915	-13.1341	13.9770	29.9577	4.4540	-11.5518	-3.1789	-4.9149	0.9415	2.3286	7.7644	4.5697
6544.1943	-8.7800	-13.6521	-7.1850	-4.0789	7.3435	-19.0624	4.6508	-5.1678	6.0284	-12.3872	-1.4152	-6.9352	-1.1714	-1.1370	7.3526	0.7925
6552.1946	-5.6164	-8.3115	-9.6682	-4.4837	7.7570	-19.0362	-2.4128	-23.8131	14.0701	-9.7743	10.1117	-4.1273	-0.1482	-4.5072	6.0361	-4.0632
6560.1948	-1.4647	1.2253	-4.9108	2.7403	4.4013	-2.1407	0.7379	-3.1479	18.7698	-9.7552	7.1162	-2.8743	-0.1693	1.4283	-2.8614	0.1203
6568.1950	-7.9462	0.7774	-7.4990	3.9373	6.3659	-5.4035	-7.7802	-26.2340	23.6279	-2.6402	7.4911	-1.5409	-0.5240	-2.6725	-6.3738	-1.6692
6576.1953	-8.1136	-2.2797	-12.1495	-0.2649	9.3284	-17.6835	-14.9965	-52.3839	25.2859	7.2476	22.3152	1.3314	0.5755	-14.9853	-5.1599	-8.4422
6584.1955	1.3337	-2.1191	-9.3068	4.0187	7.8840	-0.1320	-5.8883	-14.8173	20.7465	7.2764	21.3795	3.3613	1.6357	-12.3165	-8.3824	-4.8533
6592.1957	3.2196	-1.7606	-8.5648	7.6841	9.9525	-1.3613	2.3895	20.7717	12.1221	1.8305	10.6707	0.6089	-0.4769	-1.7694	-8.9382	2.3225
6600.1960	-1.1092	-1.3634	-9.2315	3.9676	8.6381	-19.4438	-4.0693	-15.2222	5.0150	-0.7391	5.7587	-3.5977	-3.6799	-2.5716	-4.6660	0.3117
6608.1962	1.0210	-4.9070	-5.0248	-0.8915	1.7828	-7.9187	-8.4210	-29.8178	8.7720	2.1384	8.9477	0.1174	-0.7389	-11.2416	-2.2716	-5.2097
6616.1965	3.4136	-11.0171	-4.6920	1.6454	2.0211	1.5111	-0.6825	11.5194	6.9336	-0.9262	8.6226	-2.7501	0.0973	-9.5912	-4.3372	-0.6322
6624.1967	-2.9504	-14.1530	-9.2691	3.8325	5.1439	-12.7269	-2.5646	-22.1019	2.2357	-3.8752	-0.9796	-10.7840	-5.0188	-6.7252	-4.1536	0.9782
6632.1969	-1.4395	-9.9810	-10.6301	0.7489	9.2921	-12.3505	3.9993	-43.8566	11.8188	4.0878	4.8030	-4.2208	-2.3954	-8.0096	3.6051	-3.0465
6640.1972	7.4484	-1.3574	-14.2573	7.3453	19.1034	7.6550	24.9863	17.7416	19.8941	5.1550	12.1382	0.5551	2.0285	1.3437	11.1577	5.1985
6648.1974	11.1793	2.2021	-17.1272	14.2227	21.3090	14.4173	22.9522	7.2767	16.4069	1.9462	3.1586	0.4574	-0.7550	3.9665	10.4938	8.6676
6656.1976	9.7531	-0.4643	-12.7944	9.6012	16.7577	10.9316	17.0516	-15.5319	7.9334	2.2624	2.7945	5.2485	-0.3126	-2.3700	7.1854	2.7956
6664.1979	-1.9763	-7.9358	-16.2478	7.0745	19.6214	4.1100	13.7150	-8.7349	7.0326	-3.4091	3.9169	0.7011	0.5162	-0.6420	8.2783	3.3388
6672.1981	-4.0146	-8.9701	-20.3912	8.8938	19.2600	3.7342	-0.2999	-58.9772	8.4334	-0.9786	-2.2836	-0.1877	-2.4596	-1.6635	6.3947	-0.6891
6680.1984	6.4962	0.2524	-10.2659	8.4355	11.2675	21.2395	2.1109	-37.6004	-2.4982	6.2161	-1.8608	9.4398	0.1986	1.7737	1.2845	-2.8416
6688.1986	4.0562	2.9305	-4.2151	6.5030	8.8935	21.6689	8.4218	48.9866	-5.7390	0.9949	-0.7251	7.9092	3.4383	12.7566	0.6378	4.8722
6696.1988	4.9434	4.6860	-5.3413	9.3507	10.3237	14.3048	9.6636	50.5236	0.6961	1.3869	-0.8433	4.8916	1.1757	14.0631	-3.7859	6.7856
6704.1991	10.2682	6.0726	-2.5213	10.8998	7.8239	14.6220	14.4177	27.8530	0.6014	3.1857	-0.5594	5.4038	-0.6653	9.9605	-9.2590	4.4241
6712.1993	9.4338	1.1379	1.3815	3.1818	-0.0277	1.0943	5.1478	18.9302	-1.4591	-7.3030	0.3310	1.7795	-1.5174	4.4226	-8.4279	0.3162
6720.1995	16.6428	5.9654	4.0257	1.0719	-4.0434	7.2480	-0.5980	3.8426	-7.1570	-5.3588	4.2254	8.2395	-0.3643	2.1837	-8.6724	-5.1082
6728.1998	18.9727	7.5425	2.7560	3.1353	-0.0933	17.3978	0.3941	14.4944	-9.6918	3.3893	2.3645	16.3158	1.6993	4.0984	-7.4317	-4.6807
6736.2000	14.9318	1.3754	3.8066	-0.1920	-3.7631	3.6885	-6.4778	13.1642	-10.4381	-2.7417	-1.3491	10.6343	-0.3953	0.4847	-8.0898	-4.4540
6744.2003	13.6605	2.5281	6.6866	-0.6591	-8.5906	5.1110	-4.8245	-0.0072	-14.1019	-3.6718	0.8680	5.0938	-1.1697	-1.6480	-9.2128	-4.9766
6752.2005	9.5028	0.3133	2.8680	0.1903	-5.3970	10.0685	-6.6659	11.1594	-10.0423	2.8660	0.7659	3.9097	0.3595	-1.4501	-3.7341	-2.2659
6760.2007	11.2444	4.2162	4.6556	3.2137	-9.4903	11.5237	-14.0436	-8.9590	-14.4522	3.1392	-2.8790	2.8461	-2.1937	-2.9278	-9.7453	-2.9176
6768.2010	7.1289	8.0135	9.2585	3.4138	-10.9899	10.4037	-6.7084	-22.7094	-17.8205	6.7898	-4.2783	3.0501	-2.5068	-1.6822	-13.9828	-3.3740
6776.2012	-3.5883	-2.5640	6.7146	-2.6483	-5.1424	-1.7347	2.8411	41.8381	-8.0538	5.8992	-4.9062	-2.4549	0.8078	3.5943	-1.8820	3.9600
6784.2014	-0.9722	2.3461	7.4835	1.0224	-7.6080	2.7917	3.9660	55.0922	-15.2730	-1.2018	-9.0421	-8.6935	-1.2496	11.1857	-2.0955	8.4822
6792.2017	-1.0271	10.5766	7.7747	2.1820	-9.3019	8.6053	-3.9787	-18.3795	-15.5696	7.0998	-9.5802	-2.7712	-2.1464	6.2260	-3.6720	1.0387
6800.2019	-1.8050	4.7034	5.8330	-2.8911	-8.1995	9.1006	-10.4155	-9.3102	-2.6531	14.7893	-4.4151	2.5166	1.4727	0.6665	1.3627	-2.2955
6808.2022	4.7565	7.6856	7.8491	2.5576	-9.1247	11.0414	-3.5671	48.9283	-12.8078	7.0492	-5.4370	-2.6294	-0.4386	12.0423	-6.9956	4.8035
6816.2024	1.9069	8.4166	8.0583	1.5732	-7.3205	3.3303	1.1705	25.0406	-13.0795	6.5086	-3.3506	-2.0849	-0.9523	7.6808	-6.9093	3.0850
6824.2026	0.7657	2.5466	8.2530	-5.5207	-7.9586	7.4155	2.3470	8.5915	0.7184	10.0415	5.3699	2.6737	3.6619	-4.7996	2.2590	-2.4805
6832.2029	1.4348	1.7888	8.8872	-5.9916	-8.5212	3.6222	3.7022	37.6794	-5.2170	5.0567	2.6397	-0.6607	2.9055	3.4002	1.7803	0.3201
6840.2031	-8.2779	-4.3151	5.7947	-10.2750	-7.1212	-6.4283	-5.1408	10.0899	-9.7608	4.7830	-3.2483	-2.1883	2.1386	3.9554	6.3976	-2.4507
6848.2033	-11.6606	-13.0453	3.6890	-12.6768	-8.2263	-2.2747	-10.7883	-17.6708	-9.7435	3.9759	-6.8493	-3.0368	2.3516	-2.3196	10.7894	-5.5720
6856.2036	-8.5153	-14.6411	5.9811	-8.8477	-10.4821	-10.5834	-6.6990	17.7021	-16.0607	-7.0348	-14.3763	-11.0172	-1.7640	2.3125	4.3714	1.5601
6864.2038	-9.8202	-12.8775	8.9870	-7.5889	-14.3273	-4.1775	-6.8180	24.9039	-13.2935	-11.8253	-12.1852	-13.4055	-1.2067	1.3433	0.2649	2.5836
6872.2041	-13.5028	-17.7562	6.5216	-9.5905	-13.1241	0.9669	-7.5389	6.0322	-6.4388	-12.5662	-8.0865	-13.0322	0.6053	-1.5623	2.3495	-1.1848
6880.2043	-14.1957	-22.7854	2.8437	-8.5315	-9.4853	-18.0412	-6.1003	11.8624	-7.8763	-20.4837	-15.9406	-19.7883	-3.8792	1.5758	2.8163	2.9232
6888.2045	-5.6852	-16.0899	3.3398	-3.0876	-11.0019	-14.9282	-7.4570	7.8666	-9.8508	-19.9498	-17.7765	-19.9315	-6.5561	1.4166	-1.5584	4.7124
6896.2048	1.6170	-11.6184	5.3026	-6.7764	-12.4497	-14.2973	-9.9791	-3.3156	-5.3842	-11.4852	-8.1483	-11.0624	-4.2481	-2.0329	-2.7157	-2.3533
6904.2050	3.1367	-7.4625	7.3209	-12.2933	-14.5487	-9.7159	-13.7169	-8.8178	-2.5231	-9.5206	1.9365	-4.1106	-0.2440	-2.0992	-0.4832	-8.9403
6912.2052	4.7111	-0.4243	3.8882	-6.7188	-10.1275	7.9248	-12.7446	-9.7461	-1.5955	-6.0756	7.2984	0.6025	2.0066	0.4227	-0.8744	-8.4413
6920.2055	-0.6771	-5.9340	1.6646	-5.6969	-3.4623	-2.3325	-5.1702	9.9740	4.9836	-2.1495	3.5383	0.7618	1.8370	-1.3837	-0.2313	-3.7518
6928.2057	-6.3861	-7.9695	6.2574	-7.6799	-6.8951	-5.5227	-0.5092	15.8247	5.5333	-5.0504	-0.5308	-2.9217	1.9045	-3.8833	0.8115	-1.1422
6936.2060	-12.1374	-9.0392	2.0550	-7.8951	-3.4305	-9.4030	-0.1176	-15.4991	-1.4919	-6.9397	2.2301	-5.9490	1.3060	-6.6947	4.9074	-2.5446
6944.2062	-22.3153	-20.2440	-2.7044	-10.1994	0.9055	-16.4830	1.1323	-25.0835	-5.0304	-8.8606	-0.7886	-11.0324	1.0655	-9.0145	10.4205	-1.7726
6952.2064	-18.0367	-14.6992	1.1182	-2.1984	-1.9401	8.0793	11.8796	22.7932	-10.0665	-13.1324	-8.4455	-15.4775	1.2429	3.1860	8.0025	7.4971
6960.2067	-14.1903	-8.1116	-0.5873	3.8414	0.9530	11.1513	17.3257	47.0176	-10.8858	-14.7004	-9.4160	-18.4624	-0.3216	13.3384	5.0527	12.7395
6968.2069	-24.0200	-16.1081	-1.1456	-3.6768	-3.1800	-4.9133	1.0135	8.7223	-3.1097	-14.4489	-9.4547	-21.6702	-1.2323	7.9428	4.0664	5.6462
6976.2071	-20.6991	-12.6379	0.8867	-4.7434	-4.9404	-7.4141	-0.2410	1.8294	-2.2737	-13.4133	-8.9565	-19.0431	-1.4910	7.5548	3.0980	3.7267
6984.2074	-12.6660	-8.8221	-2.1244	0.5255	1.9110	-1.6132	11.4096	9.2970	-5.1423	-11.3146	-6.9713	-14.3609	-1.4072	6.8491	4.8941	6.5044
6992.2076	-8.7276	-9.2809	0.4903	0.7536	-3.8601	14.5156	0.1866	-13.5605	1.9392	-3.6716	-10.6667	-7.9488	-0.2458	0.7648	2.4216	1.9161
7000.2079	3.4512	-0.4267	6.9950	-3.3701	-7.9073	1.7868	-5.8150	-1.6632	8.4762	4.9947	-8.2484	3.9090	0.0611	-2.1713	-1.5026	-2.1216
7008.2081	6.6779	2.9296	8.5481	-8.4786	-7.3556	-16.1545	-5.2816	-12.6200	6.8065	-0.1276	3.7413	8.8892	0.6789	-11.1154	-1.9273	-6.9963
7016.2083	0.3298	-1.0160	5.9070	-9.0340	-8.2116	-2.2551	-11.4564	-46.3530	8.9526	-7.1290	7.3855	8.3355	2.8225	-17.2665	0.7002	-10.9573
7024.2086	-0.6002	-3.4939	5.3384	-5.8005	-4.2714	2.0496	-0.8999	1.5310	3.8156	-7.4022	0.1916	6.1018	3.2494	-11.5236	4.7854	-2.0901
7032.2088	-1.8257	-0.5119	9.7298	-1.9842	-7.7125	-1.2388	5.0203	18.7626	-11.7954	-11.0852	-11.4108	-1.6989	-0.5239	-5.1697	2.1701	5.4154
7040.2090	-3.2375	5.2349	5.8395	-0.9934	-5.1906	-2.5784	-1.6885	-31.8653	-3.6038	-5.8917	-15.4001	0.2977	-2.1635	-1.2737	4.6426	1.3969
7048.2093	-4.1144	2.5705	0.6964	-3.3350	2.0232	-0.5741	0.5058	-8.6792	5.4042	-0.0108	-8.8499	5.4897	1.7820	1.4940	11.3991	0.8304
7056.2095	-3.7361	6.6406	8.1465	-2.3285	-6.1284	1.6751	1.7143	30.3774	-10.4711	-8.5415	-6.6763	-0.7448	1.3418	3.9379	4.2674	5.3025
7064.2098	0.1541	17.3023	8.9470	-2.3783	-6.5857	-10.2492	1.2444	-11.7489	0.6454	-2.8532	0.3257	0.9194	-0.4407	-2.0680	2.9028	1.3976
7072.2100	0.0246	12.1179	3.3945	-5.8139	-0.9613	-2.4494	1.4853	-22.7456	20.9370	8.4152	10.8978	7.8246	4.4023	-8.5183	10.1879	-4.0137
7080.2102	0.7342	9.7361	5.5374	-4.5835	-1.8338	3.8374	3.0145	38.7857	4.7971	0.9164	6.0092	7.0264	5.3318	1.1483	8.0457	1.8803
7088.2105	5.9940	17.2875	5.7397	-3.2864	-0.3884	-10.9800	2.6840	25.7224	1.2988	1.8295	5.2372	9.0206	2.3483	-0.5311	6.9633	2.2392
7096.2107	6.1867	14.9251	5.8971	-3.7285	-4.7900	0.2259	-3.9174	-19.9687	12.8292	7.8308	10.6848	9.6767	3.1649	-10.7204	4.1391	-4.5329
7104.2109	4.9966	12.1585	9.6645	-0.9946	-6.8991	7.3812	1.6733	31.4257	5.0296	0.6538	5.6556	6.3864	3.2649	-1.2472	-3.3730	1.0255
7112.2112	5.4057	15.3122	8.2840	0.1571	-2.9104	-4.1904	4.1701	46.1361	5.5305	-2.2659	5.8147	6.7817	2.2385	-0.2365	-2.9797	4.2850
7120.2114	4.1978	14.3638	3.4114	-0.1405	-1.4635	-5.8365	-3.9225	4.4687	12.0661	-1.8726	8.1912	6.1984	1.4398	-5.9979	0.2500	0.3308
7128.2117	6.8024	14.6390	1.3688	1.2485	2.3829	-6.8933	1.9267	16.9354	8.6002	0.8858	5.6157	6.3890	0.7184	2.2141	0.9507	1.8429
7136.2119	9.2804	18.0052	3.2752	2.0484	-0.0777	2.6164	2.2362	18.7448	8.0084	8.9513	8.0541	7.4845	1.7477	4.5677	-0.9811	0.7111
7144.2121	6.0820	14.8116	2.6491	3.7755	-2.3282	11.2170	-1.5262	18.3210	3.5311	5.4019	6.1707	2.9661	1.4346	6.2520	-3.1093	1.4566
7152.2124	6.7104	13.7542	-0.2488	4.6014	1.5133	4.2513	2.3404	7.5781	6.6911	0.9880	4.5195	1.9978	-0.1391	6.4908	-1.4324	1.9136
7160.2126	10.4284	19.6416	2.6805	0.6023	-2.4487	0.1414	-2.5875	-28.7810	21.6271	6.6868	12.1349	7.0466	0.8560	-2.7559	-0.8202	-4.8500
7168.2128	9.3136	15.7052	6.2979	-3.0244	-3.7961	-1.1654	-0.3031	26.6773	16.7645	7.1920	13.1608	8.7053	3.6859	-0.6792	-0.2107	-1.8019
7176.2131	6.7169	8.4320	6.6617	-4.0718	-2.2441	-2.3969	2.2431	52.8742	8.6003	5.7298	8.2515	9.6190	4.3667	-0.5607	0.5550	0.8477
7184.2133	3.3514	8.5438	4.1250	-3.6765	-2.2653	-8.3272	-5.5911	-22.2449	11.1177	5.9765	7.1566	9.7892	1.5085	-9.0762	-1.7657	-5.6978
