Time	Fz	Fpz	C3	C4	T5	T4	O1	O2	F7	F8	F3	F4	T3	T6	P3	P4
0.0000	-0.7212	-0.4936	-0.6472	-1.2246	0.2136	0.5395	0.5130	0.8794	-0.2598	-0.7986	-0.5307	-0.5614	0.4626	0.6711	0.3618	0.5704
8.0000	-1.3118	-0.7698	-1.5627	-1.5395	-0.9358	0.5071	-1.1497	0.1360	-0.7502	-1.0575	-1.3741	-0.8250	-0.4974	0.5577	-0.1636	0.4314
16.0000	-0.6621	-0.4143	-0.4330	-1.4178	0.5491	0.6005	0.3520	0.8765	-0.1773	-0.8796	-0.2713	-0.5591	0.8988	0.7611	0.5691	0.6697
24.0000	-0.5397	-0.4284	-0.3063	-1.2703	1.3258	0.8434	2.2261	1.9202	-0.0843	-0.7815	-0.1791	-0.4453	1.6184	1.0634	1.0303	0.9252
32.0000	-0.5465	-0.4495	-0.1938	-1.4514	1.0137	0.7037	1.5575	1.5329	0.0070	-0.9043	-0.0825	-0.5807	1.2212	0.9318	0.7994	0.8257
40.0000	-0.1906	-0.2270	0.2688	-1.1510	2.0629	0.8738	2.9403	2.2496	0.1992	-0.6533	0.3820	-0.2806	2.3148	1.1404	1.3894	1.0223
48.0000	-1.0162	-0.6692	-1.0733	-1.4629	0.2191	0.7537	0.8001	1.2241	-0.4795	-0.9666	-0.9104	-0.6716	0.6040	0.8973	0.4807	0.7445
56.0000	-0.9222	-0.6115	-0.8849	-1.4923	0.5130	0.7932	1.0362	1.3669	-0.3881	-0.9634	-0.7161	-0.6368	0.9086	0.9603	0.6402	0.8112
64.0000	-0.5240	-0.4490	-0.3729	-1.1124	1.4213	0.8909	2.8012	2.2021	-0.1103	-0.6939	-0.2682	-0.3866	1.6781	1.1088	1.0897	0.9524
72.0000	-0.4809	-0.4418	-0.2163	-1.1938	0.9048	0.6394	1.8404	1.5752	0.0085	-0.7613	-0.1492	-0.5089	1.0156	0.8460	0.7018	0.7404
80.0000	-0.7106	-0.5667	-0.6358	-1.2144	0.5366	0.6724	1.6026	1.4970	-0.2120	-0.8053	-0.5521	-0.5699	0.7089	0.8460	0.5528	0.7153
88.0000	-1.1108	-0.7684	-1.2905	-1.3420	-0.6603	0.4924	0.0008	0.6378	-0.5420	-0.9501	-1.1913	-0.7839	-0.4570	0.5832	-0.0909	0.4569
96.0000	-0.5313	-0.4153	-0.3103	-1.1908	0.5856	0.5444	1.0220	1.1147	-0.0692	-0.7579	-0.2198	-0.5129	0.7555	0.7131	0.5240	0.6243
104.0000	-0.6749	-0.5030	-0.6830	-1.0363	0.5788	0.6758	1.5722	1.4505	-0.2753	-0.6829	-0.5849	-0.4549	0.8152	0.8205	0.5932	0.6866
112.0000	-0.7382	-0.5399	-0.7160	-1.1347	-0.1569	0.4174	0.3120	0.6817	-0.2633	-0.7724	-0.6416	-0.6052	-0.0242	0.5294	0.1071	0.4402
120.0000	-0.5623	-0.4661	-0.4138	-1.0925	0.2653	0.4546	0.9226	0.9875	-0.0962	-0.7252	-0.3595	-0.5434	0.3410	0.6034	0.3121	0.5191
128.0000	-1.2589	-0.7880	-1.6085	-1.2735	-1.1511	0.4129	-0.8794	0.1505	-0.7456	-0.9204	-1.4791	-0.7794	-0.8523	0.4405	-0.3348	0.3166
136.0000	-0.8495	-0.5270	-0.8993	-1.2004	-0.2102	0.4692	-0.1866	0.4932	-0.4109	-0.7985	-0.7646	-0.5846	0.0940	0.5551	0.1432	0.4572
144.0000	-0.3445	-0.3038	-0.1153	-0.9350	0.8424	0.5262	1.4372	1.2479	0.0156	-0.5811	-0.0462	-0.3605	0.9758	0.6898	0.6357	0.6077
152.0000	-0.0103	-0.0325	0.3899	-0.7364	1.1363	0.3887	1.0076	0.8929	0.2203	-0.3988	0.4676	-0.1673	1.2874	0.5403	0.7288	0.5092
160.0000	0.0419	0.0110	0.4599	-0.7146	1.5467	0.5139	1.5347	1.2287	0.2343	-0.3624	0.5580	-0.0872	1.7678	0.6842	0.9946	0.6360
168.0000	-0.7089	-0.4381	-0.6901	-1.1113	-0.0086	0.4465	-0.0520	0.5200	-0.3125	-0.7239	-0.5630	-0.5087	0.2758	0.5390	0.2276	0.4538
176.0000	-0.1482	-0.0847	0.2745	-1.0055	1.3774	0.5641	1.0982	1.1140	0.1412	-0.5514	0.4110	-0.2285	1.6804	0.7425	0.9485	0.6852
184.0000	0.2532	0.1121	0.8221	-0.6927	2.4749	0.7246	2.8492	1.9980	0.4127	-0.3037	0.9259	0.0455	2.7234	0.9615	1.5339	0.8928
192.0000	0.3087	0.1692	0.8384	-0.5244	2.1019	0.5446	2.1871	1.5191	0.4110	-0.2057	0.9232	0.0827	2.2997	0.7377	1.2718	0.6986
200.0000	0.7328	0.4023	1.4902	-0.3006	2.9907	0.5893	3.2428	2.0013	0.7346	-0.0078	1.5471	0.3066	3.1210	0.8334	1.7049	0.8122
208.0000	0.1154	0.0689	0.4409	-0.4564	1.5749	0.4935	1.7162	1.2519	0.2022	-0.1990	0.5277	0.0396	1.7951	0.6359	1.0041	0.5853
216.0000	0.0573	0.0926	0.2846	-0.3788	1.2927	0.4281	1.0785	0.8861	0.0851	-0.1510	0.3949	0.0737	1.5868	0.5253	0.8612	0.4817
224.0000	0.5082	0.2555	1.0037	-0.1517	2.0197	0.3959	2.4067	1.4451	0.5087	0.0183	1.0238	0.2110	2.0629	0.5632	1.1405	0.5456
232.0000	0.6450	0.3021	1.2761	-0.1373	1.7300	0.1732	1.8842	1.0288	0.6887	0.0189	1.2446	0.1532	1.5992	0.3409	0.8683	0.3711
240.0000	0.7047	0.3577	1.3852	-0.1389	1.8595	0.1748	1.8322	1.0022	0.7296	0.0348	1.3650	0.1885	1.7565	0.3465	0.9379	0.3838
248.0000	0.6556	0.3684	1.3535	-0.2426	1.7370	0.1484	1.2968	0.7458	0.6945	-0.0222	1.3617	0.1553	1.6984	0.3099	0.8821	0.3566
256.0000	1.0693	0.6744	2.0416	-0.1362	2.7725	0.2383	1.8956	1.0600	0.9843	0.1364	2.0828	0.4104	2.8248	0.4465	1.4407	0.5157
264.0000	1.1229	0.5887	2.2018	-0.2121	2.9001	0.2518	2.6970	1.4691	1.1489	0.0646	2.1771	0.3094	2.7554	0.5150	1.4583	0.5804
272.0000	1.4672	0.6579	3.0036	-0.4244	3.2260	0.0969	3.1220	1.5907	1.6709	-0.0567	2.8849	0.1755	2.7495	0.4613	1.4673	0.5854
280.0000	1.8754	0.9237	3.7880	-0.5054	4.5781	0.3028	4.2399	2.2714	2.0346	-0.0085	3.7059	0.3689	4.1877	0.7633	2.2210	0.8961
288.0000	1.6380	0.9233	3.3454	-0.5707	4.6967	0.5192	3.8770	2.2684	1.6994	-0.0212	3.3834	0.4572	4.6701	0.9374	2.4537	1.0263
296.0000	2.3231	1.4265	4.3025	-0.1014	6.4818	0.7304	5.4564	3.0630	2.0680	0.4138	4.3823	1.0114	6.6192	1.1983	3.4464	1.2973
304.0000	2.8060	1.6755	4.9897	0.2499	7.4410	0.7726	6.8298	3.6714	2.4155	0.6882	5.0207	1.2871	7.4670	1.2902	3.9040	1.4044
312.0000	3.3813	2.0206	5.8970	0.5352	8.2636	0.6723	7.3871	3.7935	2.8618	0.9415	5.8890	1.5492	8.1755	1.2311	4.2359	1.4013
320.0000	4.2683	2.6380	7.1348	1.1733	10.2432	0.8186	9.1546	4.5942	3.3715	1.5000	7.1430	2.2057	10.2524	1.4311	5.2824	1.6318
328.0000	3.9219	2.5643	6.4090	1.2821	9.5159	0.8010	7.9217	3.9806	2.9114	1.5454	6.4946	2.2347	9.7777	1.3028	4.9889	1.4801
336.0000	4.0196	2.6660	6.5024	1.4266	9.5617	0.7517	7.7038	3.8100	2.9245	1.6548	6.5977	2.3390	9.8599	1.2312	5.0022	1.4223
344.0000	4.4487	2.8513	7.0547	1.8744	9.9041	0.6021	8.5191	3.9997	3.2382	1.9484	7.0534	2.5400	9.9551	1.0940	5.0536	1.3207
352.0000	4.5535	2.9420	7.1337	2.0971	9.5001	0.3753	7.7500	3.4243	3.2661	2.0834	7.1061	2.6008	9.4798	0.8167	4.7534	1.0833
360.0000	4.6304	3.0417	7.2354	2.1583	9.5780	0.3451	7.4334	3.2355	3.2792	2.1465	7.2315	2.6815	9.6249	0.7711	4.7960	1.0516
368.0000	4.5643	3.0368	7.1109	2.1829	9.0029	0.1641	6.4037	2.6096	3.2081	2.1449	7.1055	2.6321	9.0342	0.5418	4.4423	0.8496
376.0000	4.9474	3.3168	7.6476	2.4710	9.5730	0.1116	6.6120	2.6040	3.4299	2.3875	7.6423	2.8896	9.6170	0.4913	4.7032	0.8330
384.0000	4.9239	3.2903	7.5357	2.6007	9.2791	0.0276	6.4504	2.4449	3.3827	2.4465	7.5049	2.8915	9.2633	0.3796	4.5153	0.7256
392.0000	5.2246	3.4868	8.0427	2.7005	9.5965	-0.0780	6.3639	2.2978	3.6289	2.5512	7.9980	3.0035	9.5263	0.2898	4.6134	0.6785
400.0000	5.5584	3.7593	8.5582	2.8432	10.4716	0.0140	6.8225	2.5426	3.8201	2.7218	8.5544	3.2585	10.5250	0.4074	5.1043	0.8100
408.0000	4.8932	3.4496	7.4877	2.5749	8.8346	-0.1517	4.4934	1.3787	3.2538	2.4689	7.5447	2.9495	9.0437	0.1217	4.2828	0.5135
416.0000	5.3030	3.7297	8.1411	2.7403	9.7158	-0.1118	5.0930	1.6480	3.5437	2.6486	8.2071	3.1891	9.9524	0.2005	4.7324	0.6179
424.0000	5.9119	4.0464	9.1041	3.0216	10.9837	-0.0535	6.6596	2.3683	4.0372	2.9033	9.1210	3.4787	11.0913	0.3417	5.3394	0.7864
432.0000	6.0527	4.1682	9.3868	2.9915	11.0872	-0.1335	6.2193	2.0986	4.1617	2.9154	9.4162	3.5146	11.2084	0.2658	5.3593	0.7427
440.0000	6.2506	4.3833	9.6446	3.1284	11.8291	0.0113	6.5757	2.3377	4.2031	3.0719	9.7385	3.7610	12.1528	0.4153	5.8269	0.8867
448.0000	6.3092	4.4800	9.8188	3.0071	11.9828	0.0050	6.0943	2.1197	4.2552	3.0320	9.9559	3.7808	12.4053	0.4145	5.9202	0.9046
456.0000	7.1092	4.9992	11.3012	2.9728	14.0999	0.2067	7.5857	2.9521	4.9529	3.1797	11.4766	4.1339	14.5949	0.7622	7.0375	1.2976
464.0000	7.1420	5.0211	11.3094	3.0486	14.3162	0.2762	7.9790	3.1754	4.9448	3.2355	11.4893	4.2003	14.8400	0.8360	7.1782	1.3584
472.0000	7.0416	4.9956	11.1562	3.0012	13.8948	0.1772	7.1743	2.7302	4.8560	3.1939	11.3497	4.1415	14.4454	0.7034	6.9409	1.2394
480.0000	7.6723	5.4512	12.2241	3.1146	15.7836	0.4358	8.6133	3.5573	5.3065	3.4147	12.4791	4.5465	16.5099	1.0591	7.9994	1.6098
488.0000	7.4086	5.3599	11.8732	2.8744	15.2577	0.4010	7.4757	3.0381	5.1020	3.2507	12.1835	4.4090	16.1166	0.9885	7.7604	1.5396
496.0000	7.6605	5.5668	12.3876	2.7640	16.1237	0.5290	7.8291	3.3069	5.3154	3.2599	12.7504	4.5398	17.1105	1.1707	8.2582	1.7342
504.0000	8.2424	5.9423	13.2262	3.1360	17.5713	0.6836	9.3752	4.0685	5.6809	3.5949	13.5916	4.9499	18.5992	1.3831	9.0339	1.9563
512.0000	8.5626	6.1362	13.7608	3.2519	17.9369	0.5852	9.4517	4.0017	5.9492	3.7082	14.1032	5.0656	18.8868	1.3069	9.1527	1.9212
520.0000	8.6267	6.1939	13.9637	3.0674	18.7463	0.8383	10.2645	4.6018	6.0250	3.6417	14.3592	5.1220	19.8400	1.6218	9.6769	2.2096
528.0000	7.9435	5.8288	12.9061	2.7106	17.4112	0.8048	8.6596	3.8975	5.4890	3.3319	13.3574	4.7849	18.6484	1.5077	9.0499	2.0607
536.0000	8.2403	6.0668	13.4595	2.6694	18.4028	0.9548	9.2029	4.2587	5.7131	3.3918	13.9634	4.9682	19.7781	1.7120	9.6208	2.2743
544.0000	8.3007	6.1685	13.3412	2.9879	19.1931	1.2549	10.4333	5.0019	5.5630	3.6325	13.9006	5.2702	20.7973	2.0024	10.1845	2.5063
552.0000	7.6465	5.7788	12.0644	3.1017	17.6552	1.1740	9.4282	4.4677	4.9235	3.5797	12.6184	5.0724	19.2941	1.7922	9.4225	2.2428
560.0000	6.8311	5.2875	10.4295	3.2376	16.9285	1.5562	10.2155	5.1261	4.0649	3.5508	11.0328	4.9924	18.8168	2.0806	9.2920	2.3802
568.0000	3.9078	3.5516	5.0248	3.1901	11.0384	1.5297	6.5018	3.4498	1.3555	3.0270	5.6833	4.0198	13.2564	1.5899	6.5283	1.6236
576.0000	0.8175	1.5464	-0.3380	2.6650	3.8651	1.0836	1.4375	0.9234	-1.1505	2.1087	0.2546	2.5237	5.9715	0.7075	2.8605	0.5440
584.0000	-1.4350	-0.0401	-4.1399	2.1044	-0.9157	0.9346	-0.8992	-0.1074	-2.8431	1.3118	-3.6385	1.3281	0.9814	0.3239	0.4399	-0.0157
592.0000	-3.6313	-1.5305	-7.8129	1.5366	-6.2799	0.4953	-4.7891	-2.0930	-4.4875	0.5155	-7.4007	0.0940	-4.6217	-0.3981	-2.3869	-0.8516
600.0000	-5.4444	-2.7221	-10.9595	1.1882	-9.8176	0.5030	-6.5832	-2.8109	-5.9696	-0.0278	-10.5597	-0.7147	-8.1293	-0.6005	-4.0838	-1.2161
608.0000	-8.7172	-4.7744	-17.0063	1.1308	-16.1055	0.6099	-9.4739	-3.9784	-8.9380	-0.6404	-16.5938	-1.8432	-14.1710	-0.9619	-7.0049	-1.9085
616.0000	-12.4116	-7.3266	-23.2684	0.3282	-25.2358	-0.1500	-15.6526	-7.1843	-11.7215	-1.9091	-23.0453	-3.9043	-23.7934	-2.2057	-11.8393	-3.3528
624.0000	-14.1989	-8.7850	-25.6877	-0.9660	-30.3062	-0.8592	-19.5664	-9.2543	-12.5253	-3.1455	-25.6768	-5.5503	-29.6064	-3.0140	-14.7704	-4.1690
632.0000	-14.6143	-9.1456	-26.0527	-1.5758	-31.6083	-1.1068	-21.0035	-9.9918	-12.5731	-3.6243	-26.0949	-6.0982	-31.1457	-3.2503	-15.5660	-4.3777
640.0000	-14.2864	-8.9533	-25.2989	-1.8189	-30.8169	-1.0788	-20.7263	-9.8084	-12.1817	-3.7067	-25.3302	-6.0773	-30.3770	-3.1347	-15.1838	-4.2233
648.0000	-13.9349	-8.7176	-24.4710	-2.1219	-29.9020	-1.0301	-20.5858	-9.6670	-11.7717	-3.8079	-24.4677	-6.0409	-29.4271	-2.9931	-14.7208	-4.0384
656.0000	-13.7053	-8.6282	-23.6484	-2.7316	-29.8316	-1.2512	-21.5615	-10.1918	-11.2717	-4.1535	-23.6668	-6.3173	-29.5437	-3.1164	-14.8335	-4.0725
664.0000	-12.3409	-7.8986	-20.8375	-3.1740	-26.9089	-1.2118	-19.6793	-9.2335	-9.7829	-4.1995	-20.8981	-6.0963	-26.8860	-2.7739	-13.4842	-3.5926
672.0000	-9.8262	-6.2987	-16.6457	-2.5073	-20.3457	-0.5233	-13.7485	-6.1190	-7.8513	-3.2969	-16.6471	-4.6958	-20.1475	-1.7074	-9.9930	-2.4384
680.0000	-9.3152	-5.8467	-15.9784	-2.1579	-18.0766	0.0054	-11.5202	-4.7600	-7.6864	-2.9153	-15.8570	-4.0881	-17.4610	-1.1143	-8.5784	-1.8958
688.0000	-10.6744	-6.6064	-18.1695	-2.7065	-20.9308	-0.1192	-14.5699	-6.1617	-8.7772	-3.4551	-17.9744	-4.7445	-20.1165	-1.4174	-9.9630	-2.2699
696.0000	-10.3973	-6.5242	-17.4736	-2.9596	-20.7518	-0.2902	-14.6778	-6.2988	-8.3411	-3.5953	-17.3387	-4.8792	-20.1779	-1.5107	-10.0097	-2.3010
704.0000	-9.3826	-6.0227	-15.4223	-3.2045	-18.7637	-0.3217	-13.1787	-5.5956	-7.2245	-3.6001	-15.3563	-4.7373	-18.4859	-1.3234	-9.1429	-2.0091
712.0000	-8.4848	-5.4402	-13.6631	-3.3922	-16.4832	-0.1511	-11.8911	-4.8598	-6.3798	-3.5249	-13.5518	-4.4184	-16.1451	-0.9775	-7.9654	-1.5945
720.0000	-7.5576	-4.7933	-12.0100	-3.3512	-13.7858	0.1853	-9.9425	-3.7321	-5.6489	-3.2837	-11.8194	-3.9053	-13.2438	-0.4817	-6.4807	-1.0645
728.0000	-7.1725	-4.4459	-11.3459	-3.3256	-12.4842	0.3903	-9.3605	-3.3301	-5.4173	-3.1471	-11.0673	-3.6025	-11.6955	-0.2262	-5.7107	-0.7997
736.0000	-6.3380	-3.8587	-9.9209	-3.1825	-10.1282	0.6754	-7.6010	-2.3440	-4.7988	-2.8690	-9.5769	-3.1023	-9.1588	0.1851	-4.4149	-0.3598
744.0000	-5.5863	-3.4452	-8.5295	-3.1862	-8.3069	0.8087	-5.9235	-1.4723	-4.0891	-2.7432	-8.2031	-2.8393	-7.4212	0.4666	-3.5052	-0.0342
752.0000	-4.9048	-3.0698	-7.2941	-3.1376	-6.8075	0.8739	-4.5843	-0.8181	-3.4572	-2.6040	-6.9935	-2.6005	-6.0228	0.6519	-2.7813	0.1981
760.0000	-4.2889	-2.6425	-6.1875	-3.1199	-5.0725	1.0735	-3.3827	-0.1288	-2.9629	-2.4521	-5.8380	-2.2738	-4.1671	0.9562	-1.8359	0.5295
768.0000	-4.3393	-2.5729	-6.1753	-3.3127	-5.1737	1.0396	-4.4295	-0.6217	-3.0115	-2.5416	-5.7566	-2.2965	-4.1035	0.9044	-1.8617	0.4984
776.0000	-3.8450	-2.2688	-5.2409	-3.3637	-3.8155	1.1831	-3.3523	-0.0135	-2.5596	-2.4713	-4.8046	-2.0964	-2.7196	1.1494	-1.1447	0.7682
784.0000	-3.4253	-2.0399	-4.4388	-3.4234	-2.5402	1.3561	-2.0528	0.7279	-2.1550	-2.4261	-3.9980	-1.9379	-1.4488	1.4262	-0.4630	1.0554
792.0000	-2.9661	-1.7164	-3.6290	-3.3702	-1.4979	1.4070	-1.5554	0.9736	-1.7910	-2.2969	-3.1632	-1.7102	-0.3528	1.5354	0.0729	1.2003
800.0000	-2.6183	-1.4800	-2.8806	-3.5735	-0.3174	1.5774	-0.8279	1.4657	-1.4397	-2.3300	-2.3697	-1.5906	0.9197	1.8011	0.7290	1.4825
808.0000	-3.1149	-1.7503	-3.4808	-4.1002	-1.3848	1.4840	-2.5295	0.6956	-1.7199	-2.7161	-2.9241	-1.9669	-0.0748	1.6751	0.1860	1.3573
816.0000	-2.5107	-1.4026	-2.2921	-4.2380	0.3464	1.6824	-1.0408	1.5522	-1.1255	-2.6794	-1.7208	-1.7622	1.6596	2.0173	1.0977	1.7278
824.0000	-2.0116	-1.1543	-1.2748	-4.4348	2.2829	2.0469	1.1891	2.8986	-0.6033	-2.6918	-0.6853	-1.5841	3.6247	2.5498	2.1811	2.2496
832.0000	-2.0318	-1.1576	-1.1730	-4.6802	2.4940	2.1201	1.1566	2.9794	-0.5509	-2.8267	-0.5535	-1.6515	3.8924	2.6580	2.3219	2.3572
840.0000	-1.5332	-0.8410	-0.1663	-4.8683	4.3250	2.4351	2.7459	3.9796	-0.0774	-2.8160	0.5063	-1.4331	5.8459	3.1127	3.3574	2.8155
848.0000	-1.7937	-0.9563	-0.4154	-5.2859	4.2113	2.5479	2.2088	3.8859	-0.2164	-3.0769	0.3258	-1.6054	5.8914	3.2401	3.3801	2.9252
856.0000	-1.3366	-0.6773	0.5146	-5.4395	5.4564	2.6643	3.0399	4.3766	0.2436	-3.0750	1.2756	-1.4687	7.1525	3.4623	4.0275	3.1788
864.0000	-0.4101	-0.1471	2.1300	-5.3264	8.3169	3.0894	6.1830	6.1313	1.0237	-2.8229	2.9061	-0.9895	10.0576	4.0842	5.5893	3.8049
872.0000	-0.1966	0.0170	2.4086	-5.1611	9.0498	3.2281	6.9522	6.5602	1.1160	-2.6677	3.2098	-0.7775	10.8856	4.2437	6.0243	3.9544
880.0000	0.1296	0.2306	3.0098	-5.1814	10.0884	3.3805	7.8335	7.0817	1.3915	-2.6044	3.8367	-0.6093	11.9885	4.4653	6.6012	4.1827
888.0000	0.1794	0.3012	2.9976	-5.0461	10.6009	3.5586	8.5119	7.5068	1.3333	-2.4894	3.8617	-0.4446	12.6401	4.6460	6.9565	4.3333
896.0000	0.8905	0.7674	3.8143	-4.2424	12.1896	3.7132	10.5754	8.4343	1.6537	-1.8803	4.6601	0.1840	14.2662	4.8203	7.8068	4.5070
904.0000	1.2726	0.9258	4.3356	-3.9085	12.7676	3.6842	11.7095	8.8851	1.9465	-1.6491	5.1083	0.3703	14.6614	4.8266	8.0343	4.5297
912.0000	0.6896	0.4798	3.4179	-4.0849	10.4640	3.2137	9.5020	7.5481	1.6071	-1.9226	4.0948	-0.1344	12.0521	4.2517	6.6571	3.9832
920.0000	1.3106	0.8524	4.3378	-3.6981	11.6265	3.2257	10.6856	8.0309	2.0436	-1.5935	4.9825	0.2220	13.1431	4.3144	7.2104	4.0811
928.0000	1.6638	1.1487	4.6677	-3.2021	12.6233	3.3901	11.7590	8.5581	2.1067	-1.2066	5.3472	0.6545	14.3040	4.4689	7.8055	4.2205
936.0000	1.2467	0.9016	3.8157	-3.0126	10.7903	3.0059	9.8459	7.3491	1.7025	-1.2018	4.4447	0.4550	12.3441	3.9422	6.7398	3.7118
944.0000	1.4754	0.9591	4.0620	-2.6672	10.6636	2.8177	10.2062	7.3195	1.8778	-1.0071	4.5948	0.5312	11.9644	3.7448	6.5466	3.5428
952.0000	1.6571	0.9855	4.1149	-2.1541	10.5292	2.6839	10.9322	7.4762	1.9438	-0.7205	4.5464	0.6734	11.5964	3.5815	6.3796	3.3845
960.0000	1.3821	0.7993	3.4636	-1.8795	9.3328	2.4553	10.0800	6.8670	1.6376	-0.6369	3.8414	0.5895	10.2838	3.2503	5.6876	3.0506
968.0000	0.5726	0.3768	1.7579	-1.5446	7.4086	2.3617	8.6803	6.0994	0.7304	-0.5708	2.1539	0.4693	8.5009	2.9553	4.7644	2.6833
976.0000	-0.3353	-0.2455	-0.1581	-1.0841	4.4776	1.9704	6.9645	4.9537	-0.1651	-0.5216	0.1283	0.1456	5.3473	2.3330	3.1493	2.0120
984.0000	-0.7707	-0.6392	-1.1787	-0.6428	2.5321	1.6000	6.2267	4.2783	-0.5757	-0.4187	-1.0387	-0.0670	3.0459	1.8277	1.9839	1.4946
992.0000	-1.0999	-0.8984	-2.1078	-0.0619	1.0815	1.3518	5.8102	3.8129	-1.0087	-0.1837	-2.0667	-0.0907	1.3986	1.4390	1.1474	1.0812
1000.0000	-1.8963	-1.4736	-3.6606	0.1653	-1.8818	0.8327	3.5781	2.3662	-1.6838	-0.2669	-3.7439	-0.5290	-1.8828	0.7247	-0.5627	0.3617
1008.0000	-2.7319	-1.9638	-5.4219	0.5654	-4.5175	0.4852	1.4944	1.0804	-2.5635	-0.2071	-5.5531	-0.7655	-4.5775	0.1447	-1.9792	-0.2569
1016.0000	-2.8422	-2.0459	-6.0324	1.3125	-6.0199	0.0520	0.4435	0.1391	-2.8615	0.1595	-6.2711	-0.6834	-6.3097	-0.4539	-2.9211	-0.8323
1024.0000	-2.8273	-2.1854	-6.0588	1.5502	-7.8219	-0.6467	-1.2416	-1.2059	-2.7225	0.1888	-6.4877	-0.9567	-8.6826	-1.2301	-4.2074	-1.5112
1032.0000	-2.7069	-2.1622	-5.9977	1.8978	-8.6965	-1.0538	-2.1159	-1.9809	-2.6412	0.3571	-6.5295	-0.9692	-9.8443	-1.7024	-4.8577	-1.9243
1040.0000	-2.5953	-2.0579	-5.9441	2.2170	-9.6446	-1.4970	-3.7383	-3.1376	-2.6183	0.5329	-6.5291	-0.9392	-10.9476	-2.2391	-5.5266	-2.3871
1048.0000	-2.6593	-2.0311	-6.1924	2.4671	-10.5844	-1.8056	-5.2586	-4.1309	-2.7738	0.6597	-6.7901	-0.9228	-11.9151	-2.6504	-6.1067	-2.7582
1056.0000	-2.0445	-1.6462	-5.4545	3.1600	-9.9188	-1.9573	-4.5473	-4.0462	-2.4423	1.1543	-6.1137	-0.4970	-11.3749	-2.8178	-5.8668	-2.8777
1064.0000	-1.6694	-1.4361	-4.9565	3.5680	-10.4039	-2.4101	-5.4694	-4.8986	-2.1654	1.4081	-5.7113	-0.3919	-12.1385	-3.3195	-6.3453	-3.2885
1072.0000	-1.6854	-1.4431	-5.1817	3.9204	-10.9650	-2.5850	-5.8647	-5.2752	-2.2842	1.5930	-5.9781	-0.3227	-12.7818	-3.5657	-6.7003	-3.5247
1080.0000	-1.6511	-1.4432	-5.2600	4.1959	-11.5091	-2.7998	-6.2982	-5.6861	-2.3055	1.7314	-6.1128	-0.2994	-13.4681	-3.8327	-7.0793	-3.7678
1088.0000	-2.2437	-1.7738	-6.2889	4.1419	-13.7573	-3.2404	-9.0469	-7.2864	-2.7939	1.5688	-7.1679	-0.6526	-15.8059	-4.4267	-8.3628	-4.3352
1096.0000	-2.6478	-2.0838	-6.9702	4.0775	-15.1080	-3.4601	-10.0675	-7.9031	-3.0642	1.4214	-7.9068	-0.9427	-17.3243	-4.7115	-9.1439	-4.6221
1104.0000	-2.8002	-2.2747	-7.0729	3.8485	-16.1038	-3.7547	-11.0711	-8.5448	-3.0069	1.2057	-8.0890	-1.2658	-18.5969	-5.0114	-9.8144	-4.8812
1112.0000	-3.0756	-2.4455	-7.5610	3.8209	-16.8067	-3.8191	-11.6556	-8.8550	-3.2396	1.1353	-8.5823	-1.3943	-19.3079	-5.1227	-10.1811	-5.0061
1120.0000	-3.3693	-2.6646	-7.9535	3.5939	-17.6116	-3.9282	-12.4157	-9.2441	-3.3832	0.9312	-8.9954	-1.6511	-20.1962	-5.2514	-10.6369	-5.1347
1128.0000	-3.8784	-2.9445	-8.6539	3.2157	-19.0461	-4.1433	-14.4694	-10.2958	-3.7095	0.6168	-9.6753	-2.0199	-21.6187	-5.5356	-11.4182	-5.4063
1136.0000	-3.8095	-2.9440	-8.4789	3.1298	-18.6396	-4.0392	-13.7809	-9.8774	-3.5983	0.5750	-9.5079	-2.0256	-21.2396	-5.3836	-11.1884	-5.2649
1144.0000	-3.2523	-2.6848	-7.2383	2.8228	-17.7009	-4.1363	-13.3658	-9.7127	-2.8997	0.4613	-8.3140	-2.0553	-20.5214	-5.3447	-10.8357	-5.1467
1152.0000	-2.8592	-2.3624	-6.5266	2.8068	-16.4685	-3.9671	-12.7745	-9.3238	-2.6180	0.5624	-7.5342	-1.8026	-19.1085	-5.1145	-10.1305	-4.9005
1160.0000	-2.6081	-2.2338	-5.9078	2.5350	-15.5254	-3.8164	-11.9929	-8.8023	-2.2914	0.4554	-6.8972	-1.7880	-18.1544	-4.8630	-9.6176	-4.6389
1168.0000	-1.8665	-1.7756	-4.2908	2.1597	-14.2928	-3.9619	-12.2039	-8.9703	-1.4571	0.3587	-5.2777	-1.7302	-17.0320	-4.8676	-9.1177	-4.5267
1176.0000	-0.2039	-0.6881	-1.5372	2.6437	-10.2608	-3.6301	-8.9424	-7.3242	-0.2007	0.9792	-2.4848	-0.8081	-12.8901	-4.3166	-7.0082	-3.8959
1184.0000	1.2817	0.2216	1.1660	2.7175	-7.0340	-3.5194	-6.7766	-6.2790	1.1237	1.2913	0.2158	-0.2379	-9.7423	-3.9715	-5.4293	-3.4329
1192.0000	2.2901	0.9924	2.9554	2.7778	-4.3365	-3.2555	-5.4994	-5.5340	1.8764	1.5758	2.1186	0.3435	-6.7553	-3.5699	-3.9530	-2.9712
1200.0000	2.8291	1.4365	3.7396	3.0423	-2.2532	-2.8316	-3.6035	-4.3944	2.1313	1.8962	3.0028	0.8703	-4.3437	-3.0732	-2.6937	-2.5016
1208.0000	3.0337	1.5812	4.1673	2.9746	-2.0621	-2.9303	-3.9863	-4.6451	2.3429	1.8910	3.4330	0.8937	-4.1791	-3.1509	-2.6497	-2.5371
1216.0000	3.3330	1.7990	4.5748	3.1707	-0.8726	-2.6726	-2.6032	-3.8459	2.4855	2.0897	3.8782	1.1901	-2.8476	-2.8475	-1.9346	-2.2579
1224.0000	3.1509	1.6263	4.4052	2.8916	-0.9795	-2.5926	-2.3664	-3.6163	2.4533	1.8847	3.7002	1.0013	-2.9987	-2.7312	-1.9690	-2.1632
1232.0000	3.1542	1.6152	4.5703	2.6320	-0.9195	-2.5989	-2.5750	-3.6744	2.5605	1.7315	3.8727	0.8901	-2.9566	-2.7012	-1.9517	-2.1188
1240.0000	3.1227	1.6363	4.4396	2.6999	-0.3445	-2.3371	-1.7094	-3.0846	2.4398	1.8010	3.7945	1.0317	-2.1958	-2.4296	-1.5220	-1.8960
1248.0000	2.8272	1.4870	4.0129	2.5093	-1.1619	-2.4540	-2.9235	-3.7054	2.2288	1.6401	3.3868	0.8422	-2.9811	-2.5931	-1.9582	-2.0540
1256.0000	3.2284	1.7714	4.6157	2.7013	0.1315	-2.2380	-1.6332	-2.9839	2.4693	1.8520	4.0243	1.1598	-1.5658	-2.3219	-1.2151	-1.7895
1264.0000	3.1651	1.7328	4.5172	2.6495	0.3238	-2.1145	-1.2433	-2.6971	2.4123	1.8220	3.9447	1.1629	-1.3114	-2.1851	-1.0581	-1.6773
1272.0000	3.0693	1.6739	4.4290	2.4972	0.2251	-2.0939	-1.4208	-2.7366	2.3760	1.7197	3.8691	1.0794	-1.3887	-2.1572	-1.0946	-1.6539
1280.0000	3.2755	1.7879	4.7803	2.4990	1.4359	-1.7686	0.2407	-1.7157	2.5287	1.7812	4.2511	1.2567	-0.0711	-1.7529	-0.3537	-1.2881
1288.0000	2.8886	1.5759	4.2746	2.1656	0.3825	-1.9225	-1.3330	-2.5062	2.2952	1.5169	3.7655	0.9628	-1.1084	-1.9524	-0.9249	-1.4770
1296.0000	2.8337	1.5568	4.1890	2.1274	0.4080	-1.8736	-1.3231	-2.4580	2.2406	1.4944	3.6974	0.9587	-1.0309	-1.9049	-0.8808	-1.4399
1304.0000	2.8419	1.5058	4.2407	2.0580	0.7486	-1.7433	-0.4824	-1.9482	2.2973	1.4491	3.7354	0.9368	-0.7257	-1.7304	-0.6737	-1.2887
1312.0000	2.8829	1.5302	4.3524	1.9954	0.9080	-1.7190	-0.3972	-1.8804	2.3546	1.4223	3.8532	0.9348	-0.5583	-1.6884	-0.5863	-1.2436
1320.0000	2.6795	1.4200	4.0322	1.8517	1.2221	-1.4444	0.2806	-1.3261	2.1697	1.3329	3.5858	0.9209	-0.0762	-1.3942	-0.2849	-1.0077
1328.0000	2.1455	1.1144	3.2635	1.4948	-0.0080	-1.5527	-1.2665	-2.0611	1.8057	1.0322	2.8433	0.5819	-1.2626	-1.5607	-0.9162	-1.1846
1336.0000	2.3733	1.2698	3.5709	1.6665	0.6531	-1.4519	-0.5200	-1.6714	1.9274	1.1846	3.1601	0.7735	-0.5541	-1.4376	-0.5426	-1.0655
1344.0000	2.0846	1.0517	3.1296	1.4956	0.4583	-1.3110	-0.1611	-1.3555	1.7348	1.0348	2.7238	0.6279	-0.7266	-1.2883	-0.5764	-0.9626
1352.0000	1.6802	0.8084	2.5494	1.2215	-0.4281	-1.3738	-1.1801	-1.8241	1.4667	0.8027	2.1590	0.3671	-1.5913	-1.3885	-1.0278	-1.0750
1360.0000	1.7119	0.8572	2.5871	1.2120	0.2198	-1.1412	-0.3762	-1.2731	1.4445	0.8328	2.2431	0.4811	-0.7926	-1.1273	-0.5849	-0.8483
1368.0000	1.5199	0.7475	2.3903	0.9536	-0.2177	-1.1930	-1.1238	-1.6152	1.3618	0.6490	2.0624	0.3049	-1.2159	-1.1854	-0.8175	-0.9007
1376.0000	1.8798	0.9621	2.9956	1.0482	0.6450	-1.1240	-0.3050	-1.2043	1.6537	0.7704	2.6639	0.4829	-0.3657	-1.0618	-0.3758	-0.7607
1384.0000	1.6779	0.8513	2.6898	0.9059	0.6599	-0.9716	-0.1235	-0.9755	1.4880	0.6709	2.3949	0.4250	-0.2400	-0.9059	-0.2821	-0.6417
1392.0000	1.4542	0.7362	2.3898	0.7063	0.3204	-0.9529	-0.6405	-1.1663	1.3347	0.5260	2.1247	0.2971	-0.5093	-0.9005	-0.4242	-0.6479
1400.0000	1.5461	0.7947	2.5576	0.6690	1.1397	-0.6997	0.4612	-0.4543	1.3954	0.5436	2.3264	0.4065	0.4199	-0.5949	0.0992	-0.3757
1408.0000	1.0137	0.5403	1.7497	0.3533	0.1757	-0.7026	-0.9263	-1.0466	0.9651	0.2925	1.5854	0.1618	-0.3698	-0.6617	-0.3287	-0.4689
1416.0000	1.3763	0.7547	2.3174	0.5174	1.0485	-0.6235	0.0211	-0.5792	1.2345	0.4545	2.1450	0.3695	0.4897	-0.5345	0.1230	-0.3308
1424.0000	1.3108	0.6345	2.2960	0.3649	1.0040	-0.5962	0.4209	-0.3358	1.2859	0.3317	2.0884	0.2345	0.3318	-0.4706	0.0824	-0.2767
1432.0000	0.8314	0.3907	1.5716	0.0867	0.0097	-0.6476	-0.9304	-0.9534	0.9143	0.1000	1.4090	-0.0128	-0.5524	-0.5824	-0.3948	-0.4055
1440.0000	1.2020	0.6478	2.1162	0.2695	1.4436	-0.3498	0.7120	-0.0015	1.1249	0.3057	1.9939	0.3136	1.0285	-0.2194	0.4552	-0.0666
1448.0000	0.8741	0.4654	1.6403	0.0511	0.7578	-0.3886	-0.1554	-0.3937	0.8932	0.1256	1.5406	0.1198	0.3906	-0.2919	0.1174	-0.1499
1456.0000	0.9128	0.5069	1.6937	0.0662	1.0083	-0.3188	0.0784	-0.2366	0.9001	0.1529	1.6121	0.1779	0.6985	-0.2140	0.2806	-0.0797
1464.0000	1.0559	0.5650	1.9571	0.0471	1.7381	-0.1377	1.1598	0.4098	1.0356	0.1732	1.8798	0.2603	1.4475	0.0248	0.7097	0.1394
1472.0000	0.3971	0.2048	0.8832	-0.2017	0.3678	-0.1918	-0.3258	-0.2719	0.4938	-0.0754	0.8460	-0.0426	0.1893	-0.1195	0.0516	-0.0406
1480.0000	0.2473	0.0980	0.6140	-0.2398	0.4722	-0.0303	0.2399	0.1279	0.3584	-0.1144	0.5910	-0.0620	0.3541	0.0500	0.1817	0.0871
1488.0000	0.3844	0.1555	0.9632	-0.3900	0.7693	-0.0351	0.3838	0.2155	0.5591	-0.1856	0.9319	-0.0961	0.5971	0.0925	0.3068	0.1493
1496.0000	0.4628	0.2476	1.0198	-0.2559	0.9585	-0.0120	0.4212	0.2216	0.5465	-0.0785	1.0091	0.0254	0.8605	0.1007	0.4276	0.1575
1504.0000	0.2121	0.0409	0.6096	-0.3303	0.3818	-0.0445	0.2769	0.1541	0.3875	-0.1853	0.5693	-0.1421	0.2029	0.0504	0.1161	0.0884
1512.0000	0.2198	0.0088	0.7392	-0.5052	0.3114	-0.0948	0.1308	0.0801	0.4924	-0.3007	0.6814	-0.2541	0.0521	0.0275	0.0390	0.0813
1520.0000	0.1908	0.0214	0.6439	-0.4824	0.8425	0.1432	0.9180	0.6236	0.4010	-0.2620	0.6323	-0.1454	0.7426	0.2813	0.4307	0.2921
1528.0000	-0.2579	-0.2682	-0.0446	-0.6939	-0.3775	-0.0096	-0.3345	-0.0300	0.0971	-0.4801	-0.0672	-0.4449	-0.5266	0.0699	-0.2340	0.0751
1536.0000	0.3918	0.1127	0.9988	-0.4229	0.8916	0.0104	0.8526	0.4798	0.6074	-0.2147	0.9464	-0.1278	0.6598	0.1634	0.3691	0.2105
1544.0000	0.4406	0.1666	1.0251	-0.3424	1.2844	0.1364	1.3594	0.7958	0.5873	-0.1411	0.9973	-0.0160	1.1430	0.2966	0.6328	0.3241
1552.0000	-0.1195	-0.1733	0.1122	-0.5273	-0.1882	-0.0274	-0.1490	0.0107	0.1592	-0.3585	0.0822	-0.3325	-0.3446	0.0469	-0.1491	0.0601
1560.0000	0.3294	0.0706	0.7969	-0.2995	1.0349	0.1336	1.4511	0.8355	0.4912	-0.1453	0.7500	-0.0605	0.8532	0.2793	0.5026	0.2918
1568.0000	0.3221	0.0987	0.8142	-0.3505	0.9288	0.0869	0.9854	0.5871	0.4847	-0.1693	0.7846	-0.0732	0.7834	0.2219	0.4405	0.2476
1576.0000	0.2186	0.0489	0.6077	-0.3171	0.5254	0.0095	0.4968	0.2953	0.3781	-0.1706	0.5756	-0.1123	0.3763	0.1098	0.2146	0.1386
1584.0000	0.1528	-0.0243	0.4872	-0.3220	0.5305	0.0684	0.8772	0.5243	0.3360	-0.1905	0.4431	-0.1416	0.3578	0.1769	0.2353	0.1865
1592.0000	0.2197	0.0435	0.6101	-0.3138	0.4863	-0.0061	0.4754	0.2735	0.3847	-0.1719	0.5722	-0.1211	0.3199	0.0937	0.1853	0.1246
1600.0000	0.4337	0.1768	0.8738	-0.1129	1.1676	0.1190	1.4264	0.7745	0.4901	-0.0075	0.8382	0.0749	1.0367	0.2426	0.5761	0.2612
1608.0000	-0.1766	-0.2073	-0.1339	-0.3031	-0.2456	0.0211	0.2180	0.1836	0.0186	-0.2354	-0.1710	-0.2477	-0.3803	0.0645	-0.1477	0.0517
1616.0000	0.0076	-0.0872	0.0833	-0.0796	-0.2037	-0.0871	0.1560	0.0294	0.1175	-0.0820	0.0219	-0.1327	-0.3964	-0.0602	-0.1818	-0.0481
1624.0000	0.4111	0.1573	0.6847	0.1659	0.5403	-0.0848	0.8805	0.3187	0.4021	0.1289	0.6036	0.0966	0.3030	-0.0257	0.1704	0.0107
1632.0000	0.2188	0.0745	0.3767	0.0852	0.0579	-0.1376	0.1400	-0.0531	0.2351	0.0557	0.3169	0.0097	-0.1252	-0.1154	-0.0713	-0.0806
1640.0000	0.2906	0.1361	0.4076	0.2334	0.4286	-0.0307	0.7041	0.2639	0.2195	0.1684	0.3617	0.1432	0.3128	-0.0071	0.1695	0.0094
1648.0000	-0.1288	-0.1459	-0.2218	0.0129	-0.6779	-0.1611	-0.3656	-0.2853	-0.0496	-0.0512	-0.2819	-0.1500	-0.8525	-0.1843	-0.4340	-0.1750
1656.0000	-0.1728	-0.2145	-0.2376	-0.0817	-0.8332	-0.1941	-0.3812	-0.2966	-0.0199	-0.1296	-0.3207	-0.2463	-1.0866	-0.2042	-0.5430	-0.1920
1664.0000	-0.0369	-0.1362	-0.0732	0.0668	-0.6283	-0.2039	-0.0865	-0.1940	0.0568	-0.0231	-0.1707	-0.1509	-0.9102	-0.2117	-0.4528	-0.1934
1672.0000	-0.2693	-0.2610	-0.4684	0.0250	-1.4133	-0.3404	-1.0657	-0.7448	-0.1360	-0.0940	-0.5676	-0.2805	-1.7055	-0.4023	-0.8892	-0.3784
1680.0000	-0.2709	-0.2744	-0.4593	-0.0155	-1.0591	-0.1986	-0.4393	-0.3354	-0.1335	-0.1092	-0.5462	-0.2556	-1.3077	-0.2328	-0.6511	-0.2327
1688.0000	-0.3035	-0.2533	-0.5318	0.0059	-1.2811	-0.2646	-0.9925	-0.6516	-0.1930	-0.0949	-0.6030	-0.2492	-1.4875	-0.3276	-0.7741	-0.3166
1696.0000	0.3295	0.1374	0.4368	0.3472	-0.0908	-0.2574	0.0670	-0.2246	0.2633	0.2133	0.3421	0.1006	-0.3524	-0.2660	-0.2062	-0.2144
1704.0000	0.3015	0.0809	0.4314	0.2774	-0.1178	-0.2490	0.2533	-0.1145	0.2913	0.1562	0.3186	0.0359	-0.4379	-0.2402	-0.2313	-0.1924
1712.0000	-0.3463	-0.2777	-0.6101	0.0244	-1.6866	-0.3924	-1.5643	-1.0187	-0.2225	-0.1024	-0.6966	-0.3009	-1.9437	-0.4822	-1.0332	-0.4537
1720.0000	0.1052	0.0260	0.0712	0.2394	-0.2392	-0.1508	-0.0148	-0.1603	0.0610	0.1300	0.0138	0.0425	-0.3871	-0.1737	-0.2083	-0.1538
1728.0000	0.0093	-0.0124	-0.0563	0.1476	-0.3488	-0.1302	-0.2606	-0.2439	-0.0124	0.0690	-0.0925	-0.0015	-0.4426	-0.1595	-0.2411	-0.1455
1736.0000	-0.2719	-0.2139	-0.5005	0.0369	-1.0749	-0.2054	-0.8089	-0.5287	-0.1987	-0.0599	-0.5544	-0.1893	-1.2246	-0.2655	-0.6365	-0.2617
1744.0000	-0.0917	-0.1295	-0.1600	0.0368	-0.7735	-0.2265	-0.5315	-0.4172	-0.0101	-0.0388	-0.2337	-0.1568	-0.9919	-0.2539	-0.5169	-0.2316
1752.0000	-0.1477	-0.1109	-0.2703	0.0511	-1.1131	-0.3234	-1.3228	-0.8677	-0.0933	-0.0315	-0.3242	-0.1627	-1.2807	-0.3900	-0.7070	-0.3521
1760.0000	-0.0732	-0.0992	-0.1511	0.0600	-0.5173	-0.1372	-0.2379	-0.2181	-0.0284	-0.0082	-0.2039	-0.0944	-0.6659	-0.1583	-0.3398	-0.1494
1768.0000	-0.3474	-0.2513	-0.5216	-0.1667	-1.1053	-0.1806	-1.0581	-0.5915	-0.2051	-0.1848	-0.5538	-0.2769	-1.2166	-0.2259	-0.6352	-0.2217
1776.0000	-0.3636	-0.2147	-0.6453	-0.0150	-1.2680	-0.2217	-1.3888	-0.8073	-0.3040	-0.0890	-0.6638	-0.2018	-1.3219	-0.3080	-0.7135	-0.3023
1784.0000	-0.0500	-0.0816	-0.0800	0.0158	-0.5052	-0.1565	-0.3607	-0.2839	0.0089	-0.0300	-0.1306	-0.1078	-0.6574	-0.1721	-0.3435	-0.1549
1792.0000	-0.0690	-0.0440	-0.0291	-0.1327	-0.5741	-0.1917	-1.0012	-0.5905	0.0124	-0.1055	-0.0447	-0.1443	-0.6527	-0.2109	-0.3757	-0.1768
1800.0000	0.0905	0.1023	0.1726	-0.0163	0.1747	-0.0101	-0.2625	-0.1352	0.0550	0.0210	0.2001	0.0583	0.2423	-0.0094	0.0961	0.0061
1808.0000	0.3790	0.2388	0.7666	-0.0971	0.6580	-0.0528	0.0505	-0.0115	0.3858	0.0083	0.7674	0.0774	0.6166	0.0088	0.2831	0.0600
1816.0000	0.7863	0.4739	1.4436	0.0373	1.4395	-0.0496	0.7430	0.2831	0.7226	0.1523	1.4245	0.2562	1.3367	0.0624	0.6476	0.1431
1824.0000	0.7853	0.4507	1.4441	0.0291	1.5738	0.0074	1.1168	0.5052	0.7337	0.1450	1.4188	0.2551	1.4584	0.1347	0.7322	0.2038
1832.0000	0.5274	0.3140	1.0942	-0.1740	0.8861	-0.0877	0.0891	-0.0097	0.5668	-0.0180	1.0849	0.0729	0.7920	0.0064	0.3644	0.0806
1840.0000	0.5081	0.3265	1.0280	-0.1601	1.3178	0.1018	0.7149	0.4232	0.4991	0.0111	1.0557	0.1591	1.3504	0.2095	0.6803	0.2501
1848.0000	0.3727	0.2738	0.8380	-0.2667	1.0520	0.0883	0.2042	0.1921	0.3918	-0.0651	0.8901	0.0918	1.1444	0.1778	0.5597	0.2164
1856.0000	0.6199	0.4885	1.0979	0.0588	1.3305	0.0300	0.1626	0.0608	0.4623	0.1806	1.1590	0.3300	1.4738	0.0898	0.6880	0.1500
1864.0000	0.7312	0.5192	1.2479	0.1591	1.5489	0.0440	0.6898	0.3025	0.5552	0.2465	1.2809	0.3811	1.6226	0.1213	0.7835	0.1808
1872.0000	0.4502	0.3174	0.9758	-0.2386	0.9391	-0.0168	-0.0945	-0.0341	0.4706	-0.0458	1.0104	0.0880	0.9707	0.0681	0.4482	0.1306
1880.0000	0.2900	0.2728	0.6374	-0.2104	1.0404	0.1514	0.1137	0.1855	0.2489	-0.0255	0.7244	0.1478	1.2504	0.2147	0.6095	0.2358
1888.0000	0.3612	0.3060	0.7389	-0.1510	1.0715	0.1141	0.1661	0.1709	0.3062	0.0144	0.8108	0.1730	1.2394	0.1790	0.6000	0.2092
1896.0000	0.7337	0.4944	1.4066	-0.1010	1.7726	0.1063	0.8502	0.4708	0.6620	0.0946	1.4475	0.2835	1.8368	0.2330	0.9096	0.2937
1904.0000	0.4240	0.3286	0.8862	-0.1994	1.2249	0.1217	0.3184	0.2559	0.3924	-0.0069	0.9519	0.1657	1.3654	0.2081	0.6693	0.2442
1912.0000	0.2208	0.2313	0.5951	-0.3358	0.6706	0.0432	-0.5487	-0.1843	0.2449	-0.1187	0.6778	0.0383	0.8432	0.0968	0.3762	0.1372
1920.0000	0.3279	0.3044	0.7689	-0.3211	1.2630	0.1973	0.1771	0.2666	0.3108	-0.0756	0.8732	0.1414	1.5074	0.2841	0.7417	0.3076
1928.0000	0.0081	0.1247	0.2669	-0.4586	0.3861	0.0838	-0.8935	-0.2911	0.0697	-0.2151	0.3782	-0.0472	0.6385	0.1187	0.2732	0.1405
1936.0000	0.4116	0.3417	0.8870	-0.2337	1.0614	0.0591	-0.1257	0.0043	0.3862	-0.0274	0.9600	0.1425	1.2112	0.1333	0.5669	0.1829
1944.0000	0.4158	0.3084	0.9208	-0.2706	1.1034	0.0727	0.1292	0.1438	0.4287	-0.0584	0.9759	0.1059	1.1992	0.1648	0.5788	0.2112
1952.0000	0.0936	0.1418	0.4853	-0.5317	0.2965	-0.0261	-1.1067	-0.4611	0.2167	-0.2632	0.5658	-0.1140	0.4351	0.0268	0.1563	0.0769
1960.0000	0.3139	0.3134	0.7611	-0.3616	1.3461	0.2357	0.1656	0.2957	0.2937	-0.0921	0.8834	0.1490	1.6400	0.3254	0.8086	0.3446
1968.0000	0.2183	0.2553	0.6186	-0.4092	1.0087	0.1710	-0.2607	0.0574	0.2316	-0.1417	0.7370	0.0755	1.2838	0.2432	0.6146	0.2673
1976.0000	0.4948	0.4104	1.0641	-0.2816	1.3463	0.0995	-0.0304	0.0835	0.4609	-0.0310	1.1551	0.1809	1.5383	0.1928	0.7298	0.2474
1984.0000	0.1524	0.1921	0.4626	-0.3419	0.7536	0.1314	-0.2806	0.0109	0.1696	-0.1256	0.5587	0.0466	0.9762	0.1864	0.4641	0.2054
1992.0000	-0.3013	-0.1374	-0.1565	-0.6771	-0.4294	-0.0120	-1.3905	-0.5443	-0.0679	-0.4268	-0.0848	-0.3281	-0.3100	0.0115	-0.1942	0.0262
2000.0000	0.1242	0.1115	0.5298	-0.5416	0.9686	0.2264	0.2845	0.3883	0.2501	-0.2575	0.6118	-0.0561	1.1345	0.3338	0.5890	0.3388
2008.0000	-0.1392	0.0182	0.0600	-0.5835	0.3914	0.1934	-0.6245	-0.0552	-0.0241	-0.3083	0.1837	-0.1186	0.6812	0.2409	0.3274	0.2349
2016.0000	0.0521	0.0994	0.3484	-0.4454	0.4387	0.0770	-0.5228	-0.1206	0.1459	-0.2175	0.4261	-0.0715	0.5956	0.1316	0.2727	0.1535
2024.0000	0.0218	0.0784	0.1794	-0.2691	0.4957	0.1452	-0.0730	0.1136	0.0469	-0.1165	0.2532	0.0084	0.6765	0.1827	0.3369	0.1799
2032.0000	-0.6969	-0.2820	-1.0581	-0.4280	-1.1782	0.0224	-2.0517	-0.8684	-0.6002	-0.3182	-0.9355	-0.2758	-0.8518	-0.0710	-0.4855	-0.1048
2040.0000	-0.1929	0.0141	-0.2840	-0.1825	0.1494	0.1809	-0.5020	-0.0755	-0.2375	-0.0793	-0.1690	0.0356	0.4753	0.1593	0.2218	0.1311
2048.0000	0.1024	0.2102	0.1594	-0.0090	0.6524	0.1630	-0.1707	0.0274	-0.0373	0.0753	0.2684	0.2077	0.9662	0.1580	0.4564	0.1529
2056.0000	-0.1298	0.0529	-0.2432	-0.0241	-0.2512	-0.0148	-1.0840	-0.5250	-0.2091	0.0055	-0.1623	0.0476	-0.0220	-0.0732	-0.0714	-0.0697
2064.0000	-0.1903	-0.0558	-0.3354	-0.0309	-0.5431	-0.0765	-0.9513	-0.4996	-0.1992	-0.0379	-0.3045	-0.0550	-0.4574	-0.1302	-0.2720	-0.1278
2072.0000	-0.2697	-0.1025	-0.4615	-0.0482	-0.9777	-0.1904	-1.5429	-0.8584	-0.2515	-0.0710	-0.4417	-0.1278	-0.9323	-0.2702	-0.5376	-0.2543
2080.0000	-0.1089	-0.0169	-0.2431	0.0701	-0.4256	-0.0821	-0.7093	-0.4084	-0.1515	0.0302	-0.2265	0.0004	-0.3708	-0.1336	-0.2236	-0.1290
2088.0000	0.2183	0.1385	0.3283	0.1502	0.0458	-0.1423	-0.2277	-0.2463	0.1632	0.1135	0.3028	0.0842	-0.0323	-0.1482	-0.0524	-0.1103
2096.0000	0.5851	0.3145	0.9036	0.3418	0.6340	-0.1741	0.5556	0.0594	0.4730	0.2690	0.8300	0.2314	0.4229	-0.1375	0.1885	-0.0740
2104.0000	0.2117	0.1239	0.1946	0.3533	-0.0159	-0.1376	0.0651	-0.1382	0.0915	0.2258	0.1506	0.1531	-0.1152	-0.1665	-0.0817	-0.1421
2112.0000	0.0027	0.0411	-0.1638	0.3116	-0.6824	-0.2482	-0.9599	-0.6943	-0.1046	0.1704	-0.1897	0.0629	-0.7355	-0.3323	-0.4368	-0.3021
2120.0000	0.2200	0.0749	0.2382	0.3145	0.0559	-0.1132	0.4840	0.0884	0.1506	0.1894	0.1669	0.1065	-0.1235	-0.1165	-0.0574	-0.0983
2128.0000	0.1682	0.0058	0.2037	0.2273	-0.1328	-0.1532	0.4114	0.0437	0.1683	0.1146	0.1106	0.0113	-0.3865	-0.1477	-0.1841	-0.1261
2136.0000	0.6639	0.3026	0.9298	0.5583	0.6602	-0.1958	1.1666	0.2970	0.5165	0.3854	0.8029	0.2850	0.3245	-0.1594	0.1657	-0.1019
2144.0000	0.3651	0.0832	0.4436	0.4530	0.0756	-0.1979	0.9552	0.2259	0.3073	0.2605	0.3033	0.1138	-0.2941	-0.1837	-0.1264	-0.1517
2152.0000	-0.0451	-0.1436	-0.1497	0.1799	-0.8395	-0.2698	-0.2361	-0.3324	0.0197	0.0337	-0.2638	-0.1359	-1.1574	-0.3013	-0.5880	-0.2786
2160.0000	0.1684	-0.0244	0.1115	0.3736	0.0300	-0.0671	1.1184	0.4191	0.1268	0.1962	0.0014	0.0741	-0.2407	-0.0594	-0.0723	-0.0635
2168.0000	0.0034	-0.1309	-0.1399	0.2911	-0.3929	-0.1134	0.6942	0.2041	0.0153	0.1141	-0.2525	-0.0343	-0.6771	-0.1253	-0.2993	-0.1330
2176.0000	0.9144	0.3996	1.3610	0.6097	1.4009	-0.0863	2.3148	0.9084	0.7559	0.4498	1.2081	0.3835	0.9957	0.0137	0.5505	0.0680
2184.0000	0.9016	0.3674	1.2886	0.6945	1.3641	-0.0783	2.5795	1.0272	0.7310	0.4889	1.1168	0.3951	0.9200	0.0173	0.5281	0.0622
2192.0000	0.1854	-0.0366	0.2028	0.3062	-0.3233	-0.2293	0.5375	0.0369	0.2066	0.1389	0.0633	-0.0223	-0.7041	-0.2256	-0.3363	-0.1980
2200.0000	0.8598	0.3824	1.2728	0.5611	1.6568	0.0544	2.6851	1.1967	0.6910	0.4300	1.1504	0.4100	1.3480	0.1663	0.7536	0.1949
2208.0000	0.7201	0.3515	0.9722	0.6299	1.1766	-0.0255	1.9179	0.7634	0.5075	0.4559	0.8700	0.4042	0.9346	0.0291	0.5075	0.0596
2216.0000	0.7778	0.3415	1.1068	0.6096	1.0616	-0.1160	1.8764	0.6816	0.6150	0.4316	0.9668	0.3471	0.6980	-0.0487	0.3854	0.0002
2224.0000	0.6643	0.2060	0.9085	0.5859	1.0926	-0.0061	2.6109	1.1231	0.5538	0.3861	0.7443	0.2863	0.6767	0.0812	0.4319	0.0954
2232.0000	-0.0143	-0.1008	-0.2567	0.4267	-0.5387	-0.1476	0.4091	0.0183	-0.0760	0.1992	-0.3570	0.0322	-0.7712	-0.1962	-0.3683	-0.2033
2240.0000	0.6067	0.2536	0.7818	0.5959	1.0566	0.0174	2.1209	0.9029	0.4310	0.4109	0.6706	0.3454	0.7961	0.0731	0.4623	0.0846
2248.0000	0.6284	0.1955	0.8929	0.5172	0.7640	-0.1195	1.9532	0.7401	0.5526	0.3343	0.7265	0.2164	0.3221	-0.0477	0.2201	-0.0123
2256.0000	0.6063	0.1976	0.8356	0.5557	0.4811	-0.2137	1.4760	0.4375	0.5197	0.3494	0.6650	0.2024	0.0245	-0.1676	0.0428	-0.1185
2264.0000	0.6732	0.2558	0.9403	0.5512	1.1205	-0.0112	2.2762	0.9634	0.5414	0.3819	0.8045	0.3097	0.7777	0.0679	0.4605	0.0898
2272.0000	0.1533	0.0257	0.1218	0.3058	-0.1038	-0.1238	0.4116	0.0505	0.1002	0.1691	0.0452	0.0701	-0.2961	-0.1352	-0.1419	-0.1218
2280.0000	0.3544	0.1598	0.4525	0.3428	0.7674	0.0691	1.4034	0.6489	0.2366	0.2460	0.4021	0.2302	0.6614	0.1068	0.3774	0.1045
2288.0000	0.0943	-0.0080	0.0829	0.1592	0.2580	0.0539	0.9182	0.4487	0.0719	0.0910	0.0390	0.0596	0.1581	0.0751	0.1245	0.0601
2296.0000	0.3481	0.1764	0.4637	0.3237	0.4112	-0.0748	0.6449	0.1854	0.2423	0.2281	0.4094	0.1855	0.2768	-0.0612	0.1402	-0.0360
2304.0000	0.7583	0.4181	1.1500	0.4339	1.4562	0.0295	1.7057	0.7329	0.5726	0.3691	1.0926	0.3962	1.3141	0.1093	0.6853	0.1484
2312.0000	0.0886	0.0367	0.1957	-0.0285	-0.1129	-0.1189	-0.3147	-0.2337	0.1216	-0.0169	0.1717	-0.0376	-0.2022	-0.1125	-0.1250	-0.0833
2320.0000	0.2575	0.1037	0.5314	-0.0918	0.7618	0.0958	0.9339	0.5240	0.2973	-0.0168	0.5141	0.0430	0.6938	0.1761	0.3872	0.1839
2328.0000	0.2611	0.0870	0.5815	-0.1719	0.9727	0.1716	1.2918	0.7643	0.3331	-0.0618	0.5670	0.0255	0.9085	0.2783	0.5190	0.2760
2336.0000	0.3296	0.1556	0.6348	-0.0326	0.7373	0.0331	0.7639	0.3840	0.3454	0.0268	0.6103	0.0738	0.6466	0.1062	0.3454	0.1294
2344.0000	0.5861	0.2943	1.0257	0.0939	1.4976	0.1498	1.7807	0.9227	0.5333	0.1484	0.9945	0.2361	1.4025	0.2676	0.7597	0.2862
2352.0000	-0.2146	-0.1232	-0.2129	-0.3168	-0.2327	0.0430	-0.4403	-0.1158	-0.0959	-0.2129	-0.1812	-0.1720	-0.1722	0.0532	-0.0852	0.0434
2360.0000	-0.3038	-0.1596	-0.4291	-0.2504	-0.2221	0.1251	-0.2437	0.0283	-0.2270	-0.1772	-0.3799	-0.1327	-0.0887	0.1189	-0.0277	0.0842
2368.0000	0.0001	-0.0224	0.0350	-0.0818	0.4566	0.1785	0.8032	0.5278	0.0215	-0.0387	0.0482	0.0147	0.5004	0.2196	0.3016	0.1908
2376.0000	0.0923	0.0544	0.1572	0.0052	0.4661	0.1149	0.5989	0.3647	0.0685	0.0285	0.1689	0.0727	0.5057	0.1446	0.2807	0.1328
2384.0000	0.1397	0.0707	0.2460	-0.0016	0.6877	0.1670	0.9427	0.5665	0.1169	0.0333	0.2564	0.0946	0.7252	0.2157	0.4079	0.1985
2392.0000	-0.0966	-0.0602	0.0118	-0.3337	0.1539	0.1031	-0.0182	0.1281	0.0174	-0.1997	0.0453	-0.1245	0.2159	0.1446	0.1253	0.1355
2400.0000	0.0075	0.0729	0.1875	-0.3565	0.9360	0.3250	0.5485	0.5561	0.0376	-0.1524	0.2908	0.0371	1.2060	0.3947	0.6421	0.3641
2408.0000	0.0161	0.0882	0.2056	-0.3747	1.1468	0.4003	0.7876	0.7270	0.0338	-0.1514	0.3251	0.0681	1.4672	0.4807	0.7862	0.4397
2416.0000	0.2219	0.1407	0.5757	-0.3230	1.2984	0.3092	1.1625	0.8266	0.2732	-0.1178	0.6348	0.0659	1.4347	0.4244	0.7779	0.4095
2424.0000	0.0190	0.0300	0.2191	-0.3663	1.0073	0.3494	0.9750	0.7808	0.0861	-0.1703	0.2956	0.0059	1.2029	0.4402	0.6680	0.4025
2432.0000	-0.5495	-0.2315	-0.6355	-0.7102	-0.1477	0.2933	-0.7999	-0.0291	-0.3711	-0.4436	-0.4875	-0.2688	0.2277	0.3066	0.1275	0.2513
2440.0000	-0.1252	-0.0369	0.0833	-0.6084	1.0671	0.4607	0.8892	0.8673	0.0085	-0.3176	0.2026	-0.0785	1.3679	0.5685	0.7636	0.5128
2448.0000	-0.1552	-0.0928	0.0256	-0.5943	0.9589	0.4473	1.0578	0.9384	0.0063	-0.3282	0.1198	-0.1181	1.1922	0.5580	0.6898	0.4977
2456.0000	-0.2061	-0.0950	-0.0639	-0.6021	0.7599	0.4036	0.6246	0.7020	-0.0536	-0.3360	0.0435	-0.1308	1.0273	0.4930	0.5845	0.4384
2464.0000	0.0957	0.0963	0.3807	-0.4217	1.4740	0.4678	1.3694	1.0607	0.1453	-0.1719	0.4862	0.0686	1.7502	0.5876	0.9594	0.5413
2472.0000	-0.0452	0.1054	0.1857	-0.5398	1.0378	0.3807	0.1127	0.4195	-0.0021	-0.2407	0.3468	0.0208	1.4520	0.4535	0.7456	0.4241
2480.0000	0.1252	0.2153	0.5100	-0.5997	2.0827	0.6587	1.3591	1.2194	0.1330	-0.2191	0.7108	0.1596	2.6173	0.8012	1.3898	0.7431
2488.0000	-0.0816	0.0422	0.1883	-0.6911	1.6590	0.6499	1.3000	1.2107	0.0121	-0.3237	0.3673	0.0143	2.1314	0.7847	1.1657	0.7093
2496.0000	0.0529	0.1367	0.4060	-0.6209	1.6168	0.5300	0.9434	0.9359	0.1182	-0.2664	0.5722	0.0534	2.0429	0.6570	1.0864	0.6125
2504.0000	0.2829	0.2544	0.8062	-0.6005	2.5088	0.7101	2.1165	1.6148	0.3148	-0.2063	0.9773	0.1850	2.9557	0.9010	1.5942	0.8438
2512.0000	-0.3343	-0.0900	-0.0997	-0.9900	1.1432	0.6093	0.3968	0.8112	-0.1243	-0.5356	0.1085	-0.1823	1.6656	0.7307	0.9080	0.6567
2520.0000	0.0108	0.1152	0.5118	-0.9662	2.2172	0.7681	1.5004	1.4359	0.1669	-0.4497	0.7316	-0.0044	2.7701	0.9629	1.4970	0.8921
2528.0000	0.2151	0.1943	0.8349	-0.8731	2.7473	0.8332	2.3897	1.8855	0.3471	-0.3698	1.0273	0.0869	3.2313	1.0702	1.7633	0.9982
2536.0000	-0.2638	-0.0564	0.0143	-0.9768	1.5301	0.7116	0.9753	1.1567	-0.0714	-0.5099	0.2279	-0.1243	2.0756	0.8589	1.1416	0.7721
2544.0000	-0.1068	0.0807	0.2458	-0.9006	2.0485	0.7982	1.3236	1.3645	0.0025	-0.4177	0.4888	0.0218	2.6863	0.9595	1.4500	0.8720
2552.0000	-0.1359	0.0986	0.2232	-0.9444	1.7649	0.6976	0.5960	0.9516	-0.0216	-0.4450	0.4785	-0.0123	2.4221	0.8358	1.2766	0.7687
2560.0000	-0.3842	-0.0663	-0.1607	-1.0919	1.6414	0.8340	0.8210	1.1934	-0.2063	-0.5654	0.1146	-0.1142	2.3630	0.9747	1.2859	0.8671
2568.0000	-0.1995	-0.0086	0.1474	-1.0269	2.0623	0.8685	1.5929	1.5710	-0.0225	-0.5109	0.3879	-0.0588	2.6879	1.0507	1.4801	0.9461
2576.0000	0.1210	0.1684	0.5945	-0.7559	2.3046	0.7396	1.8144	1.5247	0.2076	-0.3169	0.7881	0.0918	2.8051	0.9253	1.5184	0.8571
2584.0000	-0.3206	-0.0998	-0.1438	-0.9024	1.6196	0.8035	1.4296	1.4295	-0.1566	-0.4719	0.0715	-0.0889	2.1940	0.9476	1.2305	0.8345
2592.0000	-0.5554	-0.2165	-0.4396	-1.1296	1.0443	0.7319	0.4614	0.9631	-0.3016	-0.6408	-0.2005	-0.2594	1.6593	0.8508	0.9305	0.7427
2600.0000	-0.1351	0.0497	0.2512	-1.0163	2.3634	0.9374	1.8392	1.7332	0.0089	-0.4813	0.5104	0.0069	3.0459	1.1317	1.6671	1.0223
2608.0000	-0.5002	-0.1846	-0.3593	-1.1311	1.7412	0.9698	1.5238	1.6404	-0.2821	-0.6118	-0.0928	-0.1576	2.4543	1.1300	1.3865	0.9855
2616.0000	-0.3045	-0.1197	-0.0619	-0.9771	1.5873	0.7724	1.4310	1.4215	-0.0882	-0.5244	0.1362	-0.1471	2.0985	0.9330	1.1855	0.8283
2624.0000	0.1797	0.1441	0.7747	-0.8761	2.6756	0.8359	2.5430	1.9638	0.3369	-0.3868	0.9507	0.0519	3.1156	1.0766	1.7192	0.9984
2632.0000	-0.2798	-0.0498	0.1200	-1.2163	1.7389	0.7802	0.8876	1.2064	-0.0221	-0.6387	0.3669	-0.1839	2.3509	0.9596	1.2820	0.8738
2640.0000	-0.3895	-0.0808	-0.0900	-1.2368	1.8781	0.9191	1.0908	1.4099	-0.1626	-0.6457	0.1980	-0.1500	2.6233	1.0922	1.4376	0.9761
2648.0000	-0.3162	-0.0512	0.0102	-1.1831	2.1500	0.9778	1.5704	1.6697	-0.1110	-0.6019	0.2921	-0.0958	2.8876	1.1678	1.5914	1.0441
2656.0000	-0.0275	0.1173	0.4382	-0.9901	2.4892	0.9038	1.8337	1.6976	0.1018	-0.4498	0.6918	0.0426	3.1497	1.1064	1.7090	1.0118
2664.0000	0.0052	0.1085	0.5454	-1.0723	2.7452	0.9752	2.2669	1.9705	0.1733	-0.4945	0.7951	0.0246	3.3883	1.2114	1.8555	1.1093
2672.0000	-0.3852	-0.0989	0.1230	-1.5704	1.9474	0.9082	0.8360	1.3398	-0.0215	-0.8440	0.4180	-0.2969	2.6618	1.1288	1.4531	1.0314
2680.0000	-0.2969	-0.0388	0.2225	-1.4956	2.5655	1.0951	1.7497	1.8944	0.0020	-0.7673	0.5386	-0.1665	3.3638	1.3432	1.8483	1.2179
2688.0000	-0.5139	-0.2264	-0.2111	-1.4295	2.0567	1.0789	1.8670	1.9376	-0.1775	-0.7868	0.0673	-0.2642	2.7716	1.2993	1.5779	1.1477
2696.0000	-0.5214	-0.2820	-0.1017	-1.6014	1.7580	0.9503	1.4738	1.6897	-0.0659	-0.9146	0.1409	-0.4196	2.3348	1.1892	1.3452	1.0641
2704.0000	-0.7662	-0.4565	-0.3702	-1.9235	1.6347	1.0654	1.5071	1.8558	-0.1729	-1.1402	-0.1064	-0.6042	2.2514	1.3301	1.3368	1.1770
2712.0000	-1.6709	-1.0049	-1.6251	-2.5982	-0.4668	0.8705	-1.0369	0.6527	-0.7397	-1.7008	-1.3324	-1.2341	0.1689	1.0530	0.2395	0.8854
2720.0000	-1.8938	-1.1896	-1.8008	-3.0161	-0.3029	1.0762	-0.5497	1.1179	-0.7869	-1.9774	-1.4843	-1.4344	0.3738	1.3192	0.4048	1.1129
2728.0000	-2.0767	-1.3620	-2.0559	-3.1841	-0.0149	1.3296	0.5200	1.8509	-0.8846	-2.1034	-1.7333	-1.5181	0.6929	1.6178	0.6513	1.3536
2736.0000	-1.7517	-1.1993	-1.5602	-2.9826	0.3485	1.2403	0.9490	1.9451	-0.6179	-1.9506	-1.2855	-1.3922	0.9216	1.5519	0.7604	1.3199
2744.0000	-1.1200	-0.7967	-0.6727	-2.5622	2.2519	1.5452	3.2479	3.1646	-0.2426	-1.5671	-0.3825	-0.8955	2.9216	1.9374	1.8309	1.6906
2752.0000	-0.9165	-0.5992	-0.5426	-2.1909	2.9267	1.6873	3.9793	3.5403	-0.2640	-1.2822	-0.2157	-0.5750	3.7552	2.0613	2.2586	1.7953
2760.0000	-0.5517	-0.3630	-0.2090	-1.6214	3.4732	1.6758	4.8432	3.8300	-0.1411	-0.8885	0.0858	-0.2272	4.2709	2.0288	2.5192	1.7695
2768.0000	-0.7051	-0.4522	-0.7180	-1.2353	2.8266	1.5815	4.6545	3.6095	-0.4113	-0.7006	-0.4547	-0.1611	3.5922	1.8479	2.1688	1.5698
2776.0000	-0.3145	-0.2321	-0.2821	-0.6883	2.5101	1.2002	4.1894	3.0019	-0.1805	-0.3580	-0.1142	0.0286	3.0245	1.4121	1.8096	1.2063
2784.0000	0.1438	0.0325	0.2643	-0.1310	2.5394	0.9051	4.1484	2.6546	0.0945	0.0109	0.3481	0.2785	2.8401	1.0822	1.6611	0.9397
2792.0000	-0.3738	-0.2468	-0.6875	-0.1041	0.7403	0.5943	2.0716	1.4516	-0.3763	-0.0791	-0.6165	0.0326	1.0096	0.6352	0.6621	0.4998
2800.0000	-0.1280	-0.1422	-0.3396	0.1051	0.8781	0.4797	2.3790	1.4716	-0.1744	0.0588	-0.3254	0.1180	0.9917	0.5303	0.6474	0.4228
2808.0000	0.0651	-0.0513	-0.1495	0.4102	0.8787	0.3610	2.5912	1.4274	-0.0690	0.2484	-0.1869	0.2358	0.8680	0.3949	0.5743	0.3074
2816.0000	-0.2537	-0.2979	-0.6892	0.4052	-0.8282	-0.0671	0.7862	0.2716	-0.2614	0.1355	-0.8071	-0.0685	-1.0895	-0.1239	-0.4821	-0.1712
2824.0000	-0.5484	-0.5600	-1.0786	0.1975	-1.9219	-0.2853	-0.1353	-0.2748	-0.3653	-0.0811	-1.2573	-0.3914	-2.3875	-0.3664	-1.1504	-0.3996
2832.0000	-0.5095	-0.4623	-1.1413	0.3903	-1.6646	-0.1993	-0.0108	-0.1919	-0.4670	0.0680	-1.2771	-0.2143	-1.9756	-0.3092	-0.9506	-0.3576
2840.0000	0.2243	0.0352	-0.2282	1.1086	-0.1273	-0.0958	1.6638	0.5263	-0.1009	0.6333	-0.3728	0.3847	-0.3939	-0.1838	-0.1457	-0.2154
2848.0000	0.4095	0.1580	-0.1277	1.5359	-0.2625	-0.2536	1.5950	0.2970	-0.0692	0.9001	-0.3141	0.5621	-0.6114	-0.3911	-0.2875	-0.4000
2856.0000	0.6728	0.2780	0.2248	1.8112	-0.4227	-0.4963	1.4262	-0.0154	0.1395	1.0694	-0.0353	0.6366	-0.9798	-0.6484	-0.5094	-0.6085
2864.0000	0.6291	0.1661	0.2393	1.7216	-1.2585	-0.8000	0.5696	-0.6227	0.2386	0.9560	-0.1035	0.4104	-2.0887	-0.9631	-1.1033	-0.8770
2872.0000	-0.0639	-0.1634	-0.8756	1.4627	-3.2695	-1.0935	-2.2940	-2.1345	-0.3366	0.6916	-1.1752	0.0475	-4.0036	-1.3984	-2.1711	-1.3042
2880.0000	0.3727	0.1399	-0.2606	1.7716	-2.3541	-1.0459	-1.5275	-1.8065	-0.0799	0.9611	-0.5553	0.3594	-3.0521	-1.3269	-1.6973	-1.2131
2888.0000	0.7372	0.2771	0.3210	1.9699	-2.0158	-1.1721	-0.8914	-1.6387	0.2671	1.0995	-0.0564	0.4446	-2.9523	-1.4134	-1.6407	-1.2614
2896.0000	0.8142	0.2891	0.3973	2.1119	-2.2652	-1.3156	-1.0289	-1.8343	0.3337	1.1704	-0.0283	0.4455	-3.3358	-1.5718	-1.8493	-1.3983
2904.0000	0.6060	0.1774	0.0633	2.0248	-2.7096	-1.3385	-1.5451	-2.0749	0.1648	1.0871	-0.3485	0.3460	-3.7436	-1.6235	-2.0649	-1.4597
2912.0000	0.0238	-0.0808	-0.8322	1.7131	-4.0402	-1.4523	-3.6177	-3.0743	-0.3175	0.8287	-1.1744	0.0677	-4.8999	-1.8323	-2.7142	-1.6781
2920.0000	0.5575	0.2594	0.0094	1.9287	-2.5840	-1.2722	-2.1436	-2.2990	0.0607	1.0659	-0.3204	0.4060	-3.3925	-1.5769	-1.9243	-1.4140
2928.0000	0.7698	0.3693	0.3658	2.0055	-2.3311	-1.3310	-1.9462	-2.2678	0.2518	1.1354	0.0103	0.4701	-3.2199	-1.6146	-1.8448	-1.4272
2936.0000	0.7660	0.3849	0.3152	2.0962	-2.6961	-1.4678	-2.5410	-2.6672	0.2213	1.1807	-0.0518	0.4689	-3.6178	-1.7872	-2.0825	-1.5796
2944.0000	0.7594	0.3868	0.3096	2.0770	-2.6018	-1.4271	-2.4370	-2.5848	0.2120	1.1740	-0.0475	0.4786	-3.4943	-1.7413	-2.0138	-1.5399
2952.0000	-0.0355	-0.0128	-0.8841	1.6185	-4.4846	-1.6076	-5.1008	-3.8804	-0.3952	0.7846	-1.1757	0.0391	-5.2293	-2.0367	-2.9649	-1.8464
2960.0000	0.3051	0.1444	-0.2812	1.6532	-3.4361	-1.4489	-3.6992	-3.1132	-0.0778	0.8612	-0.5894	0.1834	-4.2268	-1.7932	-2.4066	-1.6048
2968.0000	0.8446	0.4026	0.6524	1.7608	-2.0783	-1.3155	-1.9743	-2.2293	0.4159	1.0054	0.3059	0.3970	-2.9808	-1.5509	-1.7246	-1.3469
2976.0000	0.6834	0.3799	0.3292	1.7963	-2.5889	-1.3966	-2.9427	-2.7538	0.2085	1.0154	0.0179	0.3880	-3.3861	-1.6949	-1.9769	-1.4871
2984.0000	0.6228	0.3108	0.2667	1.7198	-2.6827	-1.3904	-2.8563	-2.6909	0.2037	0.9510	-0.0580	0.3148	-3.5240	-1.6780	-2.0316	-1.4757
2992.0000	0.4297	0.2286	0.1053	1.3940	-3.1087	-1.4477	-3.8788	-3.1575	0.1239	0.7370	-0.1827	0.1328	-3.8888	-1.7422	-2.2506	-1.5273
3000.0000	0.5538	0.3868	0.2364	1.5078	-2.3809	-1.2500	-3.3314	-2.7817	0.1071	0.8682	0.0142	0.3551	-2.9477	-1.5376	-1.7661	-1.3444
3008.0000	0.5398	0.3130	0.2357	1.4799	-2.4120	-1.2467	-2.9412	-2.5847	0.1532	0.8287	-0.0237	0.2887	-3.0856	-1.5131	-1.8062	-1.3261
3016.0000	0.7906	0.4409	0.7398	1.4228	-1.9118	-1.2510	-2.5785	-2.4129	0.4244	0.8311	0.4660	0.3295	-2.6505	-1.4646	-1.5843	-1.2521
3024.0000	1.0361	0.6324	1.1347	1.4823	-0.9399	-1.0542	-1.6936	-1.8697	0.5700	0.9389	0.9042	0.5388	-1.5438	-1.2232	-1.0028	-1.0214
3032.0000	0.4356	0.3416	0.1902	1.1995	-2.3047	-1.1613	-3.5897	-2.7835	0.0759	0.6874	0.0155	0.2506	-2.7669	-1.4244	-1.6732	-1.2386
3040.0000	0.4641	0.3911	0.1939	1.2406	-1.7498	-0.9584	-2.8778	-2.3068	0.0346	0.7441	0.0606	0.3744	-2.0710	-1.2046	-1.2886	-1.0509
3048.0000	0.7095	0.4882	0.6227	1.2781	-0.9960	-0.8414	-1.7389	-1.6920	0.2708	0.8015	0.4672	0.4711	-1.3770	-1.0229	-0.8923	-0.8732
3056.0000	0.8207	0.5073	0.8861	1.2131	-1.0441	-0.9529	-1.8324	-1.8077	0.4493	0.7578	0.6905	0.4045	-1.5653	-1.1094	-0.9962	-0.9305
3064.0000	0.8361	0.4900	0.9160	1.1986	-0.7405	-0.8407	-1.1913	-1.4174	0.4731	0.7533	0.7187	0.4230	-1.2579	-0.9700	-0.8038	-0.8109
3072.0000	0.3099	0.2141	0.1065	0.9252	-1.9343	-0.9341	-2.7414	-2.1592	0.0653	0.5113	-0.0529	0.1439	-2.3623	-1.1363	-1.3990	-0.9918
3080.0000	0.4748	0.3099	0.4268	0.8814	-1.2669	-0.8017	-2.0217	-1.7182	0.2181	0.5250	0.2819	0.2262	-1.6573	-0.9536	-1.0157	-0.8146
3088.0000	0.9126	0.4931	1.2406	0.8770	-0.0726	-0.6634	-0.4220	-0.8664	0.6675	0.5834	1.0579	0.3542	-0.5823	-0.7033	-0.4141	-0.5543
3096.0000	0.9639	0.5415	1.3124	0.9240	-0.1590	-0.7368	-0.7322	-1.0784	0.6951	0.6185	1.1278	0.3768	-0.6783	-0.7897	-0.4871	-0.6240
3104.0000	0.7026	0.4507	0.8237	0.9002	-0.4471	-0.6522	-1.1377	-1.2001	0.3990	0.5891	0.6948	0.3650	-0.7889	-0.7516	-0.5483	-0.6180
3112.0000	0.2505	0.2134	0.2217	0.4931	-1.1691	-0.6288	-2.2161	-1.6111	0.0960	0.2914	0.1486	0.0962	-1.3832	-0.7550	-0.8620	-0.6427
3120.0000	0.2361	0.2001	0.2214	0.4178	-0.6883	-0.4301	-1.4544	-1.0899	0.0853	0.2616	0.1746	0.1302	-0.8180	-0.5209	-0.5306	-0.4410
3128.0000	0.3739	0.2488	0.3967	0.5561	-0.4070	-0.4080	-0.8370	-0.8071	0.1864	0.3553	0.3213	0.2092	-0.6030	-0.4815	-0.4000	-0.4032
3136.0000	0.8550	0.5122	1.2091	0.7058	0.3790	-0.4592	-0.1649	-0.5663	0.6060	0.5107	1.0955	0.3858	0.0622	-0.4751	-0.0697	-0.3530
3144.0000	0.6412	0.3998	0.9128	0.5058	0.4473	-0.2828	0.0074	-0.3142	0.4424	0.3801	0.8460	0.3150	0.2642	-0.2881	0.0641	-0.2046
3152.0000	-0.1692	-0.0441	-0.3009	0.0227	-1.2065	-0.3564	-2.0300	-1.2270	-0.1589	-0.0282	-0.3084	-0.1287	-1.2508	-0.4511	-0.7359	-0.4007
3160.0000	0.3205	0.2143	0.4855	0.2149	0.0300	-0.2259	-0.4816	-0.4438	0.2357	0.1656	0.4530	0.1241	-0.0736	-0.2395	-0.0991	-0.1796
3168.0000	0.6496	0.3851	1.0143	0.3406	0.9103	-0.1182	0.6572	0.1446	0.5014	0.2947	0.9659	0.2976	0.7712	-0.0733	0.3617	-0.0106
3176.0000	0.4610	0.2961	0.7446	0.2100	0.4449	-0.1718	-0.0796	-0.2170	0.3623	0.1907	0.7153	0.1858	0.3464	-0.1545	0.1236	-0.0908
3184.0000	0.3545	0.2309	0.5751	0.1554	0.3621	-0.1251	-0.0592	-0.1599	0.2773	0.1448	0.5558	0.1456	0.2952	-0.1110	0.1096	-0.0627
3192.0000	0.2095	0.2128	0.4101	-0.0149	-0.1446	-0.2405	-1.3334	-0.8194	0.1676	0.0348	0.4313	0.0465	-0.1260	-0.2639	-0.1633	-0.1935
3200.0000	0.5474	0.4398	0.9086	0.1657	0.9234	-0.0636	-0.1670	-0.1800	0.3736	0.2196	0.9496	0.3095	1.0207	-0.0399	0.4447	0.0236
3208.0000	0.4335	0.2811	0.7082	0.1574	0.8231	-0.0022	0.5290	0.2063	0.3307	0.1711	0.7043	0.2186	0.8073	0.0398	0.3938	0.0742
3216.0000	0.3249	0.1895	0.5877	0.0416	0.4334	-0.0823	0.1183	-0.0221	0.3027	0.0705	0.5668	0.0887	0.3518	-0.0457	0.1557	-0.0036
3224.0000	0.1947	0.1384	0.3019	0.0904	0.4330	0.0255	0.2902	0.1329	0.1285	0.0945	0.3095	0.1250	0.4577	0.0418	0.2262	0.0527
3232.0000	-0.2636	-0.1174	-0.3413	-0.2337	-0.7824	-0.1350	-1.3793	-0.7070	-0.1729	-0.1776	-0.3145	-0.1919	-0.7390	-0.1774	-0.4248	-0.1621
3240.0000	-0.0067	0.0577	0.1653	-0.3166	0.2103	0.0474	-0.5389	-0.1699	0.0541	-0.1584	0.2284	-0.0572	0.3456	0.0744	0.1478	0.0883
3248.0000	0.0222	0.0930	0.1079	-0.1665	0.6853	0.2317	0.3026	0.3368	-0.0125	-0.0454	0.1945	0.0903	0.9258	0.2637	0.4797	0.2415
3256.0000	0.3138	0.2226	0.6082	-0.0700	0.9696	0.1269	0.6026	0.3785	0.2729	0.0359	0.6440	0.1491	1.0530	0.1921	0.5371	0.2063
3264.0000	0.4129	0.2622	0.8401	-0.1567	1.3673	0.2004	1.0629	0.6638	0.4009	0.0030	0.8768	0.1588	1.4418	0.3080	0.7546	0.3216
3272.0000	-0.2872	-0.0506	-0.2977	-0.4385	-0.1254	0.1178	-1.0905	-0.3532	-0.2182	-0.2505	-0.1778	-0.1227	0.1761	0.1075	0.0534	0.0948
3280.0000	0.0266	0.1607	0.2004	-0.3330	0.9374	0.3038	0.0142	0.2774	-0.0081	-0.1125	0.3456	0.1059	1.3245	0.3479	0.6631	0.3284
3288.0000	0.1396	0.1728	0.4141	-0.3523	1.5407	0.4613	1.1424	0.9315	0.1240	-0.1087	0.5442	0.1475	1.8923	0.5635	1.0084	0.5231
3296.0000	0.0200	0.0861	0.2497	-0.4304	1.1015	0.3730	0.6491	0.6510	0.0647	-0.1866	0.3667	0.0346	1.4034	0.4587	0.7477	0.4255
3304.0000	-0.3000	-0.1517	-0.2071	-0.6445	0.4411	0.3456	0.2306	0.4830	-0.1173	-0.3815	-0.1029	-0.1989	0.6934	0.4178	0.4031	0.3669
3312.0000	-1.1405	-0.6811	-1.3306	-1.3310	-1.5903	0.1280	-2.2184	-0.6905	-0.6021	-0.9463	-1.2124	-0.8361	-1.3687	0.1325	-0.6820	0.0759
3320.0000	-0.6206	-0.3495	-0.3939	-1.3365	0.2122	0.4347	-0.4624	0.3502	-0.1749	-0.8273	-0.2340	-0.5418	0.5488	0.5574	0.3377	0.4980
3328.0000	-0.6195	-0.3089	-0.5000	-1.2061	0.7911	0.6788	0.4337	0.9297	-0.2852	-0.7179	-0.2943	-0.3720	1.3000	0.8061	0.7599	0.7006
3336.0000	-0.8390	-0.4765	-0.7760	-1.3838	-0.1062	0.4768	-0.6190	0.3221	-0.3698	-0.8868	-0.6022	-0.6134	0.2804	0.5754	0.2131	0.4912
3344.0000	-0.3777	-0.2842	0.1736	-1.5388	1.1533	0.6060	0.8449	1.1283	0.1605	-0.9132	0.3146	-0.5427	1.4100	0.8396	0.8371	0.7769
3352.0000	-1.1191	-0.6803	-0.8694	-2.1025	-0.2051	0.5863	-1.0124	0.3518	-0.3603	-1.3490	-0.6547	-0.9701	0.2204	0.7570	0.2071	0.6632
3360.0000	-0.5483	-0.2935	-0.0022	-1.8467	1.7123	0.9252	1.0512	1.5137	-0.0029	-1.0606	0.2560	-0.5277	2.2958	1.1860	1.3103	1.0767
3368.0000	0.8121	0.5505	1.8999	-0.8925	5.3631	1.4082	5.4789	3.7573	0.8297	-0.2292	2.1534	0.4800	6.0372	1.8199	3.3017	1.7043
3376.0000	0.6560	0.5114	1.3899	-0.5127	4.5492	1.2414	4.6444	3.1749	0.5303	-0.0349	1.6347	0.5582	5.2469	1.5417	2.8547	1.4248
3384.0000	0.4909	0.3835	0.9364	-0.2440	3.8462	1.1241	4.4285	2.9472	0.3186	0.0713	1.1352	0.5418	4.4525	1.3572	2.4513	1.2280
3392.0000	0.2431	0.2508	0.4290	-0.1405	2.8864	0.9455	3.3987	2.3168	0.0642	0.0779	0.6129	0.4489	3.4634	1.0977	1.9116	0.9722
3400.0000	-0.0072	0.0935	0.0140	-0.1893	1.9021	0.7444	2.2618	1.6469	-0.1173	-0.0128	0.1760	0.2703	2.4055	0.8383	1.3375	0.7265
3408.0000	0.0226	0.0314	-0.0391	0.0348	1.4812	0.5844	2.3810	1.5513	-0.0871	0.0807	0.0404	0.2447	1.7685	0.6570	1.0212	0.5566
3416.0000	0.1664	0.0969	0.0911	0.3020	1.1624	0.3713	2.0758	1.2002	-0.0037	0.2331	0.1132	0.3012	1.2965	0.4103	0.7483	0.3442
3424.0000	-0.0026	-0.0239	-0.1324	0.1665	0.6975	0.3066	1.5915	0.9532	-0.0883	0.1145	-0.1188	0.1551	0.7919	0.3331	0.4864	0.2682
3432.0000	-0.6877	-0.4243	-1.1835	-0.1671	-1.1427	0.0765	-0.5892	-0.1706	-0.5809	-0.2107	-1.1603	-0.2717	-1.0507	0.0029	-0.4988	-0.0670
3440.0000	-0.3633	-0.2261	-0.6778	-0.0090	-0.4982	0.0924	0.0008	0.0826	-0.3412	-0.0619	-0.6654	-0.0960	-0.4320	0.0511	-0.1859	0.0006
3448.0000	0.0004	-0.0375	-0.1057	0.1608	0.3091	0.1478	1.0274	0.5707	-0.0495	0.0928	-0.1206	0.0846	0.3064	0.1587	0.2111	0.1207
3456.0000	-0.3278	-0.2215	-0.6678	0.1061	-0.7444	-0.0212	-0.2032	-0.1177	-0.3210	-0.0052	-0.6870	-0.0943	-0.7640	-0.0818	-0.3695	-0.1169
3464.0000	-0.3380	-0.2297	-0.7066	0.1248	-0.5456	0.0701	0.1983	0.1371	-0.3483	0.0110	-0.7170	-0.0595	-0.5276	0.0185	-0.2272	-0.0348
3472.0000	-0.6257	-0.3978	-1.0910	-0.1063	-1.3483	-0.0490	-0.9062	-0.4252	-0.5194	-0.1796	-1.0944	-0.2816	-1.3387	-0.1343	-0.6679	-0.1807
3480.0000	-0.7437	-0.4731	-1.2602	-0.1783	-1.7171	-0.1106	-1.3474	-0.6631	-0.5911	-0.2480	-1.2675	-0.3736	-1.7280	-0.2123	-0.8766	-0.2555
3488.0000	-0.5269	-0.3548	-1.0056	0.0542	-1.1065	-0.0109	-0.3590	-0.1676	-0.4782	-0.0727	-1.0257	-0.1870	-1.1225	-0.0909	-0.5395	-0.1449
3496.0000	-0.5104	-0.3390	-0.9625	0.0520	-1.3704	-0.1323	-0.8853	-0.5070	-0.4496	-0.0798	-0.9940	-0.2212	-1.4321	-0.2274	-0.7270	-0.2580
3504.0000	-0.6496	-0.4507	-1.0760	-0.1823	-1.5945	-0.1336	-1.1170	-0.5710	-0.4732	-0.2473	-1.1079	-0.3797	-1.6830	-0.2129	-0.8460	-0.2461
3512.0000	-0.7505	-0.4640	-1.1704	-0.3474	-1.7392	-0.1349	-1.7185	-0.8284	-0.5433	-0.3439	-1.1619	-0.4388	-1.7329	-0.2235	-0.8959	-0.2527
3520.0000	-0.3907	-0.1589	-0.5477	-0.3124	-0.6832	-0.0048	-1.2934	-0.5549	-0.3075	-0.2217	-0.4771	-0.1892	-0.5071	-0.0501	-0.2931	-0.0621
3528.0000	-0.2898	-0.0773	-0.3888	-0.2883	-0.2014	0.1091	-0.8109	-0.2512	-0.2543	-0.1738	-0.2945	-0.0892	0.0497	0.0858	0.0037	0.0639
3536.0000	-0.2748	-0.0673	-0.3808	-0.2498	-0.2676	0.0743	-0.9040	-0.3281	-0.2500	-0.1519	-0.2928	-0.0812	-0.0332	0.0435	-0.0457	0.0271
3544.0000	-0.2093	-0.0110	-0.2251	-0.3251	0.1202	0.1680	-0.6256	-0.1175	-0.1881	-0.1701	-0.1118	-0.0414	0.4204	0.1646	0.1937	0.1435
3552.0000	-0.6066	-0.1955	-0.7982	-0.6034	-0.7105	0.1152	-1.9511	-0.7272	-0.4909	-0.3847	-0.6351	-0.2542	-0.2924	0.0611	-0.2035	0.0320
3560.0000	-0.7577	-0.3052	-0.9683	-0.7982	-0.7289	0.2103	-1.8132	-0.5519	-0.5602	-0.5202	-0.7907	-0.3596	-0.2791	0.1755	-0.1693	0.1245
3568.0000	-0.8950	-0.4687	-1.0983	-0.9951	-0.8583	0.2563	-1.4646	-0.3089	-0.5620	-0.6791	-0.9498	-0.5286	-0.5051	0.2550	-0.2397	0.1866
3576.0000	-0.7161	-0.3904	-0.6984	-1.0831	-0.7464	0.1501	-1.6014	-0.4409	-0.3273	-0.7178	-0.5776	-0.5649	-0.5059	0.1825	-0.2582	0.1516
3584.0000	-0.4846	-0.2635	-0.1405	-1.3281	0.3256	0.3709	-0.5881	0.2374	-0.0460	-0.8033	0.0117	-0.5134	0.6266	0.5040	0.3577	0.4686
3592.0000	-1.0311	-0.5505	-0.8985	-1.7765	-0.4565	0.4410	-1.6705	-0.1314	-0.4336	-1.1345	-0.6767	-0.8068	0.0156	0.5418	0.0440	0.4709
3600.0000	-0.9494	-0.4629	-0.8034	-1.7179	0.1066	0.6052	-1.0783	0.2549	-0.4310	-1.0599	-0.5431	-0.6677	0.7069	0.7222	0.4140	0.6305
3608.0000	-0.3929	-0.1424	0.0328	-1.4341	1.8579	0.8983	1.1786	1.4742	-0.0468	-0.7807	0.2946	-0.2819	2.4990	1.1106	1.3906	1.0033
3616.0000	-0.0033	0.1020	0.5925	-1.1694	2.6525	0.9335	1.9912	1.8262	0.2072	-0.5557	0.8425	-0.0314	3.2783	1.1755	1.7880	1.0851
3624.0000	0.1436	0.1987	0.7633	-1.0172	3.1390	1.0281	2.6611	2.1818	0.2693	-0.4322	1.0183	0.1159	3.8015	1.2842	2.0721	1.1835
3632.0000	-0.2895	-0.0230	0.0041	-1.0911	2.1429	0.9623	1.5544	1.6332	-0.1264	-0.5420	0.2854	-0.0476	2.8888	1.1392	1.5853	1.0168
3640.0000	-0.3995	-0.0469	-0.3052	-0.9154	1.7176	0.8940	1.0523	1.3154	-0.3140	-0.4522	-0.0161	-0.0071	2.5109	1.0096	1.3676	0.8829
3648.0000	-0.2549	-0.0220	-0.1655	-0.6842	1.8769	0.8749	1.7840	1.6078	-0.2131	-0.3168	0.0671	0.0726	2.5350	1.0000	1.4075	0.8721
3656.0000	-0.2277	-0.0888	-0.1312	-0.6138	1.5140	0.7234	1.7947	1.4938	-0.1290	-0.3121	0.0279	-0.0123	1.9591	0.8482	1.1206	0.7381
3664.0000	-0.5578	-0.2624	-0.6852	-0.7122	0.8046	0.6892	1.0039	1.1200	-0.4140	-0.4201	-0.5044	-0.1511	1.3135	0.7625	0.7794	0.6349
3672.0000	-0.9362	-0.4380	-1.3222	-0.8173	-0.1607	0.5865	-0.3106	0.4483	-0.7525	-0.5372	-1.1104	-0.3112	0.4327	0.5842	0.2920	0.4494
3680.0000	-0.5504	-0.2448	-0.7015	-0.6412	0.4347	0.5397	0.3790	0.7002	-0.4217	-0.3868	-0.5354	-0.1645	0.8966	0.5811	0.5303	0.4777
3688.0000	-0.5438	-0.2783	-0.6867	-0.6327	0.3754	0.5157	0.5377	0.7586	-0.3868	-0.3952	-0.5470	-0.1977	0.7622	0.5650	0.4739	0.4625
3696.0000	-0.6983	-0.3895	-0.9414	-0.6719	-0.0858	0.4516	0.1675	0.5489	-0.4932	-0.4558	-0.8158	-0.3012	0.2586	0.4783	0.2149	0.3730
3704.0000	-0.3915	-0.2128	-0.4043	-0.6254	0.6611	0.5120	0.8759	0.9116	-0.2278	-0.3738	-0.2834	-0.1670	0.9860	0.5916	0.5948	0.5014
3712.0000	-0.4701	-0.1920	-0.4969	-0.7292	0.5502	0.5109	0.2318	0.6214	-0.3149	-0.4246	-0.3272	-0.1785	1.0010	0.5708	0.5698	0.4852
3720.0000	-0.8700	-0.4099	-1.1801	-0.8482	0.0053	0.5980	-0.1422	0.5406	-0.6727	-0.5464	-0.9730	-0.3065	0.5781	0.6151	0.3710	0.4851
3728.0000	-1.1329	-0.6358	-1.5799	-0.9708	-0.6478	0.5403	-0.3796	0.4199	-0.8132	-0.6890	-1.4094	-0.5149	-0.1846	0.5439	0.0045	0.3999
3736.0000	-0.6669	-0.4185	-0.7893	-0.8220	0.0868	0.4847	0.4950	0.7566	-0.3784	-0.5493	-0.6797	-0.3749	0.3659	0.5541	0.2929	0.4499
3744.0000	-0.6420	-0.3771	-0.7553	-0.8334	0.5326	0.6410	0.9920	1.1067	-0.3933	-0.5292	-0.6103	-0.2939	0.9238	0.7289	0.5981	0.6027
3752.0000	-1.2097	-0.6487	-1.6154	-1.1554	-0.7518	0.5355	-0.8967	0.2033	-0.8428	-0.7976	-1.4127	-0.5861	-0.2212	0.5398	-0.0343	0.4024
3760.0000	-1.0832	-0.6052	-1.3671	-1.1793	-0.3570	0.5942	-0.3195	0.5222	-0.7002	-0.7952	-1.1773	-0.5587	0.1321	0.6389	0.1689	0.5016
3768.0000	-1.0335	-0.6221	-1.2610	-1.2071	-0.0291	0.6893	0.4076	0.9432	-0.6220	-0.8096	-1.0869	-0.5563	0.4189	0.7721	0.3549	0.6202
3776.0000	-0.7224	-0.4470	-0.6919	-1.1879	0.5618	0.6803	0.8306	1.1243	-0.3298	-0.7499	-0.5319	-0.4593	0.9527	0.8120	0.6218	0.6888
3784.0000	-1.2186	-0.7050	-1.4748	-1.4471	-0.0618	0.7955	0.2002	0.9688	-0.7440	-0.9604	-1.2529	-0.6484	0.5077	0.8854	0.4079	0.7131
3792.0000	-2.0777	-1.1498	-2.8062	-1.8809	-1.9756	0.6581	-2.2911	-0.2149	-1.4208	-1.3451	-2.5180	-1.0894	-1.2443	0.6277	-0.5367	0.4288
3800.0000	-0.9829	-0.5558	-0.8390	-1.7747	0.4702	0.7820	0.0287	0.9257	-0.4113	-1.1067	-0.5971	-0.6953	1.0313	0.9464	0.6504	0.8171
3808.0000	-1.1049	-0.6720	-0.8871	-2.0804	0.5884	0.8992	0.3319	1.2153	-0.3987	-1.3067	-0.6360	-0.8449	1.1507	1.1115	0.7499	0.9632
3816.0000	-1.8129	-1.1137	-1.9627	-2.4626	-0.9181	0.8207	-1.1169	0.5611	-0.8955	-1.6594	-1.6967	-1.2654	-0.3335	0.9641	-0.0078	0.7823
3824.0000	-1.0965	-0.7101	-0.6683	-2.4529	1.3749	1.1743	1.3768	1.9800	-0.2630	-1.5090	-0.3866	-0.9208	1.9965	1.4848	1.2482	1.3056
3832.0000	-1.1572	-0.6095	-0.7563	-2.5507	1.7071	1.3310	0.9711	1.9128	-0.4102	-1.5169	-0.3654	-0.8124	2.6397	1.6246	1.5458	1.4299
3840.0000	-0.6676	-0.2845	-0.0835	-2.1827	2.8736	1.4453	2.2057	2.5006	-0.1270	-1.2019	0.3097	-0.4447	3.8474	1.7758	2.1699	1.5898
3848.0000	-0.3495	-0.1974	0.5041	-2.1668	3.6754	1.5267	3.6046	3.2174	0.2300	-1.1652	0.8386	-0.3880	4.4759	1.9472	2.5467	1.7667
3856.0000	-0.9797	-0.6174	-0.3744	-2.6074	1.9909	1.3092	1.7688	2.2864	-0.1350	-1.5584	-0.0547	-0.8753	2.7030	1.6691	1.6187	1.4878
3864.0000	-0.5749	-0.3669	0.2370	-2.4091	3.2573	1.5163	3.2651	3.1003	0.1351	-1.3549	0.5680	-0.5861	4.0259	1.9407	2.3294	1.7510
3872.0000	-0.4203	-0.1574	0.2897	-2.0708	3.8731	1.6655	3.6672	3.3296	0.0477	-1.0831	0.6862	-0.2587	4.8797	2.0569	2.7503	1.8476
3880.0000	-0.0806	0.0484	0.6506	-1.6086	4.2187	1.5825	4.1910	3.4258	0.2076	-0.7666	1.0040	0.0018	5.1423	1.9573	2.8706	1.7695
3888.0000	0.7725	0.4516	1.9114	-1.0412	5.6730	1.5581	6.3859	4.3295	0.8823	-0.3329	2.1476	0.4035	6.2952	2.0248	3.4965	1.8807
3896.0000	0.4941	0.2467	1.3590	-0.9207	4.2604	1.2289	5.0581	3.4486	0.6552	-0.3525	1.5288	0.2100	4.6979	1.6035	2.6401	1.4807
3904.0000	0.1277	-0.0059	0.7543	-0.9949	2.8607	0.9536	3.6153	2.5889	0.4049	-0.4926	0.8809	-0.0636	3.1609	1.2524	1.8200	1.1445
3912.0000	0.7453	0.4624	1.5183	-0.3943	4.1663	1.0392	4.6939	3.0329	0.6769	-0.0029	1.6676	0.4782	4.5873	1.3420	2.5228	1.2532
3920.0000	1.7930	1.1795	2.6362	0.9426	6.2008	1.1565	7.2381	4.0545	1.0866	0.9823	2.7539	1.4475	6.6745	1.4452	3.5854	1.3692
3928.0000	2.1792	1.3616	2.9192	1.7231	6.0191	0.8642	7.6100	3.8716	1.2438	1.4543	2.9164	1.7289	6.2153	1.0906	3.3250	1.0550
3936.0000	1.8715	1.1210	2.2513	1.9717	4.1607	0.3947	5.9142	2.6929	0.9768	1.4849	2.1465	1.5101	4.0784	0.4946	2.1764	0.4936
3944.0000	1.3425	0.7161	1.2244	2.1303	2.0360	-0.0099	4.3380	1.6436	0.5515	1.4214	1.0154	1.1821	1.6768	-0.0420	0.9251	-0.0384
3952.0000	0.8561	0.4078	0.4279	2.0385	-0.1668	-0.5176	1.6621	0.0341	0.2161	1.2358	0.1602	0.7921	-0.7258	-0.6783	-0.3915	-0.6281
3960.0000	1.0463	0.5108	0.6554	2.2926	-0.4963	-0.7754	1.1502	-0.4477	0.3463	1.3879	0.3306	0.8505	-1.2166	-0.9695	-0.6899	-0.8712
3968.0000	1.3920	0.6566	1.1225	2.6348	-0.4827	-1.0040	1.3597	-0.5831	0.6234	1.6032	0.7059	0.9639	-1.4556	-1.1993	-0.8320	-1.0527
3976.0000	1.3613	0.6575	1.0462	2.7018	-1.1485	-1.2439	0.2695	-1.2884	0.5898	1.6217	0.6083	0.9090	-2.1941	-1.4906	-1.2666	-1.3068
3984.0000	1.0098	0.4518	0.4337	2.6450	-2.0198	-1.3193	-0.5506	-1.7117	0.2901	1.5242	-0.0014	0.7489	-3.0514	-1.6260	-1.7139	-1.4586
3992.0000	0.8781	0.3776	0.2872	2.5260	-2.9246	-1.5938	-2.0037	-2.5782	0.2454	1.4110	-0.1689	0.5655	-4.0530	-1.9446	-2.2866	-1.7346
4000.0000	0.9644	0.4429	0.4003	2.6132	-2.9538	-1.6673	-2.2046	-2.7463	0.2943	1.4738	-0.0633	0.6118	-4.1036	-2.0294	-2.3343	-1.8020
4008.0000	0.7436	0.2809	-0.0361	2.6676	-3.4879	-1.6952	-2.3326	-2.8277	0.0959	1.4551	-0.5211	0.5265	-4.6784	-2.0940	-2.6114	-1.8880
4016.0000	1.0674	0.4475	0.5420	2.7348	-3.1882	-1.8253	-2.2447	-2.9023	0.4120	1.5286	0.0152	0.5897	-4.5199	-2.1908	-2.5536	-1.9378
4024.0000	0.8861	0.3421	0.2300	2.6856	-3.4314	-1.7829	-2.3552	-2.9092	0.2526	1.4742	-0.2837	0.5293	-4.7176	-2.1661	-2.6430	-1.9346
4032.0000	0.4973	0.1732	-0.3974	2.5315	-4.4277	-1.8970	-3.8634	-3.6730	-0.0862	1.3304	-0.8705	0.3532	-5.6102	-2.3565	-3.1461	-2.1274
4040.0000	1.0976	0.5314	0.6378	2.6599	-3.1813	-1.8633	-2.8708	-3.2195	0.4222	1.5091	0.1505	0.6100	-4.4194	-2.2392	-2.5443	-1.9668
4048.0000	0.6972	0.2438	-0.0012	2.4881	-3.8230	-1.8129	-3.0047	-3.1998	0.1408	1.3309	-0.4942	0.3928	-5.0715	-2.2094	-2.8378	-1.9782
4056.0000	0.8147	0.3047	0.2902	2.3721	-3.6019	-1.8305	-2.9994	-3.1936	0.3015	1.2798	-0.2053	0.3729	-4.8836	-2.1934	-2.7489	-1.9426
4064.0000	1.1680	0.5311	0.9502	2.3458	-2.6217	-1.7240	-2.2609	-2.7732	0.6134	1.3391	0.4727	0.5285	-3.8683	-2.0178	-2.2260	-1.7497
4072.0000	0.1485	0.0297	-0.7589	2.0226	-4.6858	-1.7845	-4.7608	-3.9207	-0.2931	1.0102	-1.1413	0.1367	-5.6553	-2.2392	-3.1814	-2.0288
4080.0000	0.6574	0.3364	0.0998	2.1381	-3.2688	-1.6093	-3.3216	-3.1463	0.1127	1.1793	-0.2753	0.4119	-4.2152	-1.9752	-2.4209	-1.7538
4088.0000	0.9394	0.4082	0.7368	1.9849	-2.8702	-1.6822	-2.8242	-2.9406	0.5139	1.1014	0.2990	0.3415	-4.0394	-1.9650	-2.3160	-1.7048
4096.0000	0.2068	-0.0214	-0.3208	1.5170	-4.7880	-1.9205	-5.2308	-4.1528	0.0270	0.6901	-0.7412	-0.1557	-5.9555	-2.2948	-3.3432	-2.0353
4104.0000	0.4409	0.1466	0.1063	1.4614	-3.3494	-1.5363	-3.5914	-3.0927	0.1898	0.7408	-0.2506	0.0595	-4.3223	-1.8231	-2.4483	-1.6033
4112.0000	0.4143	0.2189	0.0336	1.4504	-2.9304	-1.3564	-3.4555	-2.8988	0.0768	0.7746	-0.2468	0.1818	-3.6706	-1.6481	-2.1170	-1.4538
4120.0000	0.6790	0.4131	0.4023	1.6324	-2.2214	-1.2669	-2.8095	-2.5691	0.2180	0.9436	0.1388	0.3988	-2.8951	-1.5383	-1.7201	-1.3415
4128.0000	0.6023	0.2817	0.3466	1.4952	-2.1733	-1.1907	-2.1746	-2.1802	0.2501	0.8305	0.0504	0.2801	-2.9455	-1.4212	-1.6923	-1.2451
4136.0000	0.2713	0.0422	-0.0325	1.1262	-2.9496	-1.2743	-3.0331	-2.5715	0.1178	0.5416	-0.3355	-0.0327	-3.7825	-1.5095	-2.1210	-1.3334
4144.0000	0.8890	0.4037	1.0860	1.1303	-1.0093	-0.9866	-1.0456	-1.4379	0.6568	0.6718	0.8030	0.2674	-1.7950	-1.0833	-1.0591	-0.9006
4152.0000	0.6351	0.3357	0.6815	0.9899	-1.3102	-0.9286	-1.7941	-1.7231	0.3992	0.5805	0.4692	0.2186	-1.8964	-1.0651	-1.1340	-0.9011
4160.0000	0.4326	0.2512	0.3008	0.9913	-1.7410	-0.9434	-2.3306	-1.9843	0.1847	0.5574	0.1121	0.1769	-2.2499	-1.1249	-1.3284	-0.9741
4168.0000	0.8434	0.4215	0.9656	1.1574	-0.7623	-0.8517	-0.8003	-1.2284	0.5517	0.7061	0.7253	0.3474	-1.4076	-0.9543	-0.8506	-0.7969
4176.0000	0.8306	0.4082	0.9310	1.1896	-0.9953	-0.9315	-1.0776	-1.4234	0.5437	0.7135	0.6757	0.3224	-1.6852	-1.0493	-1.0055	-0.8813
4184.0000	0.7489	0.3574	0.8162	1.1093	-0.8491	-0.8148	-0.7607	-1.1706	0.4814	0.6631	0.5803	0.3052	-1.4790	-0.9191	-0.8744	-0.7751
4192.0000	0.3878	0.2155	0.2119	0.9903	-1.6473	-0.8682	-2.0145	-1.7768	0.1395	0.5529	0.0278	0.1818	-2.1327	-1.0439	-1.2469	-0.9112
4200.0000	0.4743	0.3244	0.2276	1.2209	-1.5670	-0.8862	-2.1152	-1.8841	0.0963	0.7170	0.0600	0.3377	-1.9799	-1.0968	-1.1939	-0.9603
4208.0000	0.6722	0.3387	0.6265	1.1778	-0.9592	-0.7927	-0.8635	-1.2141	0.3618	0.7002	0.4068	0.3361	-1.5269	-0.9230	-0.9020	-0.7912
4216.0000	0.4084	0.1748	0.2939	0.9310	-1.6244	-0.8760	-1.7420	-1.6404	0.2213	0.5044	0.0801	0.1206	-2.2037	-1.0263	-1.2630	-0.8918
4224.0000	0.2755	0.1450	0.0129	0.9543	-1.5546	-0.7432	-1.6436	-1.4987	0.0329	0.5229	-0.1539	0.1735	-1.9766	-0.9143	-1.1366	-0.8123
4232.0000	0.2524	0.1243	0.0717	0.7866	-1.5449	-0.7388	-1.7829	-1.5315	0.0763	0.4209	-0.0879	0.0977	-1.9694	-0.8898	-1.1337	-0.7822
4240.0000	0.7228	0.3890	0.9275	0.8196	-0.5949	-0.7291	-1.0419	-1.1931	0.5135	0.5154	0.7493	0.2542	-1.0955	-0.8034	-0.6908	-0.6567
4248.0000	0.7991	0.3767	1.0145	0.9028	-0.1722	-0.6031	0.0340	-0.6033	0.5807	0.5682	0.8101	0.3098	-0.7253	-0.6417	-0.4475	-0.5196
4256.0000	0.4742	0.1803	0.4872	0.7799	-0.8426	-0.6254	-0.5595	-0.8690	0.3273	0.4397	0.2918	0.1469	-1.3703	-0.7023	-0.7750	-0.6003
4264.0000	0.5706	0.2973	0.6497	0.7665	-0.2136	-0.4569	-0.1407	-0.5512	0.3531	0.4826	0.5101	0.2812	-0.5759	-0.5118	-0.3638	-0.4242
4272.0000	0.4820	0.2725	0.5267	0.6860	-0.2873	-0.4274	-0.3894	-0.6325	0.2740	0.4332	0.4142	0.2545	-0.5767	-0.4907	-0.3709	-0.4096
4280.0000	0.6524	0.3742	0.7918	0.7837	-0.1527	-0.4999	-0.3847	-0.7060	0.4079	0.5118	0.6615	0.3215	-0.4963	-0.5581	-0.3471	-0.4537
4288.0000	0.7004	0.3856	0.8480	0.8401	-0.0403	-0.4847	-0.0943	-0.5674	0.4434	0.5480	0.7048	0.3504	-0.4132	-0.5353	-0.2930	-0.4337
4296.0000	0.4367	0.2116	0.4407	0.7055	-0.5265	-0.4815	-0.4299	-0.6912	0.2581	0.4208	0.3007	0.2008	-0.8929	-0.5516	-0.5263	-0.4694
4304.0000	0.3010	0.1826	0.2052	0.6415	-0.3948	-0.3315	-0.3699	-0.5402	0.0942	0.3911	0.1213	0.2274	-0.5894	-0.4103	-0.3611	-0.3589
4312.0000	-0.0535	0.0418	-0.3667	0.4917	-1.2016	-0.3969	-1.6797	-1.1765	-0.2267	0.2624	-0.4003	0.0877	-1.2619	-0.5429	-0.7457	-0.4987
4320.0000	0.0371	0.0436	-0.2109	0.5360	-1.2236	-0.4681	-1.4838	-1.1432	-0.1086	0.2799	-0.2891	0.0669	-1.4153	-0.5993	-0.8165	-0.5413
4328.0000	0.2234	0.1083	0.0855	0.6148	-0.6653	-0.3781	-0.5038	-0.6290	0.0593	0.3494	-0.0181	0.1528	-0.9188	-0.4638	-0.5250	-0.4126
4336.0000	0.3253	0.1845	0.3136	0.5389	-0.3125	-0.3280	-0.3523	-0.5115	0.1628	0.3326	0.2285	0.1872	-0.5267	-0.3858	-0.3267	-0.3282
4344.0000	0.4139	0.2340	0.5148	0.4562	0.2328	-0.1876	0.2741	-0.0996	0.2580	0.3114	0.4484	0.2320	0.0680	-0.2010	0.0033	-0.1554
4352.0000	0.0491	0.0684	-0.0757	0.3043	-0.5221	-0.2216	-0.7992	-0.5987	-0.0622	0.1764	-0.0989	0.0845	-0.5688	-0.2938	-0.3474	-0.2635
4360.0000	0.0758	0.1009	-0.0463	0.3359	-0.4963	-0.2312	-0.8804	-0.6517	-0.0598	0.2035	-0.0631	0.1151	-0.5233	-0.3093	-0.3336	-0.2751
4368.0000	0.1410	0.1222	0.0475	0.3765	-0.2486	-0.1769	-0.4204	-0.4016	-0.0079	0.2369	0.0230	0.1573	-0.2896	-0.2372	-0.1950	-0.2102
4376.0000	0.2516	0.1916	0.2878	0.3202	-0.0408	-0.1890	-0.4191	-0.4041	0.1145	0.2235	0.2655	0.1701	-0.0921	-0.2273	-0.1035	-0.1844
4384.0000	0.4875	0.3231	0.7771	0.2172	0.7680	-0.0626	0.3418	0.0603	0.3606	0.2125	0.7670	0.2452	0.7339	-0.0307	0.3393	0.0169
4392.0000	0.1819	0.1970	0.2731	0.1037	0.1213	-0.0969	-0.6482	-0.4083	0.0788	0.1109	0.3053	0.1350	0.2045	-0.1205	0.0409	-0.0842
4400.0000	0.2373	0.1950	0.3278	0.1968	0.1221	-0.1267	-0.3830	-0.3202	0.1277	0.1596	0.3283	0.1500	0.1238	-0.1469	0.0109	-0.1084
4408.0000	0.4330	0.2351	0.7168	0.1662	0.5906	-0.0897	0.4683	0.1146	0.3739	0.1535	0.6739	0.1539	0.4582	-0.0471	0.2181	-0.0020
4416.0000	0.6067	0.3654	1.0405	0.1507	1.0740	-0.0393	0.6984	0.2560	0.5142	0.1873	1.0179	0.2438	0.9901	0.0317	0.4826	0.0874
4424.0000	0.5945	0.3296	1.0510	0.0802	1.3941	0.0958	1.3567	0.6820	0.5308	0.1472	1.0321	0.2385	1.3256	0.2004	0.6942	0.2327
4432.0000	0.0683	0.0329	0.2319	-0.1675	0.1081	-0.0296	-0.1657	-0.0733	0.1339	-0.0896	0.2329	-0.0589	0.0789	0.0007	0.0298	0.0208
4440.0000	0.0183	0.0218	0.0953	-0.0986	-0.0157	-0.0337	-0.2915	-0.1474	0.0490	-0.0528	0.1037	-0.0353	-0.0116	-0.0261	-0.0221	-0.0122
4448.0000	-0.1242	-0.1168	-0.1562	-0.1200	-0.1419	0.0345	0.1456	0.1220	-0.0451	-0.1009	-0.1682	-0.1082	-0.1815	0.0473	-0.0659	0.0324
4456.0000	-0.0625	-0.0655	-0.0423	-0.1099	-0.1966	-0.0382	-0.1669	-0.0845	0.0080	-0.0862	-0.0561	-0.0987	-0.2511	-0.0311	-0.1253	-0.0267
4464.0000	0.0268	-0.0221	0.1065	-0.0895	0.1308	0.0256	0.2912	0.1740	0.0824	-0.0570	0.0917	-0.0468	0.0774	0.0560	0.0588	0.0555
4472.0000	-0.4565	-0.3051	-0.6518	-0.3145	-0.9067	-0.0297	-0.7878	-0.3240	-0.2835	-0.2713	-0.6477	-0.3060	-0.9152	-0.0567	-0.4558	-0.0801
4480.0000	-0.0355	-0.0436	0.0122	-0.1253	-0.0315	0.0044	-0.0105	0.0225	0.0283	-0.0849	0.0076	-0.0760	-0.0599	0.0218	-0.0225	0.0226
4488.0000	-0.0637	-0.1028	-0.0359	-0.1243	-0.0811	0.0123	0.2629	0.1615	0.0326	-0.1023	-0.0647	-0.1158	-0.1745	0.0388	-0.0589	0.0316
4496.0000	-0.5180	-0.3617	-0.7521	-0.3319	-1.0494	-0.0374	-0.7827	-0.3209	-0.3183	-0.2989	-0.7589	-0.3514	-1.0877	-0.0671	-0.5350	-0.0956
4504.0000	-0.2979	-0.1982	-0.3997	-0.2715	-0.2197	0.1239	0.0075	0.1527	-0.1820	-0.2022	-0.3748	-0.1730	-0.1580	0.1336	-0.0449	0.0971
4512.0000	-0.5700	-0.2996	-0.8675	-0.3322	-0.9700	0.0259	-1.1827	-0.4682	-0.4461	-0.2719	-0.8092	-0.2712	-0.8167	-0.0311	-0.4244	-0.0673
4520.0000	-0.4167	-0.2196	-0.6557	-0.2062	-0.7296	0.0149	-0.8392	-0.3396	-0.3382	-0.1783	-0.6163	-0.1862	-0.6215	-0.0318	-0.3221	-0.0596
4528.0000	-0.1963	-0.1622	-0.2432	-0.2048	-0.1531	0.0791	0.1715	0.1842	-0.0863	-0.1587	-0.2447	-0.1501	-0.1664	0.0978	-0.0482	0.0727
4536.0000	-0.2064	-0.1420	-0.2102	-0.2888	-0.2595	0.0314	-0.2962	-0.0595	-0.0787	-0.2041	-0.1961	-0.1817	-0.2460	0.0450	-0.1138	0.0342
4544.0000	-0.0266	-0.0428	0.1179	-0.3026	0.4912	0.1896	0.6156	0.4863	0.0777	-0.1703	0.1441	-0.0782	0.5418	0.2572	0.3205	0.2356
4552.0000	-0.3368	-0.2311	-0.2853	-0.5796	-0.2039	0.1279	-0.2812	0.0738	-0.1007	-0.3884	-0.2459	-0.3101	-0.1436	0.1738	-0.0414	0.1489
4560.0000	-0.1930	-0.1098	-0.0984	-0.4496	-0.0103	0.1005	-0.3160	0.0077	-0.0364	-0.2801	-0.0515	-0.1949	0.0779	0.1386	0.0496	0.1280
4568.0000	-0.2996	-0.2084	-0.3329	-0.3783	-0.3013	0.0811	-0.2249	0.0301	-0.1322	-0.2705	-0.3121	-0.2372	-0.2710	0.1010	-0.1111	0.0768
4576.0000	-0.3703	-0.2814	-0.3738	-0.5062	-0.6482	-0.0133	-0.6367	-0.2082	-0.1155	-0.3742	-0.3739	-0.3677	-0.7005	0.0081	-0.3388	-0.0020
4584.0000	0.0164	-0.0264	0.2324	-0.3604	0.6303	0.2057	0.7338	0.5633	0.1434	-0.1978	0.2578	-0.0881	0.6691	0.2923	0.3901	0.2743
4592.0000	-0.5430	-0.2757	-0.7279	-0.5025	-0.5605	0.1499	-0.8625	-0.1972	-0.3831	-0.3516	-0.6396	-0.2769	-0.3369	0.1330	-0.1628	0.0877
4600.0000	-0.3229	-0.1532	-0.3522	-0.4361	-0.2777	0.0948	-0.7016	-0.1796	-0.1874	-0.2838	-0.2839	-0.2067	-0.1202	0.0997	-0.0642	0.0802
4608.0000	-0.0790	-0.0733	0.0129	-0.2854	0.3119	0.1612	0.4475	0.3843	0.0261	-0.1716	0.0359	-0.0982	0.3565	0.2142	0.2216	0.1918
4616.0000	-0.5923	-0.3544	-0.8245	-0.4726	-0.8421	0.0848	-0.8431	-0.2363	-0.3933	-0.3647	-0.7750	-0.3443	-0.7263	0.0622	-0.3505	0.0176
4624.0000	-0.1998	-0.1375	-0.0949	-0.4996	0.4129	0.2748	0.5019	0.5342	-0.0314	-0.3025	-0.0378	-0.1727	0.5411	0.3487	0.3330	0.3075
4632.0000	-0.1946	-0.0974	-0.0853	-0.5095	0.4595	0.2840	0.2969	0.4429	-0.0524	-0.2944	-0.0041	-0.1419	0.6541	0.3502	0.3752	0.3118
4640.0000	-0.2591	-0.1006	-0.2394	-0.4484	0.1405	0.2096	-0.2537	0.1163	-0.1506	-0.2653	-0.1486	-0.1379	0.3671	0.2373	0.2003	0.2057
4648.0000	-0.2184	-0.1535	-0.1071	-0.5212	0.1632	0.1867	0.1214	0.2936	-0.0249	-0.3273	-0.0620	-0.2225	0.2466	0.2499	0.1657	0.2232
4656.0000	-0.5286	-0.3066	-0.5979	-0.6565	-0.6259	0.0988	-0.9633	-0.2540	-0.2772	-0.4549	-0.5304	-0.3812	-0.4891	0.1085	-0.2389	0.0784
4664.0000	-0.2950	-0.1242	-0.2558	-0.5421	0.2559	0.2752	-0.1075	0.2514	-0.1580	-0.3201	-0.1519	-0.1637	0.5146	0.3185	0.2887	0.2770
4672.0000	-0.3067	-0.1398	-0.2666	-0.5501	0.1057	0.2238	-0.2883	0.1302	-0.1524	-0.3339	-0.1734	-0.1958	0.3286	0.2619	0.1867	0.2279
4680.0000	-0.1970	-0.0814	-0.1131	-0.4508	0.0829	0.1378	-0.3665	0.0095	-0.0685	-0.2682	-0.0428	-0.1586	0.2405	0.1713	0.1265	0.1566
4688.0000	-0.0348	-0.0226	0.1683	-0.4151	0.4825	0.1770	0.2742	0.3331	0.0933	-0.2292	0.2153	-0.1085	0.5740	0.2483	0.3192	0.2366
4696.0000	-0.1998	-0.1036	-0.0996	-0.4691	-0.0437	0.0891	-0.4588	-0.0655	-0.0420	-0.2901	-0.0465	-0.2005	0.0582	0.1240	0.0319	0.1167
4704.0000	-0.0938	-0.0228	0.0188	-0.3600	0.4042	0.1952	0.1109	0.2593	-0.0106	-0.1945	0.0868	-0.0720	0.5681	0.2422	0.3075	0.2219
4712.0000	-0.2297	-0.0786	-0.2284	-0.3715	0.0934	0.1750	-0.3121	0.0486	-0.1495	-0.2177	-0.1445	-0.1076	0.3067	0.1916	0.1617	0.1650
4720.0000	0.1453	0.1540	0.3422	-0.1618	0.7621	0.1651	0.2582	0.2626	0.1193	-0.0316	0.4107	0.0983	0.9380	0.2108	0.4738	0.2104
4728.0000	0.3825	0.2390	0.7482	-0.0945	1.2511	0.1855	1.0620	0.6431	0.3561	0.0306	0.7767	0.1635	1.3121	0.2800	0.6905	0.2895
4736.0000	-0.0466	0.0079	0.0476	-0.2484	0.2539	0.1083	-0.0946	0.0769	0.0035	-0.1292	0.0987	-0.0430	0.3750	0.1363	0.1914	0.1297
4744.0000	0.1753	0.1627	0.3454	-0.0939	1.1207	0.2951	0.9649	0.6813	0.1115	0.0207	0.4195	0.1734	1.3338	0.3572	0.7095	0.3323
4752.0000	0.1366	0.1353	0.2781	-0.0895	0.8752	0.2278	0.6717	0.4936	0.0867	0.0094	0.3417	0.1349	1.0550	0.2755	0.5560	0.2582
4760.0000	0.0364	0.0934	0.0773	-0.0487	0.3578	0.1017	-0.0468	0.0551	-0.0172	0.0106	0.1355	0.0870	0.5218	0.1059	0.2526	0.1007
4768.0000	0.1664	0.1223	0.2808	0.0246	0.5956	0.1068	0.5210	0.3144	0.1137	0.0593	0.3034	0.1204	0.6629	0.1377	0.3468	0.1353
4776.0000	-0.1316	-0.1010	-0.1543	-0.1433	-0.2538	-0.0099	-0.2035	-0.0733	-0.0528	-0.1128	-0.1579	-0.1193	-0.2774	-0.0074	-0.1344	-0.0121
4784.0000	-0.2673	-0.1977	-0.3540	-0.2504	-0.1430	0.1347	0.2264	0.2610	-0.1490	-0.1898	-0.3405	-0.1653	-0.1107	0.1534	-0.0104	0.1150
4792.0000	-0.3860	-0.2597	-0.5678	-0.2627	-0.3909	0.1278	-0.0146	0.1472	-0.2610	-0.2148	-0.5469	-0.2040	-0.3330	0.1257	-0.1264	0.0789
4800.0000	-0.3455	-0.2326	-0.5933	-0.0761	-0.6645	0.0049	-0.3020	-0.1133	-0.2752	-0.1106	-0.5980	-0.1610	-0.6663	-0.0318	-0.3193	-0.0632
4808.0000	-0.3009	-0.2474	-0.5231	-0.0465	-0.5803	0.0112	0.0763	0.0668	-0.2137	-0.0991	-0.5548	-0.1661	-0.6554	-0.0090	-0.2936	-0.0427
4816.0000	-0.4429	-0.3255	-0.7245	-0.1435	-0.9672	-0.0425	-0.4618	-0.2068	-0.3088	-0.1813	-0.7501	-0.2634	-1.0361	-0.0822	-0.5017	-0.1139
4824.0000	-0.4193	-0.2812	-0.7306	-0.0845	-0.6685	0.0627	-0.1291	0.0154	-0.3457	-0.1244	-0.7292	-0.1712	-0.6438	0.0245	-0.2914	-0.0239
4832.0000	-0.3841	-0.2212	-0.6683	-0.0903	-0.5529	0.0758	-0.2903	-0.0541	-0.3422	-0.1078	-0.6419	-0.1260	-0.4601	0.0341	-0.2140	-0.0095
4840.0000	0.1623	0.1379	0.2026	0.1408	0.5127	0.0876	0.4410	0.2412	0.0572	0.1294	0.2266	0.1711	0.5990	0.0952	0.3058	0.0910
4848.0000	0.4526	0.2838	0.6943	0.2266	1.0621	0.0882	1.0570	0.5112	0.3176	0.2191	0.6914	0.2768	1.0676	0.1392	0.5520	0.1550
4856.0000	0.1256	0.0609	0.2294	0.0078	0.2772	0.0132	0.3039	0.1492	0.1230	0.0224	0.2198	0.0374	0.2452	0.0381	0.1310	0.0459
4864.0000	0.0160	-0.0220	0.0478	-0.0525	0.4854	0.1817	0.9245	0.5827	0.0322	-0.0219	0.0539	0.0250	0.5127	0.2247	0.3132	0.1945
4872.0000	-0.1535	-0.1097	-0.2197	-0.1304	0.1085	0.1558	0.4455	0.3546	-0.1043	-0.0932	-0.2009	-0.0586	0.1682	0.1742	0.1279	0.1381
4880.0000	-0.0600	-0.0458	-0.0887	-0.0511	0.1253	0.0948	0.3342	0.2397	-0.0432	-0.0345	-0.0789	-0.0131	0.1588	0.1075	0.1062	0.0872
4888.0000	-0.1285	-0.1228	-0.2232	-0.0291	-0.0603	0.0819	0.4543	0.2880	-0.0858	-0.0465	-0.2371	-0.0606	-0.0867	0.0899	-0.0026	0.0610
4896.0000	-0.3749	-0.2636	-0.6438	-0.0788	-0.7424	-0.0016	-0.2797	-0.1052	-0.2905	-0.1221	-0.6568	-0.1847	-0.7666	-0.0395	-0.3649	-0.0736
4904.0000	-0.1013	-0.0777	-0.2460	0.0727	0.1750	0.1634	0.7462	0.4661	-0.1304	0.0331	-0.2393	0.0397	0.2279	0.1653	0.1649	0.1217
4912.0000	-0.2659	-0.1663	-0.4885	-0.0198	-0.3477	0.0731	0.0148	0.0735	-0.2451	-0.0527	-0.4784	-0.0740	-0.2979	0.0455	-0.1256	0.0082
4920.0000	-0.5162	-0.3321	-0.9149	-0.0609	-1.1420	-0.0490	-0.7302	-0.3532	-0.4340	-0.1348	-0.9227	-0.2282	-1.1451	-0.1227	-0.5709	-0.1613
4928.0000	-0.2121	-0.1890	-0.4091	0.0355	-0.4071	0.0182	0.2616	0.1424	-0.1656	-0.0346	-0.4432	-0.0989	-0.4820	0.0010	-0.2060	-0.0296
4936.0000	-0.0906	-0.0913	-0.1337	-0.0479	-0.1990	-0.0083	0.0468	0.0298	-0.0379	-0.0558	-0.1527	-0.0806	-0.2541	-0.0067	-0.1134	-0.0145
4944.0000	-0.3213	-0.1818	-0.5449	-0.1117	-0.2704	0.1369	0.0044	0.1320	-0.2860	-0.1035	-0.5097	-0.0904	-0.1536	0.1154	-0.0477	0.0684
4952.0000	-0.0843	-0.0602	-0.1275	-0.0644	0.1210	0.1112	0.3588	0.2666	-0.0635	-0.0448	-0.1145	-0.0201	0.1650	0.1239	0.1131	0.0992
4960.0000	0.1956	0.0775	0.3572	0.0160	0.4272	0.0212	0.5921	0.2897	0.2032	0.0315	0.3317	0.0461	0.3481	0.0648	0.1951	0.0750
4968.0000	-0.4508	-0.2685	-0.7877	-0.0805	-0.9259	-0.0194	-0.7080	-0.3213	-0.3888	-0.1244	-0.7770	-0.1842	-0.8810	-0.0836	-0.4436	-0.1180
4976.0000	-0.2244	-0.1474	-0.3839	-0.0314	-0.7567	-0.1271	-0.7437	-0.4325	-0.1698	-0.0716	-0.4017	-0.1414	-0.8102	-0.1719	-0.4293	-0.1701
4984.0000	0.1014	0.0260	0.1638	0.0471	0.2028	0.0095	0.4330	0.2031	0.1023	0.0338	0.1394	0.0269	0.1360	0.0312	0.0860	0.0334
4992.0000	-0.6525	-0.3375	-1.1507	-0.1139	-1.2782	-0.0087	-1.2709	-0.5713	-0.6052	-0.1600	-1.1020	-0.2177	-1.1183	-0.1145	-0.5813	-0.1632
5000.0000	-0.1847	-0.1217	-0.3401	0.0048	-0.4893	-0.0469	-0.3372	-0.1884	-0.1586	-0.0365	-0.3499	-0.0843	-0.5092	-0.0797	-0.2592	-0.0901
5008.0000	-0.0071	-0.0893	-0.0137	0.0244	-0.1110	-0.0264	0.4560	0.1984	0.0528	-0.0174	-0.0699	-0.0705	-0.2666	-0.0089	-0.1016	-0.0139
5016.0000	-0.3691	-0.2204	-0.6456	-0.0518	-0.9557	-0.0944	-0.8883	-0.4696	-0.3119	-0.1008	-0.6476	-0.1740	-0.9553	-0.1592	-0.4989	-0.1744
5024.0000	0.1102	0.0459	0.1937	0.0107	0.3962	0.0750	0.5834	0.3276	0.1033	0.0249	0.1882	0.0510	0.3835	0.1071	0.2182	0.1020
5032.0000	-0.1241	-0.0938	-0.2015	-0.0461	-0.2072	0.0136	-0.0123	0.0175	-0.0860	-0.0528	-0.2069	-0.0690	-0.2195	0.0074	-0.0979	-0.0058
5040.0000	-0.0738	-0.0518	-0.1821	0.0920	-0.4109	-0.0955	-0.3401	-0.2445	-0.0825	0.0293	-0.2029	-0.0292	-0.4610	-0.1294	-0.2471	-0.1253
5048.0000	0.0609	-0.0365	0.1216	0.0130	-0.0613	-0.0641	0.2898	0.0907	0.1163	-0.0116	0.0678	-0.0565	-0.2203	-0.0431	-0.0941	-0.0334
5056.0000	-0.2621	-0.2027	-0.3874	-0.1363	-0.7828	-0.1151	-0.6362	-0.3512	-0.1439	-0.1480	-0.4165	-0.2160	-0.8793	-0.1412	-0.4493	-0.1424
5064.0000	0.0129	-0.0210	0.0408	-0.0355	0.2399	0.0862	0.5229	0.3190	0.0345	-0.0200	0.0359	-0.0015	0.2293	0.1129	0.1473	0.0984
5072.0000	-0.0399	-0.0331	-0.0227	-0.1020	0.2270	0.1140	0.3806	0.2838	-0.0095	-0.0584	-0.0074	-0.0187	0.2694	0.1386	0.1642	0.1197
5080.0000	0.0717	0.0469	0.0969	0.0588	0.1370	0.0037	0.1363	0.0546	0.0420	0.0476	0.0949	0.0505	0.1359	0.0069	0.0682	0.0102
5088.0000	0.0037	-0.0367	-0.0066	0.0367	-0.0941	-0.0324	0.1594	0.0478	0.0244	0.0061	-0.0365	-0.0276	-0.1759	-0.0292	-0.0777	-0.0287
5096.0000	-0.3228	-0.2319	-0.4557	-0.2136	-0.8565	-0.1055	-0.7953	-0.4047	-0.1795	-0.1994	-0.4734	-0.2562	-0.9277	-0.1322	-0.4760	-0.1359
5104.0000	0.1407	0.0416	0.3586	-0.1571	0.3969	0.0341	0.4198	0.2494	0.2148	-0.0771	0.3446	-0.0361	0.3292	0.0935	0.1855	0.1055
5112.0000	0.0625	0.0544	0.2036	-0.1491	0.1741	0.0011	-0.1869	-0.0653	0.0987	-0.0692	0.2223	-0.0228	0.2009	0.0249	0.0881	0.0402
5120.0000	0.0344	0.0482	0.0662	-0.0008	-0.0619	-0.0564	-0.3731	-0.2212	0.0193	0.0095	0.0756	0.0128	-0.0440	-0.0666	-0.0484	-0.0510
5128.0000	0.0357	-0.0284	0.1113	-0.0613	0.0426	-0.0127	0.2466	0.1202	0.0947	-0.0465	0.0828	-0.0562	-0.0494	0.0138	-0.0082	0.0182
5136.0000	-0.5461	-0.3397	-0.8088	-0.3288	-1.1608	-0.0641	-1.1740	-0.5282	-0.3711	-0.2916	-0.7950	-0.3379	-1.1425	-0.1137	-0.5857	-0.1370
5144.0000	-0.3847	-0.2628	-0.5405	-0.2911	-0.5623	0.0545	-0.3227	-0.0478	-0.2363	-0.2385	-0.5292	-0.2439	-0.5430	0.0474	-0.2486	0.0148
5152.0000	-0.3816	-0.2697	-0.5164	-0.3124	-0.6629	0.0098	-0.4712	-0.1470	-0.2129	-0.2570	-0.5145	-0.2741	-0.6780	0.0025	-0.3240	-0.0217
5160.0000	-0.5323	-0.3133	-0.8692	-0.1898	-1.1749	-0.0673	-1.1436	-0.5418	-0.4217	-0.2038	-0.8538	-0.2667	-1.1327	-0.1382	-0.5855	-0.1655
5168.0000	-0.2890	-0.2241	-0.4485	-0.1214	-0.7713	-0.0864	-0.4988	-0.2662	-0.1744	-0.1432	-0.4778	-0.2130	-0.8614	-0.1132	-0.4302	-0.1231
5176.0000	-0.4347	-0.2703	-0.6628	-0.2211	-1.0737	-0.1071	-1.1266	-0.5598	-0.3023	-0.2136	-0.6612	-0.2734	-1.0850	-0.1593	-0.5666	-0.1702
5184.0000	-0.4046	-0.2123	-0.6588	-0.1814	-0.4481	0.1221	-0.3532	-0.0349	-0.3510	-0.1526	-0.6080	-0.1342	-0.2942	0.0885	-0.1314	0.0418
5192.0000	-0.0416	-0.0635	0.0410	-0.1994	0.1421	0.0732	0.2969	0.2330	0.0520	-0.1277	0.0396	-0.0947	0.1196	0.1132	0.0892	0.1039
5200.0000	-0.0579	-0.1010	-0.0167	-0.1241	-0.2755	-0.0711	-0.0657	-0.0559	0.0511	-0.1090	-0.0569	-0.1452	-0.4097	-0.0544	-0.1964	-0.0466
5208.0000	-0.4928	-0.3784	-0.7500	-0.2385	-1.2145	-0.1105	-0.7541	-0.3760	-0.2940	-0.2578	-0.7911	-0.3590	-1.3447	-0.1483	-0.6650	-0.1697
5216.0000	-0.3969	-0.3008	-0.4962	-0.3649	-1.0364	-0.1327	-0.9954	-0.4895	-0.1717	-0.3093	-0.5215	-0.3679	-1.1490	-0.1484	-0.5863	-0.1482
5224.0000	-0.3069	-0.2048	-0.3702	-0.3370	-0.3819	0.0581	-0.3375	-0.0476	-0.1566	-0.2475	-0.3499	-0.2256	-0.3487	0.0662	-0.1578	0.0438
5232.0000	-0.6566	-0.3845	-0.9758	-0.4067	-1.2133	-0.0072	-1.2874	-0.5244	-0.4702	-0.3431	-0.9355	-0.3664	-1.1192	-0.0631	-0.5706	-0.1005
5240.0000	-0.1868	-0.1124	-0.2934	-0.0821	-0.4562	-0.0429	-0.4818	-0.2396	-0.1378	-0.0829	-0.2909	-0.1084	-0.4536	-0.0677	-0.2377	-0.0733
5248.0000	-0.2511	-0.1758	-0.4407	-0.0317	-0.5841	-0.0340	-0.3074	-0.1553	-0.1980	-0.0724	-0.4543	-0.1269	-0.6144	-0.0667	-0.3027	-0.0849
5256.0000	-0.7276	-0.4287	-1.1804	-0.2698	-1.6375	-0.1059	-1.6288	-0.7801	-0.5703	-0.2859	-1.1606	-0.3739	-1.5866	-0.2032	-0.8230	-0.2376
5264.0000	-0.2770	-0.1976	-0.4055	-0.1968	-0.1675	0.1380	0.2462	0.2635	-0.1823	-0.1585	-0.3912	-0.1420	-0.1241	0.1471	-0.0172	0.1048
5272.0000	-0.2121	-0.1786	-0.2785	-0.1935	-0.1878	0.0799	0.2122	0.2032	-0.0999	-0.1571	-0.2845	-0.1562	-0.2110	0.0969	-0.0668	0.0689
5280.0000	-0.1641	-0.0937	-0.3404	0.0604	-0.3884	-0.0182	-0.2368	-0.1309	-0.1753	0.0066	-0.3409	-0.0333	-0.3727	-0.0556	-0.1893	-0.0707
5288.0000	-0.2159	-0.1439	-0.3892	-0.0175	-0.4207	0.0041	-0.1625	-0.0629	-0.1841	-0.0513	-0.3930	-0.0875	-0.4197	-0.0229	-0.2007	-0.0443
5296.0000	-0.6303	-0.3811	-0.9590	-0.3411	-1.3311	-0.0673	-1.3586	-0.6138	-0.4516	-0.3103	-0.9380	-0.3641	-1.2894	-0.1319	-0.6634	-0.1610
5304.0000	-0.4480	-0.2735	-0.7382	-0.1856	-0.3939	0.1829	0.0718	0.2159	-0.3717	-0.1687	-0.7003	-0.1563	-0.2676	0.1617	-0.0874	0.0973
5312.0000	-0.1898	-0.1760	-0.2440	-0.1860	-0.0474	0.1208	0.4867	0.3622	-0.0793	-0.1490	-0.2523	-0.1400	-0.0733	0.1491	0.0169	0.1147
5320.0000	-0.1577	-0.1449	-0.2751	-0.0184	-0.3247	-0.0000	0.1200	0.0686	-0.1017	-0.0540	-0.3020	-0.0991	-0.3926	-0.0076	-0.1730	-0.0259
5328.0000	-0.5564	-0.3718	-1.0326	-0.0053	-0.9532	0.0684	-0.1303	0.0105	-0.4960	-0.1047	-1.0384	-0.1905	-0.9279	0.0017	-0.4244	-0.0656
5336.0000	-0.6967	-0.4680	-1.1171	-0.2793	-1.3941	-0.0265	-0.8980	-0.3707	-0.5054	-0.2981	-1.1226	-0.3852	-1.4087	-0.0898	-0.6897	-0.1399
5344.0000	-0.5481	-0.3631	-0.9061	-0.2057	-0.6452	0.1633	0.0422	0.1962	-0.4323	-0.2087	-0.8857	-0.2276	-0.5665	0.1350	-0.2281	0.0631
5352.0000	-0.8741	-0.5363	-1.4598	-0.2946	-1.3093	0.1456	-0.6527	-0.1217	-0.7179	-0.3097	-1.4175	-0.3570	-1.1633	0.0680	-0.5399	-0.0246
5360.0000	-0.7275	-0.4695	-1.2360	-0.1908	-1.3290	0.0330	-0.7043	-0.2504	-0.5872	-0.2418	-1.2290	-0.3264	-1.2875	-0.0434	-0.6189	-0.1101
5368.0000	-0.8525	-0.5472	-1.4932	-0.1515	-1.5512	0.0490	-0.7265	-0.2516	-0.7176	-0.2402	-1.4863	-0.3488	-1.4950	-0.0492	-0.7150	-0.1328
5376.0000	-1.0215	-0.6139	-1.7083	-0.3095	-2.0450	-0.0364	-1.6689	-0.7307	-0.8321	-0.3558	-1.6785	-0.4677	-1.9459	-0.1630	-0.9795	-0.2358
5384.0000	-0.8856	-0.5414	-1.5555	-0.1704	-1.3866	0.1374	-0.5818	-0.1152	-0.7734	-0.2406	-1.5207	-0.3147	-1.2437	0.0407	-0.5789	-0.0581
5392.0000	-1.3913	-0.8372	-2.3811	-0.3423	-2.6387	0.0191	-1.8977	-0.7804	-1.1707	-0.4335	-2.3377	-0.5829	-2.4771	-0.1539	-1.2278	-0.2695
5400.0000	-0.9683	-0.6140	-1.6711	-0.1950	-2.0576	-0.0678	-1.4113	-0.6511	-0.7952	-0.2942	-1.6724	-0.4432	-2.0354	-0.1952	-1.0151	-0.2667
5408.0000	-0.7287	-0.4984	-1.3313	-0.0251	-1.4577	0.0039	-0.4717	-0.1882	-0.6223	-0.1588	-1.3553	-0.2963	-1.4816	-0.0892	-0.7056	-0.1624
5416.0000	-1.3946	-0.8512	-2.3533	-0.3632	-3.1360	-0.1809	-2.6790	-1.2936	-1.1291	-0.4675	-2.3402	-0.6733	-3.0828	-0.3751	-1.5753	-0.4560
5424.0000	-1.3204	-0.8298	-2.2611	-0.3236	-2.3834	0.0715	-1.3506	-0.4857	-1.0923	-0.4176	-2.2348	-0.5618	-2.2659	-0.0752	-1.0941	-0.1975
5432.0000	-1.1730	-0.7124	-2.0227	-0.2754	-2.0263	0.0989	-1.1997	-0.4090	-0.9984	-0.3528	-1.9808	-0.4619	-1.8645	-0.0355	-0.8995	-0.1488
5440.0000	-0.9386	-0.5802	-1.6504	-0.1369	-2.0780	-0.0954	-1.5343	-0.7418	-0.7968	-0.2530	-1.6494	-0.4083	-2.0459	-0.2340	-1.0328	-0.2996
5448.0000	-1.2179	-0.8519	-2.1048	-0.2294	-2.5097	-0.0423	-1.0656	-0.4484	-0.9516	-0.3833	-2.1504	-0.5997	-2.5978	-0.1751	-1.2496	-0.2805
5456.0000	-1.3207	-0.8464	-2.1276	-0.5088	-2.8391	-0.1323	-2.2864	-1.0464	-0.9850	-0.5470	-2.1245	-0.7191	-2.8348	-0.2781	-1.4271	-0.3562
5464.0000	-0.6123	-0.3851	-1.0557	-0.1501	-0.9235	0.1069	-0.3174	-0.0244	-0.5167	-0.1873	-1.0347	-0.2343	-0.8366	0.0489	-0.3820	-0.0207
5472.0000	-0.9352	-0.5813	-1.6105	-0.2272	-1.5129	0.1212	-0.7021	-0.1721	-0.7892	-0.2864	-1.5795	-0.3667	-1.3874	0.0247	-0.6515	-0.0738
5480.0000	-0.9019	-0.5247	-1.4983	-0.2919	-1.8273	-0.0450	-1.6592	-0.7407	-0.7394	-0.3203	-1.4618	-0.4108	-1.7155	-0.1614	-0.8750	-0.2209
5488.0000	-0.6941	-0.4794	-1.2079	-0.1276	-1.2877	0.0334	-0.4038	-0.1177	-0.5561	-0.2096	-1.2234	-0.3151	-1.3021	-0.0368	-0.6114	-0.1065
5496.0000	-1.0308	-0.6557	-1.6285	-0.4469	-2.2705	-0.1316	-1.9863	-0.9250	-0.7507	-0.4564	-1.6235	-0.5866	-2.2700	-0.2444	-1.1533	-0.2972
5504.0000	-0.7540	-0.4299	-1.2192	-0.3131	-1.3258	0.0353	-1.2118	-0.4711	-0.6102	-0.2981	-1.1702	-0.3368	-1.1831	-0.0461	-0.5939	-0.1040
5512.0000	-0.6763	-0.4394	-1.1147	-0.2408	-1.1077	0.0756	-0.5148	-0.1222	-0.5271	-0.2582	-1.1004	-0.3140	-1.0522	0.0195	-0.4925	-0.0471
5520.0000	-0.2055	-0.1813	-0.2154	-0.2418	-0.6817	-0.1306	-0.6633	-0.3583	-0.0418	-0.2042	-0.2482	-0.2534	-0.8093	-0.1328	-0.4164	-0.1212
5528.0000	-0.1984	-0.1661	-0.3042	-0.0933	-0.4330	-0.0198	-0.1092	-0.0406	-0.1124	-0.1046	-0.3263	-0.1457	-0.4978	-0.0280	-0.2337	-0.0423
5536.0000	-0.5043	-0.2866	-0.7549	-0.2919	-1.1392	-0.0883	-1.3684	-0.6478	-0.3635	-0.2562	-0.7301	-0.2962	-1.0896	-0.1476	-0.5769	-0.1622
5544.0000	0.4289	0.2809	0.8053	-0.0302	1.0448	0.0699	0.6116	0.3308	0.3817	0.0699	0.8235	0.1731	1.0713	0.1437	0.5368	0.1756
5552.0000	0.3930	0.2186	0.7251	-0.0157	1.2097	0.1724	1.2740	0.7217	0.3596	0.0677	0.7308	0.1710	1.2163	0.2646	0.6533	0.2707
5560.0000	0.3255	0.1902	0.7457	-0.2300	0.6769	-0.0149	0.1135	0.0720	0.3910	-0.0792	0.7502	0.0092	0.6338	0.0650	0.3049	0.1103
5568.0000	0.8202	0.4824	1.5307	-0.0069	1.6211	-0.0071	0.9901	0.4388	0.7730	0.1326	1.5119	0.2562	1.5149	0.1251	0.7506	0.2029
5576.0000	0.7101	0.4504	1.4580	-0.2239	1.3245	-0.0668	0.1661	0.0430	0.7312	-0.0048	1.4678	0.1427	1.2671	0.0573	0.5917	0.1501
5584.0000	1.1634	0.7240	2.2683	-0.1979	2.6335	0.0994	1.4074	0.7343	1.1185	0.1028	2.2908	0.3624	2.6042	0.3136	1.2963	0.4187
5592.0000	1.5353	0.9339	2.8073	0.0513	3.3974	0.1376	2.3498	1.1548	1.3793	0.3083	2.8052	0.5830	3.3161	0.3881	1.6709	0.5067
5600.0000	1.9767	1.2445	3.6568	0.0160	3.9541	-0.0039	1.9473	0.8482	1.7874	0.3662	3.6607	0.7001	3.8413	0.2880	1.8726	0.4788
5608.0000	2.0055	1.2533	3.6755	0.0583	4.2595	0.1025	2.5226	1.1916	1.7904	0.4019	3.6841	0.7572	4.1757	0.4104	2.0707	0.5823
5616.0000	1.6344	1.0758	3.1041	-0.1411	3.4768	0.0579	1.4008	0.6706	1.4891	0.2349	3.1528	0.5791	3.4945	0.3130	1.6973	0.4727
5624.0000	2.4914	1.6406	4.6089	-0.0386	5.6601	0.2544	3.0072	1.5274	2.1827	0.4741	4.6927	1.0106	5.7573	0.6432	2.8485	0.8480
5632.0000	2.8879	1.8647	5.2112	0.1737	6.6065	0.3425	4.1512	2.0859	2.4731	0.6669	5.2780	1.2427	6.6714	0.7830	3.3354	0.9968
5640.0000	3.2771	2.1278	5.9619	0.1504	6.9637	0.1657	3.6573	1.7107	2.8454	0.7143	6.0206	1.3217	6.9594	0.6380	3.4179	0.9232
5648.0000	3.7974	2.4617	6.7938	0.3515	8.2313	0.2783	4.8078	2.2857	3.2245	0.9356	6.8589	1.6273	8.2528	0.8160	4.0831	1.1213
5656.0000	3.6777	2.4483	6.6359	0.2312	8.0420	0.2780	4.1631	2.0007	3.1122	0.8653	6.7457	1.5886	8.1785	0.7945	4.0179	1.1005
5664.0000	4.5376	3.0099	8.1957	0.2557	10.2024	0.4546	5.6401	2.7952	3.8431	1.0568	8.3401	1.9800	10.4030	1.1138	5.1448	1.4725
5672.0000	4.8535	3.2143	8.6366	0.4826	10.9605	0.5300	6.4665	3.1920	4.0332	1.2525	8.7802	2.2096	11.1799	1.2162	5.5487	1.5803
5680.0000	4.9830	3.3329	8.9662	0.3534	10.8515	0.3613	5.5170	2.6329	4.1926	1.1991	9.1201	2.1747	11.0550	1.0493	5.4213	1.4658
5688.0000	5.7742	3.8144	10.3136	0.5295	12.7875	0.5243	7.2665	3.5253	4.8366	1.4519	10.4684	2.5657	12.9861	1.3349	6.4207	1.7882
5696.0000	6.0415	4.1028	10.7164	0.6533	13.3746	0.5447	6.9681	3.3601	4.9406	1.6124	10.9394	2.8107	13.7670	1.3464	6.7607	1.8260
5704.0000	7.1086	4.8258	12.6580	0.6722	16.0039	0.7384	8.5154	4.1923	5.8355	1.8499	12.9373	3.3038	16.5091	1.7076	8.1319	2.2600
5712.0000	7.8165	5.1789	13.8378	0.8769	17.9017	0.9660	10.9712	5.4702	6.4421	2.0848	14.0779	3.6389	18.3062	2.0730	9.1163	2.6345
5720.0000	7.9927	5.3860	14.1544	0.8872	18.0481	0.8717	10.1425	4.9935	6.5385	2.1458	14.4411	3.7479	18.5631	1.9623	9.1754	2.5654
5728.0000	8.9372	6.0550	15.7505	1.0971	20.3775	1.0627	11.6064	5.7539	7.2363	2.4780	16.0949	4.2887	21.0447	2.2710	10.4142	2.9272
5736.0000	9.3138	6.3288	16.3721	1.2037	21.3088	1.1415	12.1801	6.0500	7.5008	2.6261	16.7427	4.5197	22.0490	2.3922	10.9138	3.0684
5744.0000	9.8801	6.7957	17.3833	1.2229	22.7826	1.2674	12.5696	6.2969	7.9061	2.7865	17.8364	4.8597	23.7335	2.5842	11.7255	3.3019
5752.0000	10.9061	7.4318	19.0054	1.6480	25.3654	1.5291	15.1768	7.6171	8.6544	3.2355	19.4606	5.4697	26.3466	2.9832	13.0891	3.7302
5760.0000	11.6366	7.9196	20.2929	1.7570	26.7553	1.5072	15.7388	7.8210	9.2596	3.4373	20.7575	5.7830	27.7300	3.0450	13.7489	3.8630
5768.0000	12.0717	8.3067	21.0606	1.7714	28.0344	1.6601	16.0881	8.0740	9.5418	3.5746	21.6127	6.0869	29.2440	3.2478	14.4838	4.0904
5776.0000	12.2216	8.4710	21.2479	1.8824	28.6833	1.8056	16.5066	8.3505	9.5645	3.7010	21.8534	6.2903	30.0643	3.4004	14.8988	4.2323
5784.0000	12.8202	8.9345	22.3099	1.9084	30.4152	2.0135	17.4291	8.9098	10.0030	3.8706	22.9933	6.6548	32.0014	3.6964	15.8669	4.5561
5792.0000	13.0405	9.1267	22.3901	2.3849	31.5898	2.3584	19.2345	9.9263	9.9427	4.2313	23.1188	7.0815	33.3940	4.0444	16.6338	4.8439
5800.0000	12.5513	8.8485	21.3384	2.6165	30.5696	2.3657	18.8324	9.7164	9.3922	4.2862	22.0702	7.0247	32.4483	3.9418	16.1685	4.6827
5808.0000	11.5714	8.2698	19.5939	2.4835	28.7031	2.3869	17.5702	9.1884	8.5194	4.0471	20.3571	6.6672	30.7145	3.8253	15.3095	4.4785
5816.0000	10.0593	7.3177	16.7944	2.4738	25.6930	2.3962	16.1097	8.5575	7.1504	3.7690	17.5552	6.1347	27.7932	3.6117	13.8873	4.1178
5824.0000	9.2843	6.8500	15.5015	2.2332	24.1581	2.3749	14.8762	8.0244	6.5218	3.4956	16.2849	5.7784	26.3333	3.4965	13.1545	3.9464
5832.0000	8.5665	6.3583	14.1476	2.2645	22.9261	2.4679	14.8462	8.1011	5.8768	3.3789	14.9144	5.5393	25.1146	3.5030	12.6038	3.8620
5840.0000	7.5631	5.5975	12.3716	2.1929	20.2896	2.2226	13.5948	7.3833	5.1248	3.0928	13.0321	4.9676	22.2086	3.1226	11.1691	3.4199
5848.0000	7.1310	5.3304	11.8279	1.7966	19.0483	2.0253	11.9023	6.5187	4.8993	2.7717	12.4909	4.5968	20.9232	2.8830	10.4740	3.1951
5856.0000	6.8692	5.2444	11.3078	1.8070	18.9820	2.2034	11.8882	6.6454	4.5734	2.7718	12.0389	4.6357	21.0841	3.0214	10.5703	3.2835
5864.0000	6.9850	5.2853	11.6922	1.5276	19.3625	2.2355	12.0509	6.7924	4.7986	2.6247	12.4257	4.5552	21.4262	3.1199	10.7520	3.3999
5872.0000	7.3437	5.4752	12.4257	1.4290	20.0028	2.1962	12.3697	6.9213	5.1921	2.6178	13.1397	4.6007	21.9710	3.1518	11.0189	3.4756
5880.0000	7.9551	5.8948	13.3698	1.7287	21.2659	2.2407	13.2457	7.2940	5.6063	2.9155	14.0932	4.9745	23.2698	3.2452	11.6584	3.6070
5888.0000	8.8135	6.5156	15.0445	1.5720	23.0770	2.2490	13.4439	7.3856	6.3789	3.0078	15.8296	5.2836	25.1770	3.3784	12.5534	3.8375
5896.0000	9.3935	6.9887	16.0258	1.6665	24.8122	2.4787	14.3730	7.9515	6.7568	3.2223	16.9000	5.6927	27.1621	3.6813	13.5440	4.1608
5904.0000	10.4150	7.7034	17.8130	1.7856	27.4925	2.7392	16.1259	8.9132	7.5495	3.5214	18.7576	6.2485	30.0192	4.0928	14.9843	4.6253
5912.0000	11.6724	8.5364	19.9706	2.0443	30.2799	2.8705	17.9142	9.7663	8.5470	3.9221	20.9434	6.8702	32.8573	4.3841	16.3951	5.0047
5920.0000	12.3663	9.0270	20.9080	2.5680	32.2048	3.1395	19.9172	10.7958	8.9097	4.3890	21.9153	7.4546	34.9391	4.7105	17.4778	5.3273
5928.0000	12.6658	9.2696	21.5156	2.4609	32.9734	3.1889	19.9569	10.8554	9.1717	4.4038	22.5692	7.5799	35.8076	4.8086	17.8901	5.4564
5936.0000	12.6550	9.3400	21.4052	2.5768	33.1951	3.2917	19.9972	10.9255	9.0474	4.5025	22.5108	7.7191	36.2029	4.8860	18.0829	5.5154
5944.0000	12.5712	9.3836	21.1550	2.6518	33.9425	3.6603	20.9056	11.6113	8.8197	4.5941	22.3590	7.9277	37.2802	5.2536	18.6743	5.8150
5952.0000	12.8810	9.5743	21.6898	2.7155	34.5917	3.6792	21.3835	11.8302	9.0783	4.6869	22.8904	8.0644	37.9113	5.3144	18.9909	5.8985
5960.0000	12.9769	9.6035	21.5823	3.1934	34.6837	3.6963	22.2494	12.1697	9.0149	4.9696	22.7364	8.2626	37.9391	5.2971	19.0349	5.8586
5968.0000	11.9548	9.0338	19.9049	2.8126	32.7858	3.7069	20.4126	11.4032	8.1673	4.5915	21.1261	7.8199	36.2389	5.1829	18.1680	5.6712
5976.0000	11.0949	8.5201	18.3028	2.8157	31.1120	3.7252	19.4668	10.9962	7.3629	4.4485	19.5404	7.5472	34.6681	5.0670	17.3957	5.4713
5984.0000	10.3612	8.0700	16.7185	3.1312	30.3462	4.0465	20.3351	11.6150	6.5301	4.5288	17.9808	7.5348	34.0973	5.2789	17.2115	5.5400
5992.0000	8.5035	6.9067	13.4572	2.8354	26.5378	3.9800	17.8795	10.5177	4.9564	4.0195	14.7287	6.7490	30.3823	4.9622	15.3706	5.0722
6000.0000	6.6258	5.6137	9.8681	3.0654	22.2508	3.8093	16.2745	9.6646	3.2791	3.7608	11.0323	6.0267	25.9300	4.4926	13.2032	4.4285
6008.0000	4.4180	4.2091	6.0128	2.6964	17.5475	3.6590	13.1843	8.2310	1.4418	3.1321	7.1669	5.0428	21.2690	4.0443	10.8841	3.8120
6016.0000	2.0685	2.7234	2.0029	2.1744	12.1725	3.3333	9.0113	6.1856	-0.4507	2.3774	3.1397	3.8942	15.8843	3.3926	8.1550	3.0182
6024.0000	0.4017	1.5832	-1.0667	2.1552	8.8629	3.3566	8.0330	5.8068	-1.8896	2.0373	0.0147	3.2360	12.5251	3.2002	6.5606	2.6536
6032.0000	-1.8450	0.1302	-4.9299	1.6936	3.9706	3.1536	4.7419	4.2580	-3.7035	1.3361	-3.8738	2.1651	7.6161	2.7050	4.1131	1.9985
6040.0000	-3.8805	-1.3180	-8.6237	1.6604	-1.1173	2.7631	2.1529	2.8312	-5.3561	0.8604	-7.7196	1.1628	2.1867	2.0125	1.4234	1.1645
6048.0000	-5.7870	-2.6168	-11.8916	1.2658	-5.2823	2.5929	-0.2100	1.7270	-6.8448	0.2423	-11.0483	0.2009	-2.1027	1.6145	-0.6861	0.6248
6056.0000	-8.3271	-4.1737	-16.2116	0.6514	-10.8551	2.3259	-4.7374	-0.4238	-8.9220	-0.5788	-15.3437	-0.9902	-7.5634	0.9981	-3.4583	-0.1529
6064.0000	-10.1622	-5.4698	-19.5484	0.5976	-14.9361	2.1752	-6.3194	-1.2017	-10.4389	-1.0006	-18.7857	-1.8231	-11.8456	0.6025	-5.5322	-0.7092
6072.0000	-11.6991	-6.6040	-22.1048	0.1929	-18.6402	1.8978	-8.3350	-2.2269	-11.5220	-1.5893	-21.4556	-2.7517	-15.8575	0.1595	-7.5086	-1.2450
6080.0000	-13.5411	-7.8995	-25.3837	0.0583	-23.2792	1.5167	-10.9994	-3.6739	-12.9874	-2.0773	-24.8598	-3.6968	-20.7895	-0.4899	-9.9685	-2.0105
6088.0000	-15.7335	-9.3714	-29.1643	-0.3494	-28.2777	1.2388	-14.1499	-5.2188	-14.7208	-2.7617	-28.7102	-4.7974	-25.9325	-1.0530	-12.5278	-2.7228
6096.0000	-17.6337	-10.5891	-32.3448	-0.8635	-32.7244	0.9264	-17.7210	-6.9852	-16.1992	-3.4344	-31.9146	-5.7921	-30.4333	-1.6192	-14.8157	-3.3918
6104.0000	-18.6312	-11.3695	-34.1964	-0.8091	-35.0460	0.8211	-18.1011	-7.2073	-16.9929	-3.6426	-33.8774	-6.2819	-33.0057	-1.8489	-16.0352	-3.7161
6112.0000	-20.2849	-12.5730	-36.9224	-1.2926	-38.9613	0.5437	-20.3411	-8.3215	-18.1568	-4.2962	-36.7099	-7.2785	-37.2130	-2.3005	-18.1108	-4.2672
6120.0000	-22.2222	-13.9456	-40.2760	-1.5778	-43.9810	0.0706	-23.5299	-10.0543	-19.6288	-4.9014	-40.2011	-8.3614	-42.5856	-3.0444	-20.8085	-5.1136
6128.0000	-23.5129	-14.9150	-42.4407	-1.8709	-47.3103	-0.2437	-25.4034	-11.0678	-20.5310	-5.3816	-42.4842	-9.1661	-46.2397	-3.5096	-22.6219	-5.6466
6136.0000	-25.0085	-15.8962	-44.7937	-2.5107	-50.8861	-0.5444	-28.5401	-12.6110	-21.5851	-6.0582	-44.8620	-10.0771	-49.9146	-3.9809	-24.4994	-6.1785
6144.0000	-26.2850	-16.7860	-46.9729	-2.7630	-54.0119	-0.7915	-30.5331	-13.6439	-22.5520	-6.4834	-47.1111	-10.7805	-53.2177	-4.3940	-26.1509	-6.6655
6152.0000	-26.7989	-17.2886	-47.7382	-2.9855	-55.7627	-1.0874	-31.3476	-14.1797	-22.7607	-6.7884	-48.0084	-11.2961	-55.3682	-4.7249	-27.2148	-6.9983
6160.0000	-27.4498	-17.8697	-48.8987	-2.9737	-57.8850	-1.3968	-32.1585	-14.7598	-23.1820	-6.9824	-49.3129	-11.7685	-57.8821	-5.1233	-28.4567	-7.4215
6168.0000	-28.5721	-18.6186	-50.7495	-3.3011	-60.7457	-1.6756	-34.4933	-15.9734	-24.0109	-7.4113	-51.2059	-12.4227	-60.8665	-5.5529	-29.9819	-7.8967
6176.0000	-29.0354	-18.8940	-51.4043	-3.6099	-62.0994	-1.8844	-36.2466	-16.8900	-24.3031	-7.6851	-51.8582	-12.7660	-62.2509	-5.8247	-30.7309	-8.1584
6184.0000	-29.3516	-19.2145	-51.9912	-3.5582	-63.1342	-2.0266	-36.3118	-17.0154	-24.4964	-7.7647	-52.5401	-13.0056	-63.5384	-6.0035	-31.3471	-8.3566
6192.0000	-30.0226	-19.7773	-52.9334	-3.9818	-65.0964	-2.3078	-37.6795	-17.7650	-24.8068	-8.1995	-53.5769	-13.6172	-65.8136	-6.3272	-32.4890	-8.6854
6200.0000	-30.0405	-19.9248	-52.9568	-3.9267	-65.7984	-2.5557	-37.7925	-18.0010	-24.7047	-8.2374	-53.7165	-13.8003	-66.8572	-6.5776	-33.0100	-8.9094
6208.0000	-30.2360	-20.1279	-53.1662	-4.1061	-67.0206	-2.9032	-39.1029	-18.8351	-24.7082	-8.4321	-54.0060	-14.1265	-68.3534	-6.9546	-33.8093	-9.2418
6216.0000	-30.4944	-20.2767	-53.2837	-4.6701	-67.9660	-3.1421	-41.0300	-19.8193	-24.7169	-8.8187	-54.1097	-14.5083	-69.3513	-7.1970	-34.3840	-9.4354
6224.0000	-30.0173	-20.0561	-52.3547	-4.7130	-67.2065	-3.2179	-40.4059	-19.5834	-24.1977	-8.7897	-53.2343	-14.4479	-68.7859	-7.1828	-34.0977	-9.3667
6232.0000	-28.7952	-19.3831	-50.0334	-4.7479	-65.2869	-3.4271	-39.4873	-19.3324	-22.9746	-8.6386	-50.9914	-14.1835	-67.1900	-7.2050	-33.3394	-9.2409
6240.0000	-27.5100	-18.6534	-47.8442	-4.4016	-62.9105	-3.4610	-37.4879	-18.5090	-21.8684	-8.2367	-48.8727	-13.6744	-65.0450	-7.0720	-32.2607	-9.0039
6248.0000	-27.4070	-18.6273	-47.3866	-4.7778	-63.4740	-3.8116	-38.9892	-19.4152	-21.5613	-8.4771	-48.4575	-13.9391	-65.8252	-7.3955	-32.7341	-9.2391
6256.0000	-26.1118	-17.8052	-44.7504	-5.1426	-61.1496	-3.9657	-38.7794	-19.4123	-20.2393	-8.4635	-45.8098	-13.6732	-63.6200	-7.3333	-31.7147	-9.0043
6264.0000	-23.8673	-16.4525	-40.9164	-4.6225	-56.2199	-3.7275	-34.6441	-17.4408	-18.3783	-7.7584	-42.0097	-12.6471	-58.8269	-6.7764	-29.2711	-8.3060
6272.0000	-22.2883	-15.4679	-37.8559	-4.8002	-53.5967	-3.9683	-34.2158	-17.4392	-16.8417	-7.5990	-38.9690	-12.2537	-56.4101	-6.7891	-28.1612	-8.1152
6280.0000	-19.5451	-13.7905	-33.0358	-4.3775	-47.7313	-3.7690	-29.9223	-15.4228	-14.4962	-6.8595	-34.1738	-11.0948	-50.7055	-6.1929	-25.2912	-7.3163
6288.0000	-17.8542	-12.7503	-29.9671	-4.2539	-44.4734	-3.8075	-28.1304	-14.6806	-12.9833	-6.4942	-31.1278	-10.4859	-47.6041	-5.9930	-23.7761	-6.9553
6296.0000	-16.4289	-11.7363	-27.1408	-4.5481	-42.0354	-4.0263	-28.6991	-15.1185	-11.6430	-6.3862	-28.2352	-10.0823	-45.1372	-6.0266	-22.6911	-6.7863
6304.0000	-13.1362	-9.6727	-21.5300	-3.8054	-34.4009	-3.5251	-22.5328	-12.0690	-8.9871	-5.3243	-22.6066	-8.4670	-37.5009	-5.0584	-18.8020	-5.6291
6312.0000	-10.5042	-7.9968	-16.6250	-3.8340	-29.3238	-3.6144	-20.4643	-11.2428	-6.5918	-4.8665	-17.6922	-7.5689	-32.5780	-4.7697	-16.4350	-5.0672
6320.0000	-7.7709	-6.2116	-11.9650	-3.2238	-23.1745	-3.2839	-16.1750	-9.1712	-4.4276	-3.9725	-12.9837	-6.2033	-26.3428	-4.0838	-13.3116	-4.2025
6328.0000	-5.6284	-4.8744	-8.5075	-2.4436	-17.9137	-2.8045	-11.1787	-6.6583	-2.8234	-3.0996	-9.5178	-4.9879	-21.0304	-3.3157	-10.5600	-3.3549
6336.0000	-4.5703	-4.0994	-6.4628	-2.5889	-15.9542	-2.9006	-11.3911	-6.8491	-1.8807	-2.9644	-7.4071	-4.6187	-18.9845	-3.2812	-9.6384	-3.1837
6344.0000	-3.4049	-3.3099	-4.7283	-1.9713	-12.5994	-2.4250	-7.9791	-5.0323	-1.1549	-2.3397	-5.6163	-3.7567	-15.4063	-2.6626	-7.7660	-2.5644
6352.0000	-2.7631	-2.9533	-3.5061	-1.9868	-11.7238	-2.5887	-7.7378	-5.0551	-0.5084	-2.2624	-4.4400	-3.6336	-14.7194	-2.7366	-7.4578	-2.5512
6360.0000	-1.4049	-2.0922	-1.2189	-1.5965	-9.2111	-2.6318	-6.2113	-4.4785	0.5846	-1.7948	-2.1752	-3.0168	-12.3029	-2.6343	-6.2837	-2.3309
6368.0000	-0.8561	-1.7012	-0.4646	-1.2059	-7.6577	-2.4095	-4.6305	-3.6550	0.8763	-1.4373	-1.3892	-2.5578	-10.6155	-2.3632	-5.4065	-2.0629
6376.0000	-0.6986	-1.5117	0.1436	-1.7128	-7.7476	-2.6425	-6.5586	-4.6648	1.1653	-1.6903	-0.7226	-2.7080	-10.6505	-2.5670	-5.5404	-2.1749
6384.0000	0.4035	-0.7540	1.7291	-1.0509	-4.4298	-2.1264	-3.0452	-2.7760	1.8062	-1.0455	0.9261	-1.8303	-7.0752	-1.9198	-3.6601	-1.5419
6392.0000	0.4974	-0.7056	1.9647	-1.1250	-4.6063	-2.2816	-3.6075	-3.1468	1.9478	-1.0881	1.1412	-1.8899	-7.3422	-2.0694	-3.8316	-1.6522
6400.0000	1.5754	-0.0957	3.8844	-0.9686	-2.6397	-2.3358	-2.1639	-2.5625	2.9290	-0.8307	3.0057	-1.5252	-5.5810	-1.9696	-2.9553	-1.4535
6408.0000	2.1299	0.2952	4.6074	-0.5352	-0.6763	-1.9465	0.1859	-1.2587	3.1898	-0.4342	3.7759	-0.9909	-3.4169	-1.5124	-1.7959	-1.0308
6416.0000	1.8895	0.2568	4.6225	-1.2687	-1.7729	-2.2923	-2.9859	-2.8897	3.1982	-0.8916	3.8624	-1.3903	-4.4418	-1.8816	-2.4597	-1.3125
6424.0000	3.2103	1.0786	6.6280	-0.6142	1.9610	-1.7776	1.2040	-0.6828	4.0959	-0.2357	5.8875	-0.4979	-0.5877	-1.1806	-0.4134	-0.6105
6432.0000	3.3691	1.2102	6.8784	-0.5386	2.1273	-1.8347	0.9977	-0.8433	4.1968	-0.1583	6.1457	-0.4082	-0.4044	-1.2406	-0.3513	-0.6465
6440.0000	3.9674	1.5950	8.0318	-0.5829	2.8888	-2.0190	0.7209	-1.1241	4.7750	-0.0890	7.2859	-0.2743	0.2565	-1.3574	-0.0855	-0.6701
6448.0000	4.4822	1.9417	8.6038	-0.0269	4.8864	-1.5672	3.5435	0.4313	4.9616	0.3698	7.8933	0.3000	2.4488	-0.8452	1.1165	-0.2155
6456.0000	4.0514	1.7921	8.2833	-0.7736	3.1407	-2.0238	-0.3464	-1.6134	4.8110	-0.1363	7.6363	-0.2042	0.7510	-1.3693	0.0894	-0.6497
6464.0000	5.0476	2.3860	9.7892	-0.2748	6.1303	-1.5617	3.2945	0.3344	5.4956	0.3593	9.1499	0.4766	3.8202	-0.7496	1.7436	-0.0448
6472.0000	4.9249	2.3300	9.5367	-0.2540	6.1219	-1.4653	3.4590	0.4826	5.3472	0.3644	8.9204	0.4930	3.8971	-0.6675	1.8000	0.0094
6480.0000	5.2675	2.5980	10.3383	-0.4915	6.1346	-1.7723	1.9322	-0.4419	5.7466	0.2804	9.7321	0.4542	3.8491	-0.9504	1.6620	-0.1691
6488.0000	5.9014	2.9755	11.0167	0.2533	8.4758	-1.2516	5.6423	1.5514	5.9972	0.8606	10.4159	1.1322	6.3289	-0.3527	3.0470	0.3561
6496.0000	5.2823	2.7257	10.3357	-0.4868	6.4777	-1.6586	1.6616	-0.4955	5.6527	0.3345	9.8147	0.5967	4.4421	-0.8550	1.9343	-0.0817
6504.0000	5.6940	3.0274	10.8384	-0.1299	8.2099	-1.2556	3.8429	0.7566	5.8089	0.6628	10.3711	1.0570	6.3927	-0.3941	2.9911	0.3327
6512.0000	5.2803	2.7219	9.9882	0.0012	7.5832	-1.1527	4.2919	1.0402	5.4065	0.6574	9.4968	0.9625	5.7548	-0.3421	2.7312	0.3155
6520.0000	5.8060	3.0593	11.1971	-0.3137	7.6010	-1.6101	2.5341	-0.0947	6.0555	0.5340	10.6750	0.8679	5.5596	-0.7450	2.4958	0.0612
6528.0000	6.1996	3.3059	11.3550	0.5404	9.5868	-1.0278	6.2456	1.9328	6.0248	1.1454	10.8509	1.5416	7.7562	-0.1332	3.7546	0.5625
6536.0000	4.7671	2.5227	9.2515	-0.3146	5.6351	-1.5756	0.8955	-0.8172	5.0199	0.3871	8.8020	0.6084	3.8658	-0.8954	1.6308	-0.1850
6544.0000	5.4027	2.9391	10.2397	-0.0434	7.4625	-1.3230	2.7519	0.1788	5.4510	0.6849	9.8156	1.0396	5.7899	-0.5532	2.6409	0.1611
6552.0000	5.2858	2.7675	9.8079	0.2848	7.8728	-1.0124	4.9054	1.3825	5.2580	0.8471	9.3414	1.1572	6.1697	-0.2305	2.9632	0.3914
6560.0000	5.1210	2.6441	9.9803	-0.4073	6.2753	-1.6027	1.6898	-0.4503	5.4548	0.3623	9.4728	0.6064	4.3052	-0.8315	1.8771	-0.0862
6568.0000	5.3288	2.7814	9.8474	0.3527	7.9649	-1.0008	5.1521	1.4956	5.2809	0.8905	9.3702	1.1920	6.2404	-0.2156	3.0082	0.4036
6576.0000	4.1442	2.0965	8.1849	-0.4633	4.5534	-1.5200	0.5783	-0.8769	4.5264	0.1830	7.7292	0.3250	2.7905	-0.8962	1.1323	-0.2506
6584.0000	4.8922	2.5915	9.4259	-0.2523	6.4044	-1.3571	2.0584	-0.1195	5.0879	0.4613	8.9934	0.7466	4.7067	-0.6338	2.1084	0.0462
6592.0000	4.4633	2.3254	8.2702	0.2622	6.6358	-0.8559	4.2341	1.2072	4.4407	0.7239	7.8679	0.9759	5.1774	-0.1952	2.4914	0.3280
6600.0000	3.9815	2.0155	7.9973	-0.6413	4.0451	-1.6165	-0.3079	-1.3332	4.4402	0.0500	7.5534	0.1820	2.2895	-1.0138	0.8471	-0.3555
6608.0000	4.5927	2.3736	8.4450	0.3953	6.5880	-0.9616	4.2749	1.1235	4.5504	0.8035	8.0017	1.0080	5.0151	-0.3028	2.3997	0.2411
6616.0000	3.3646	1.6760	6.6581	-0.3658	3.3008	-1.3905	-0.0026	-1.0510	3.7130	0.1322	6.2525	0.1908	1.7553	-0.8986	0.6374	-0.3501
6624.0000	3.8572	1.9908	7.6886	-0.5509	4.1925	-1.4515	0.0053	-1.0779	4.2312	0.1113	7.2914	0.2750	2.6054	-0.8725	1.0279	-0.2551
6632.0000	3.5738	1.7482	6.5572	0.3632	4.9384	-0.8066	3.7801	1.0433	3.6040	0.6196	6.1418	0.7056	3.5196	-0.2793	1.7067	0.1422
6640.0000	3.1672	1.4842	6.5576	-0.7329	2.1084	-1.7472	-1.6293	-2.0103	3.7670	-0.1672	6.0900	-0.2014	0.3113	-1.2663	-0.1492	-0.6604
6648.0000	3.7883	1.9152	7.0046	0.3086	4.8701	-1.0190	2.8439	0.4428	3.8238	0.6190	6.5866	0.7095	3.4003	-0.4910	1.5739	-0.0057
6656.0000	2.3695	1.0769	4.6685	-0.1439	1.4144	-1.3234	-0.6481	-1.3128	2.7008	0.0944	4.2712	-0.0282	-0.0057	-1.0069	-0.2079	-0.5759
6664.0000	3.1757	1.5119	6.5189	-0.6503	2.1512	-1.7300	-1.6074	-2.0033	3.7258	-0.1096	6.0619	-0.1427	0.3966	-1.2626	-0.1098	-0.6614
6672.0000	2.5670	1.0819	4.6116	0.4946	2.9588	-0.7710	3.2832	0.8488	2.6634	0.5055	4.1700	0.3886	1.5536	-0.3959	0.7749	-0.0879
6680.0000	1.4982	0.4028	3.6637	-1.0306	-1.6162	-1.9292	-4.1441	-3.2247	2.4092	-0.6656	3.1696	-0.9925	-3.4443	-1.6748	-2.0273	-1.1848
6688.0000	2.9375	1.2827	5.6128	0.0639	2.5658	-1.2773	1.2996	-0.4011	3.2497	0.2706	5.1177	0.1463	0.8717	-0.8511	0.3015	-0.3982
6696.0000	0.9239	0.0905	1.8942	0.0124	-1.3161	-1.2270	-1.0149	-1.3869	1.3781	-0.0938	1.4487	-0.5034	-2.7460	-1.1100	-1.4813	-0.8508
6704.0000	1.7250	0.5739	4.3300	-1.3852	-1.9437	-2.2905	-5.9781	-4.3089	2.7715	-0.8503	3.8317	-1.1555	-3.8873	-2.0145	-2.3664	-1.4175
6712.0000	3.1230	1.4263	5.5215	0.7136	3.7647	-0.8713	3.6782	0.9053	3.1073	0.7210	5.0520	0.6277	2.2678	-0.4529	1.1030	-0.0861
6720.0000	1.9507	0.7214	4.3840	-0.8257	-0.9825	-2.0214	-4.0857	-3.3183	2.7334	-0.4633	3.8875	-0.7608	-2.8259	-1.7478	-1.7602	-1.2062
6728.0000	4.8820	2.5378	9.8552	-0.8552	4.5781	-2.1527	-1.5888	-2.3271	5.4426	0.0287	9.3347	0.1888	2.4639	-1.4478	0.7937	-0.6009
6736.0000	5.1702	2.7959	9.2700	0.7894	7.6666	-0.9565	4.8978	1.3304	4.8873	1.1536	8.8398	1.4110	6.1516	-0.2782	2.9415	0.3044
6744.0000	5.7233	3.1807	11.4247	-0.8805	6.0733	-2.2475	-1.9123	-2.5830	6.1421	0.1951	10.9651	0.5317	4.0622	-1.4605	1.4987	-0.5043
6752.0000	8.9844	5.1828	16.3023	0.9035	14.6565	-1.2124	7.8009	2.3658	8.3519	1.8815	15.8352	2.6933	12.7867	-0.0104	6.1141	0.9779
6760.0000	8.7251	4.9978	15.6789	1.1157	14.5119	-1.0332	8.6537	2.8759	8.0320	1.9649	15.2065	2.7303	12.6934	0.1339	6.1338	1.0523
6768.0000	10.2022	5.9661	18.9526	0.3056	16.4310	-1.5542	6.8456	1.7203	9.7063	1.7343	18.4946	2.7832	14.3861	-0.1463	6.7748	1.0536
6776.0000	10.3482	6.2176	18.0326	2.0557	19.1351	-0.3959	12.6090	4.9884	8.9266	2.9178	17.7034	4.0486	17.8178	0.9211	8.7555	1.8513
6784.0000	9.5125	5.7160	17.2537	0.8944	15.9293	-1.1508	7.2717	2.1300	8.6732	2.0428	16.9178	3.0584	14.3974	0.0795	6.8334	1.1266
6792.0000	11.4491	6.8947	20.3979	1.5577	20.9505	-0.6108	12.3819	4.7708	10.1461	2.8072	20.0669	4.1552	19.4632	0.9090	9.4907	2.0089
6800.0000	10.2631	6.1526	17.8577	2.0630	19.3152	-0.2514	13.2085	5.3815	8.8352	2.9155	17.5386	4.0642	18.0473	1.0749	8.9132	1.9701
6808.0000	9.9776	5.9411	18.2015	0.7532	17.1128	-1.0575	8.4084	2.7500	9.1840	2.0319	17.8459	3.1471	15.4857	0.2926	7.4149	1.3699
6816.0000	10.1014	6.1591	17.5701	1.9919	19.4355	-0.0917	12.9404	5.3828	8.6096	2.8949	17.3400	4.1240	18.4333	1.2087	9.0996	2.0740
6824.0000	8.6232	5.2966	15.3247	1.2234	15.6487	-0.5196	8.4610	3.1239	7.5535	2.1719	15.1278	3.2104	14.6759	0.5799	7.0978	1.4252
6832.0000	9.6234	5.8279	17.2282	1.1508	17.8634	-0.4323	10.3688	4.0765	8.5489	2.2865	16.9896	3.4871	16.7093	0.8664	8.1530	1.7882
6840.0000	9.0104	5.4610	15.5483	1.9547	17.8112	0.1349	12.8430	5.5490	7.6102	2.6925	15.3384	3.7982	16.9530	1.3114	8.4454	2.0326
6848.0000	8.3666	5.1188	15.0657	0.8706	15.1783	-0.5396	7.8616	2.8958	7.4627	1.9161	14.8778	2.9647	14.1936	0.5684	6.8543	1.4102
6856.0000	8.4402	5.2252	14.6941	1.5805	16.9427	0.1899	11.3243	4.9458	7.1264	2.4199	14.5874	3.5725	16.3602	1.2994	8.1107	1.9874
6864.0000	7.0740	4.3555	12.4870	1.0717	13.8744	0.0010	8.7237	3.7100	6.1042	1.8615	12.3797	2.8213	13.2824	0.9488	6.5469	1.5647
6872.0000	7.7681	4.7625	13.9299	0.8379	15.0588	-0.1068	8.9075	3.7357	6.8554	1.8336	13.8078	2.9132	14.3360	0.9683	7.0365	1.6802
6880.0000	7.4975	4.6030	12.8431	1.6967	15.9209	0.5596	12.2420	5.6681	6.1997	2.3390	12.7545	3.3950	15.5039	1.5724	7.8125	2.0957
6888.0000	6.3955	3.9333	11.5292	0.5931	12.3251	-0.1300	6.9780	2.8920	5.6753	1.4545	11.4371	2.3562	11.7349	0.7581	5.7405	1.3580
6896.0000	6.4394	4.0841	11.2127	1.1534	13.3785	0.3108	8.6465	3.9014	5.3587	1.8626	11.2139	2.8431	13.1746	1.1573	6.5308	1.6648
6904.0000	5.5256	3.5109	9.5308	1.1125	11.8455	0.4282	8.1792	3.8052	4.5267	1.6849	9.5477	2.5497	11.7496	1.1589	5.8671	1.5600
6912.0000	5.8453	3.6428	10.5159	0.5316	11.8123	0.0965	6.9539	3.0735	5.1243	1.3578	10.4876	2.2650	11.4503	0.9242	5.6408	1.4397
6920.0000	5.8019	3.6468	9.8506	1.4020	12.8869	0.6631	9.9766	4.7733	4.6691	1.9090	9.8558	2.8117	12.8076	1.4413	6.4727	1.8088
6928.0000	4.6952	2.9676	8.3392	0.5839	9.6421	0.1529	5.7953	2.5939	4.0177	1.2008	8.3410	1.9398	9.4506	0.7957	4.6626	1.1918
6936.0000	4.7433	3.0957	8.2921	0.7620	10.1067	0.3109	6.0553	2.7947	3.9010	1.3575	8.3614	2.1599	10.1433	0.9306	5.0092	1.3027
6944.0000	4.4160	2.9057	7.4801	1.0526	10.0631	0.5910	7.0984	3.4558	3.4483	1.4947	7.5742	2.2695	10.2616	1.1581	5.1470	1.4351
6952.0000	4.5370	2.9117	8.1130	0.4462	9.6238	0.2535	5.6324	2.6171	3.8765	1.1164	8.1617	1.9024	9.5638	0.8906	4.7244	1.2653
6960.0000	4.6498	3.0172	7.8307	1.1776	10.8040	0.7195	8.2249	4.0571	3.6245	1.6082	7.9116	2.4172	10.9826	1.3336	5.5530	1.6007
6968.0000	3.8960	2.5503	6.7469	0.6997	8.7425	0.4419	5.7781	2.8010	3.1457	1.1762	6.8266	1.8754	8.8664	0.9643	4.4267	1.2340
6976.0000	3.6747	2.4556	6.4037	0.5760	8.3774	0.4547	5.1959	2.5605	2.9538	1.0809	6.5191	1.7904	8.5985	0.9482	4.2779	1.2050
6984.0000	3.3483	2.2316	5.5766	0.9007	8.3405	0.7446	6.5400	3.3680	2.5145	1.2274	5.6950	1.8893	8.6684	1.1931	4.4101	1.3482
6992.0000	3.2600	2.0935	5.8261	0.2939	7.4035	0.3771	4.8227	2.3963	2.7666	0.8043	5.8874	1.4277	7.4504	0.8642	3.7305	1.1009
7000.0000	3.2730	2.1171	5.5249	0.7756	8.1239	0.7117	6.6318	3.4159	2.5468	1.1172	5.6061	1.7493	8.3312	1.1803	4.2609	1.3348
7008.0000	3.0276	1.9413	5.1962	0.5918	7.3551	0.5813	5.7930	2.9639	2.4247	0.9490	5.2595	1.5286	7.4873	1.0254	3.8165	1.1871
7016.0000	2.7675	1.8704	4.8783	0.3150	6.6766	0.4755	4.2078	2.1852	2.2326	0.7644	5.0016	1.3674	6.9414	0.8739	3.4745	1.0524
7024.0000	2.0581	1.4967	3.3828	0.5458	5.9827	0.7893	4.5858	2.5758	1.4072	0.8198	3.5722	1.3772	6.5437	1.0734	3.3450	1.1224
7032.0000	2.4096	1.5900	4.2862	0.2036	6.0519	0.5073	4.2270	2.2531	1.9854	0.6206	4.3860	1.1661	6.2608	0.8872	3.1715	1.0267
7040.0000	2.5945	1.7396	4.3845	0.5581	6.9897	0.7736	5.6735	3.0652	1.9631	0.8915	4.5152	1.4892	7.3529	1.1622	3.7749	1.2566
7048.0000	1.4056	1.0936	2.3322	0.2777	4.7719	0.7982	3.6507	2.2076	0.9046	0.5514	2.5423	1.0542	5.3940	1.0178	2.7766	1.0176
7056.0000	1.2614	0.9958	2.2603	-0.0123	4.0692	0.5984	2.4187	1.5318	0.9114	0.3393	2.4596	0.8151	4.6069	0.8084	2.3315	0.8443
7064.0000	1.2566	0.9780	2.0531	0.2788	4.5945	0.8502	3.8624	2.3527	0.7784	0.5225	2.2559	1.0034	5.2112	1.0610	2.7112	1.0353
7072.0000	1.1117	0.8564	1.9974	-0.0381	3.9353	0.6684	2.8277	1.7900	0.8093	0.2887	2.1791	0.7415	4.4369	0.8822	2.2864	0.8888
7080.0000	1.4339	1.0488	2.3726	0.3102	4.8299	0.8097	4.1648	2.4573	0.9646	0.5556	2.5443	1.0306	5.3486	1.0497	2.7845	1.0428
7088.0000	0.6981	0.5886	1.0921	0.1741	3.3274	0.7836	3.1693	2.0153	0.3475	0.3433	1.2689	0.7127	3.8848	0.9267	2.0584	0.8610
7096.0000	0.2363	0.3326	0.4694	-0.1763	1.8289	0.5078	0.9766	0.8469	0.0670	0.0461	0.6543	0.3447	2.3580	0.5789	1.2123	0.5391
7104.0000	0.3978	0.4932	0.4972	0.2114	2.8122	0.8123	2.4276	1.6826	-0.0132	0.3436	0.7311	0.7066	3.5566	0.8820	1.8686	0.7886
7112.0000	0.2748	0.3977	0.4259	-0.0318	2.4326	0.7330	1.8389	1.3926	-0.0126	0.1690	0.6541	0.5272	3.1249	0.8097	1.6367	0.7300
7120.0000	0.3861	0.4201	0.5942	0.0497	2.5061	0.6870	2.1500	1.4914	0.1016	0.2162	0.7831	0.5429	3.0887	0.7781	1.6281	0.7084
7128.0000	-0.1201	0.1395	-0.3245	0.0025	1.5931	0.7190	1.4894	1.2252	-0.3738	0.1129	-0.1070	0.3887	2.2841	0.7336	1.2276	0.6154
7136.0000	-0.4617	-0.0086	-0.8197	-0.2129	0.5453	0.5398	-0.2507	0.3128	-0.6319	-0.0661	-0.5710	0.1753	1.2950	0.4866	0.6612	0.3845
7144.0000	-0.1303	0.1630	-0.4156	0.1185	1.5034	0.7006	1.3308	1.1148	-0.4448	0.1858	-0.1895	0.4469	2.2341	0.6877	1.1887	0.5680
7152.0000	-0.2177	0.0716	-0.4321	-0.1037	1.2109	0.6321	0.9623	0.9335	-0.4071	0.0247	-0.2227	0.2774	1.8608	0.6358	0.9965	0.5286
7160.0000	-0.0754	0.1816	-0.2459	0.0186	1.4988	0.6446	1.1504	1.0044	-0.3392	0.1283	-0.0299	0.3951	2.1773	0.6496	1.1492	0.5491
7168.0000	-0.2937	0.0415	-0.6745	0.0492	1.1929	0.7020	1.2236	1.0840	-0.5542	0.1106	-0.4557	0.3485	1.9038	0.6792	1.0339	0.5457
7176.0000	-0.9827	-0.3545	-1.6934	-0.3530	-0.6062	0.4831	-1.0303	-0.0549	-1.0324	-0.2514	-1.4551	-0.0964	0.1211	0.3677	0.0764	0.2312
7184.0000	-1.0546	-0.3795	-1.9653	-0.1429	-0.5771	0.5750	-0.6300	0.1676	-1.2013	-0.1293	-1.7168	0.0080	0.2234	0.4287	0.1494	0.2595
7192.0000	-0.6858	-0.2199	-1.2567	-0.1629	0.0829	0.5486	0.0715	0.4761	-0.8010	-0.1001	-1.0532	0.0626	0.7288	0.4779	0.4180	0.3436
7200.0000	-0.1135	0.0645	-0.2719	-0.0183	1.1625	0.5460	1.2648	0.9998	-0.2761	0.0612	-0.1221	0.2577	1.6427	0.5644	0.8983	0.4711
7208.0000	-0.5271	-0.1661	-1.0696	0.0182	0.4471	0.5932	0.8998	0.8678	-0.6934	0.0212	-0.8995	0.1669	1.0207	0.5429	0.5969	0.4021
7216.0000	-1.1459	-0.4840	-1.9857	-0.3645	-0.9381	0.4833	-1.0296	-0.0449	-1.1561	-0.2963	-1.7633	-0.1795	-0.2464	0.3530	-0.0920	0.1990
7224.0000	-0.8072	-0.3196	-1.4531	-0.2233	0.1174	0.6574	0.4918	0.7716	-0.8871	-0.1548	-1.2470	0.0171	0.7809	0.5978	0.4822	0.4339
7232.0000	-0.9320	-0.4454	-1.6129	-0.3168	-0.3415	0.5678	0.2031	0.5924	-0.9182	-0.2543	-1.4407	-0.1326	0.2119	0.5034	0.1965	0.3440
7240.0000	-0.8839	-0.4280	-1.5229	-0.2996	-0.4898	0.4720	-0.0479	0.3990	-0.8577	-0.2483	-1.3711	-0.1537	-0.0039	0.4035	0.0700	0.2634
7248.0000	-1.0166	-0.5065	-1.8776	-0.1295	-0.6653	0.5276	0.1979	0.5315	-1.0506	-0.1683	-1.7270	-0.1112	-0.1436	0.4238	0.0200	0.2523
7256.0000	-1.6112	-0.7951	-2.8633	-0.3110	-2.2685	0.3307	-1.9505	-0.5855	-1.5621	-0.3690	-2.6750	-0.3920	-1.6510	0.1092	-0.8111	-0.0677
7264.0000	-0.9030	-0.4002	-1.6831	-0.0988	-0.6124	0.4559	-0.1809	0.2876	-0.9749	-0.1250	-1.5218	-0.0573	-0.0712	0.3451	0.0215	0.1986
7272.0000	-0.6057	-0.2762	-1.1547	-0.0492	-0.0087	0.4718	0.6374	0.6724	-0.6776	-0.0621	-1.0320	0.0214	0.4147	0.4200	0.2904	0.2910
7280.0000	-0.9779	-0.4645	-1.8237	-0.0736	-1.0554	0.3421	-0.5914	0.0086	-1.0230	-0.1396	-1.6885	-0.1286	-0.5904	0.2068	-0.2560	0.0700
7288.0000	-0.8028	-0.3960	-1.5660	0.0367	-0.5891	0.4061	0.2321	0.4237	-0.8811	-0.0528	-1.4547	-0.0351	-0.1792	0.3040	-0.0172	0.1632
7296.0000	-1.0269	-0.4983	-1.8692	-0.1384	-1.2831	0.2826	-0.9360	-0.1856	-1.0335	-0.1918	-1.7391	-0.1944	-0.8450	0.1410	-0.3975	0.0132
7304.0000	-0.9365	-0.3657	-1.7911	-0.0174	-0.9540	0.3473	-0.9402	-0.1690	-1.0615	-0.0757	-1.6146	-0.0324	-0.3675	0.1901	-0.1746	0.0599
7312.0000	-0.4867	-0.1262	-1.0283	0.1009	0.0545	0.4087	0.1643	0.3666	-0.6715	0.0646	-0.8769	0.1583	0.5658	0.3248	0.3192	0.2170
7320.0000	-0.4174	-0.1139	-0.8654	0.0543	0.1458	0.3877	0.2987	0.4226	-0.5653	0.0383	-0.7324	0.1321	0.5921	0.3265	0.3378	0.2288
7328.0000	-0.6175	-0.2063	-1.2757	0.0968	-0.0334	0.4788	0.3087	0.4919	-0.8002	0.0454	-1.1145	0.1376	0.5204	0.3848	0.3158	0.2525
7336.0000	-0.8824	-0.2732	-1.7769	0.1084	-0.8085	0.3697	-1.0392	-0.2268	-1.1051	0.0274	-1.5700	0.0897	-0.1199	0.1903	-0.0684	0.0598
7344.0000	-0.5342	-0.0571	-1.1974	0.2120	-0.0332	0.4128	-0.3889	0.0834	-0.8303	0.1525	-0.9927	0.2648	0.6470	0.2789	0.3218	0.1686
7352.0000	-0.2921	0.0077	-0.7498	0.2293	0.4956	0.4424	0.5564	0.5477	-0.5547	0.1801	-0.5949	0.2972	1.0268	0.3725	0.5521	0.2715
7360.0000	-0.4118	-0.0829	-0.9857	0.2673	0.0705	0.3735	0.2904	0.3695	-0.6555	0.1692	-0.8512	0.2327	0.5507	0.2762	0.3079	0.1724
