Time	Fz	Fpz	C3	C4	T5	T4	O1	O2	F7	F8	F3	F4	T3	T6	P3	P4
0.0000	-2.4813	-3.6581	-1.6231	-3.9498	-0.6962	-2.0771	0.2626	-1.1816	-5.6274	-4.6199	-2.6711	-4.5086	-2.3584	-0.9494	-1.5924	-0.3402
8.0002	-3.2110	-10.5388	-2.2535	-5.5329	-5.9742	-6.0932	-6.1344	-3.8143	7.5255	-11.3869	-3.3842	-7.5503	-4.2169	-4.4304	0.2120	-0.9296
16.0004	1.2858	-0.5202	2.6936	-1.0695	1.1404	0.1748	-0.2705	1.3547	-1.8518	-1.2865	3.2292	0.3411	2.7186	0.3573	2.5583	1.0134
24.0006	-4.4290	-8.3782	-4.3528	-5.2795	-5.8380	-4.7575	-4.2149	-3.7466	1.5634	-8.9264	-5.8060	-7.3971	-6.4356	-3.3144	-2.5450	-1.2725
32.0008	0.0559	-4.3094	1.5316	-2.5314	-1.3587	-2.4414	-2.6469	-0.7078	3.8280	-5.1518	1.4399	-2.4843	0.4360	-1.6890	1.9972	0.2295
40.0010	-1.1342	-3.0438	-0.2364	-2.7170	-1.1002	-1.6951	-0.9686	-0.7991	-2.1060	-3.7613	-0.7200	-2.8714	-1.3293	-0.9613	-0.2468	-0.0892
48.0012	-2.8771	-7.3753	-2.4749	-4.1028	-4.8796	-4.2929	-4.3189	-3.0635	4.1023	-7.8779	-3.4642	-5.7503	-4.3806	-3.1195	-0.9554	-0.9176
56.0014	1.3541	-1.2038	2.9931	-1.0368	1.4255	-0.9128	-0.2048	0.4808	1.5813	-2.0323	3.1172	-0.4130	2.5289	-0.4827	2.2988	0.5324
64.0016	-1.9556	-5.3565	-0.9318	-3.4681	-1.5327	-3.8340	-1.3847	-2.5012	-0.1321	-6.1645	-2.1765	-5.0537	-2.3948	-2.5376	-0.9466	-0.9031
72.0018	-0.0238	-4.2060	1.1227	-1.7762	-0.7659	-2.9641	-2.0356	-1.3824	-0.6187	-4.7762	0.7390	-2.5547	0.5021	-2.1443	1.5356	-0.2585
80.0020	0.8243	-1.1849	1.6898	-0.2782	1.0433	-1.1463	-0.1575	-0.1962	-3.5414	-1.5337	1.6401	-0.4193	1.8091	-0.7901	1.5037	0.0611
88.0022	-0.3709	-4.2691	0.2858	-1.2140	-1.3184	-3.4138	-2.2010	-2.2229	3.2024	-4.5212	-0.3870	-2.8032	-0.6127	-2.6321	0.5965	-0.8090
96.0024	2.6740	0.0484	3.8881	1.3779	2.3898	-0.9330	-0.0374	0.2037	-0.1348	-0.1824	4.1887	1.3787	4.0374	-0.8424	3.0283	0.1986
104.0026	0.0863	-2.2283	0.4327	0.0045	0.0326	-2.4391	-0.7057	-1.7657	-1.0366	-2.2353	-0.1709	-1.5090	0.0581	-1.9238	0.2220	-0.8302
112.0028	1.3695	-2.1657	2.2960	0.6294	0.8382	-2.8404	-0.9667	-1.7067	4.9956	-2.2996	1.8223	-0.8739	1.5930	-2.3322	1.5109	-0.7567
120.0030	3.0833	1.0221	4.2245	2.3772	3.4770	-1.1202	1.0087	-0.2445	-0.0173	0.9557	4.2374	1.7509	4.2160	-1.0473	2.4595	-0.2547
128.0032	1.2383	-1.9469	1.2632	1.8419	-0.1597	-2.7650	-1.7292	-2.1716	1.0537	-1.4380	0.9284	-0.1608	0.9943	-2.5559	1.2004	-1.0745
136.0034	3.3232	1.0643	3.4211	4.0070	1.5474	-0.9896	-0.9408	-0.6914	1.2215	1.8147	3.8495	2.9965	3.5799	-1.4226	2.6973	-0.4854
144.0036	1.6817	0.3069	1.0336	3.4649	0.1076	-1.5177	-1.0726	-1.8045	-2.8084	1.3270	0.9482	1.5886	0.8549	-1.8074	0.5771	-1.1486
152.0038	1.5144	-0.7632	0.5620	3.6401	-0.9478	-2.1587	-2.2757	-2.3665	-0.3325	0.4866	0.4939	1.3182	0.5180	-2.4535	0.8434	-1.3412
160.0040	2.8098	2.0021	2.0770	4.9053	1.1954	-0.6655	-0.4899	-1.1669	-0.4766	3.2340	2.3219	3.3159	2.3035	-1.3104	1.2896	-0.9575
168.0042	1.0511	-0.1901	-0.2703	3.7894	-1.4165	-1.9087	-2.0312	-2.6529	2.3335	1.2177	-0.5237	1.2261	-0.8410	-2.3036	-0.3743	-1.6241
176.0044	2.3412	1.5634	1.2175	4.8124	-0.3764	-0.7151	-1.6012	-1.5286	3.4731	2.9953	1.4918	3.0960	0.8665	-1.4823	0.7337	-1.1047
184.0046	1.4184	1.3901	0.1433	4.1937	-0.6888	-0.9497	-1.0973	-2.0472	0.0839	2.7840	0.0187	2.1087	-0.6703	-1.5415	-0.6973	-1.4560
192.0048	0.9909	-0.0010	-0.3713	3.7637	-1.8144	-1.7642	-2.2112	-2.6837	1.8843	1.4358	-0.6062	1.2815	-1.4078	-2.2191	-0.7086	-1.6575
200.0050	2.3726	2.5606	1.3120	4.8670	0.1156	-0.1917	-0.7800	-1.2820	1.3135	3.9328	1.5359	3.3619	0.5919	-1.0161	0.1287	-1.0978
208.0052	1.0288	1.0488	-0.3560	3.8482	-1.5952	-1.0263	-1.6424	-2.2716	0.2568	2.4687	-0.5162	1.7462	-1.6985	-1.6200	-1.1835	-1.5406
216.0054	1.8179	1.8850	0.6270	4.3284	-0.7901	-0.3701	-1.3537	-1.4956	1.1209	3.2572	0.8064	2.7871	-0.2922	-1.1388	-0.2179	-1.1380
224.0056	1.7374	2.6452	0.6266	4.2617	0.1139	0.0057	-0.2198	-1.2387	1.1795	3.8961	0.6690	2.8086	-0.1560	-0.7302	-0.6612	-1.1161
232.0058	1.4915	1.7186	0.3878	3.9245	-0.4787	-0.5329	-0.8626	-1.6001	1.2083	2.9606	0.3654	2.2565	-0.4724	-1.1539	-0.5738	-1.2115
240.0060	2.4827	3.6086	1.5870	4.7209	0.9626	0.6625	0.2189	-0.5273	-1.5144	4.8128	1.9279	3.8144	1.0535	-0.2281	0.0695	-0.7739
248.0063	1.3584	2.4596	0.1782	3.9534	-0.1617	-0.0491	-0.2036	-1.3705	-2.5821	3.7065	0.1417	2.4606	-0.7051	-0.7250	-1.0781	-1.1835
256.0065	2.0097	2.8977	0.9389	4.4282	0.3821	0.3048	-0.1749	-0.8670	-3.9359	4.1660	1.1926	3.2852	0.5222	-0.4981	-0.1549	-0.8999
264.0067	2.1221	3.8222	0.9980	4.6885	0.8136	0.8576	0.4495	-0.5628	-3.8983	5.1078	1.2830	3.7381	0.5377	-0.0601	-0.4605	-0.8432
272.0069	1.5052	2.6413	0.1147	4.3310	-0.4905	0.1842	-0.5838	-1.2574	1.6047	4.0320	0.2288	2.8943	-0.6483	-0.6535	-0.8718	-1.1221
280.0071	2.6680	4.2994	1.5119	5.2853	1.0272	1.1494	0.3271	-0.2865	2.3414	5.6665	1.9820	4.4616	1.2110	0.0553	0.0893	-0.7153
288.0073	2.4135	4.1281	1.2119	5.1345	0.7457	0.9493	0.2761	-0.5770	0.4977	5.5130	1.5552	4.1310	0.5995	-0.0883	-0.3682	-0.8823
296.0075	2.2797	3.7010	0.8522	5.1707	0.1618	0.9338	-0.3499	-0.5712	-0.2005	5.2163	1.3412	4.1915	0.6014	-0.1645	-0.0652	-0.8069
304.0077	2.2972	4.3594	0.8450	5.2780	0.6408	1.3435	0.2804	-0.3084	-0.0895	5.8535	1.3277	4.4387	0.7129	0.1925	-0.2902	-0.7467
312.0079	2.3284	3.7213	1.1370	4.9936	0.4575	0.7135	-0.0455	-0.7343	1.9120	5.0966	1.4522	3.8953	0.4485	-0.2820	-0.3159	-0.9219
320.0081	2.8643	4.2376	1.8503	5.3401	1.3290	0.9926	0.4145	-0.3084	-0.1461	5.5673	2.3186	4.4917	1.5944	-0.0502	0.3299	-0.7175
328.0083	2.4036	3.8158	1.3589	4.9675	1.2225	0.6367	0.5745	-0.6659	-0.9920	5.1022	1.5934	3.8250	1.0234	-0.2570	-0.1911	-0.9123
336.0085	2.3890	3.4174	1.4427	4.7584	1.0889	0.4366	0.3256	-0.7133	-0.8157	4.6446	1.6824	3.6219	1.0956	-0.3970	0.0155	-0.8809
344.0087	1.9468	3.4172	0.8781	4.4787	1.1534	0.5251	0.7182	-0.7166	-2.5542	4.6258	1.0078	3.3000	0.7646	-0.2506	-0.4228	-0.9108
352.0089	1.8147	2.6559	0.9786	4.0812	1.3831	-0.1515	0.7831	-1.0877	1.1308	3.6988	0.8609	2.5528	0.8439	-0.7000	-0.3778	-1.0614
360.0091	2.3990	3.1297	1.8512	4.2888	2.5119	0.1520	1.3946	-0.5167	3.2090	4.0231	1.8751	3.0787	2.2940	-0.4134	0.4640	-0.7655
368.0093	1.6861	2.6829	0.9444	3.7739	2.0376	0.0228	1.3944	-0.7486	3.0849	3.5700	0.7982	2.3973	1.4326	-0.4478	-0.1743	-0.8776
376.0095	1.8618	2.3398	1.4492	3.4952	2.5953	-0.2458	1.6053	-0.6676	3.9600	3.0290	1.2578	2.1519	2.1303	-0.5708	0.3034	-0.7838
384.0097	1.9124	2.6133	1.6952	3.2923	3.4653	-0.0236	2.3754	-0.2914	0.9085	3.1412	1.5039	2.1764	2.8462	-0.2705	0.5140	-0.6026
392.0099	1.3044	1.8068	1.0076	2.7013	2.8649	-0.4059	2.0632	-0.6258	0.0996	2.2976	0.6634	1.3887	2.1062	-0.5103	0.1323	-0.7173
400.0101	1.5135	1.9437	1.3603	2.6640	3.4672	-0.1890	2.3978	-0.2146	-0.4653	2.3337	1.1296	1.6137	2.9887	-0.2841	0.6817	-0.4781
408.0103	1.0675	1.7470	0.8159	2.2891	3.3255	-0.1494	2.5406	-0.2136	-2.6575	2.1092	0.5205	1.2516	2.6363	-0.1824	0.3684	-0.4685
416.0105	0.9265	1.2284	0.8333	1.8708	3.3454	-0.4250	2.4846	-0.2743	-1.0875	1.4533	0.4610	0.8014	2.7055	-0.3300	0.4988	-0.4419
424.0107	0.6524	1.2848	0.5087	1.6052	3.6516	-0.1947	2.9292	-0.0217	-0.6618	1.4390	0.1178	0.6587	2.8861	-0.0648	0.4548	-0.3140
432.0109	0.0418	0.8137	-0.4144	1.2937	2.7089	-0.2564	2.4238	-0.2593	0.8964	1.0658	-0.8575	0.2211	1.8907	-0.1364	-0.0484	-0.4058
440.0111	0.5749	1.0776	0.4688	1.3622	3.4845	-0.1507	2.7536	0.0998	3.8846	1.1566	0.1070	0.5281	2.8848	-0.0172	0.5947	-0.2061
448.0113	0.7391	1.2852	0.9442	1.1278	4.3632	-0.0419	3.4462	0.4216	1.6428	1.1573	0.5652	0.5102	3.6142	0.1933	0.8637	-0.0434
456.0115	0.5373	0.9593	0.7820	0.7770	4.3334	-0.0687	3.4297	0.5202	-1.0376	0.7617	0.4238	0.2709	3.7110	0.2374	0.9892	0.0600
464.0117	0.2759	0.8998	0.4662	0.5292	4.5020	0.0665	3.7118	0.6878	-1.2827	0.6532	0.0931	0.1033	3.8212	0.4114	0.9637	0.1554
472.0119	-0.0528	0.5750	0.0423	0.2715	4.0536	-0.0482	3.4804	0.5242	-0.5184	0.3372	-0.3941	-0.2386	3.2825	0.3297	0.6802	0.0920
480.0121	0.2358	0.8086	0.4632	0.3200	4.2711	0.1989	3.5006	0.8524	0.8738	0.5057	0.1642	0.0862	3.7625	0.5211	1.0773	0.2820
488.0123	0.2777	1.2072	0.4339	0.3439	4.3713	0.7398	3.6287	1.3352	0.4333	0.9069	0.3252	0.4910	4.0904	0.9505	1.3049	0.5384
496.0125	-0.1011	0.9279	-0.1904	0.1333	3.7531	0.8996	3.2384	1.4128	0.8991	0.7000	-0.2144	0.3799	3.7155	1.0597	1.2373	0.6271
504.0127	-0.4381	0.8594	-0.5082	-0.2438	3.9305	0.9083	3.6396	1.4251	4.1809	0.5164	-0.6824	-0.0396	3.4900	1.1545	0.9057	0.6169
512.0129	-0.3971	0.9761	-0.2639	-0.4840	4.3497	0.9882	4.0225	1.6072	4.5094	0.4804	-0.4718	-0.1346	3.7317	1.2971	0.9508	0.7088
520.0131	-0.4668	0.8108	-0.4258	-0.5779	4.2099	1.1905	3.8123	1.8864	3.8341	0.3334	-0.4721	-0.0076	4.0633	1.4563	1.3412	0.9144
528.0133	-0.6334	0.8454	-0.6145	-0.7498	4.2335	1.2929	3.9726	1.9582	7.8350	0.3136	-0.7127	-0.1567	3.9194	1.5662	1.1808	0.9425
536.0135	-0.3458	0.8954	0.2421	-1.1714	5.1367	1.1219	4.6136	2.1012	8.3745	0.0259	0.0153	-0.4378	4.4726	1.5798	1.3693	1.0200
544.0137	-0.9130	0.2974	-0.2794	-1.9102	5.1352	0.9658	4.8183	2.1069	4.5304	-0.7171	-0.6154	-1.1443	4.3102	1.6066	1.2109	1.0810
552.0139	-1.2600	0.1000	-0.9355	-1.9566	4.5101	1.1027	4.4311	2.1032	5.7364	-0.7886	-1.2069	-1.1877	3.8821	1.6684	1.0719	1.1050
560.0141	-0.6225	0.4864	-0.2520	-1.4025	4.7733	1.3826	4.2318	2.4630	7.0830	-0.3341	-0.2573	-0.3866	4.8152	1.7912	1.8683	1.3090
568.0143	-0.7013	0.4121	-0.5555	-1.2478	4.2410	1.4851	3.7745	2.4501	5.9478	-0.2623	-0.4437	-0.2045	4.5872	1.7968	1.8979	1.3244
576.0145	-0.8621	0.1719	-0.7765	-1.3511	3.7363	1.3362	3.4155	2.2316	5.4823	-0.4623	-0.6980	-0.3978	4.0400	1.6538	1.6539	1.2268
584.0147	-1.0897	-0.0482	-1.1447	-1.4384	3.4774	1.3195	3.2617	2.1906	2.8875	-0.6220	-1.0455	-0.5063	3.8841	1.6422	1.6041	1.2281
592.0149	-1.5098	-0.2446	-2.0918	-1.3024	2.3296	1.5515	2.4662	2.1286	1.8479	-0.5385	-1.8313	-0.3620	3.1290	1.7039	1.3859	1.2285
600.0151	-1.4015	-0.3219	-2.0198	-1.1779	2.1581	1.5409	2.1880	2.1373	3.4015	-0.5717	-1.6902	-0.2272	3.2250	1.6478	1.5908	1.2556
608.0153	-1.2749	-0.1987	-1.8316	-1.0879	2.6103	1.5589	2.4999	2.2349	3.6625	-0.4820	-1.5121	-0.1411	3.6749	1.6867	1.7729	1.2912
616.0155	-1.3596	-0.2583	-1.9283	-1.1812	2.7103	1.5865	2.6076	2.3018	4.2255	-0.5672	-1.6166	-0.2155	3.7879	1.7350	1.8182	1.3336
624.0157	-1.4722	-0.5396	-1.8753	-1.5380	2.9525	1.4171	2.8095	2.3030	4.6626	-0.9902	-1.6527	-0.5786	3.9234	1.6867	1.8641	1.3610
632.0159	-1.1460	-0.1346	-1.4322	-1.3594	3.3572	1.6726	3.0303	2.5953	3.5120	-0.6192	-1.0963	-0.1762	4.4512	1.8885	2.1696	1.4998
640.0161	-1.2048	-0.1987	-1.5522	-1.4007	3.5280	1.8102	3.1261	2.8149	1.3075	-0.6758	-1.1275	-0.0920	4.8848	2.0243	2.4645	1.6421
648.0163	-1.5294	-0.4355	-2.0546	-1.5878	3.2511	1.8955	3.0042	2.8773	1.2347	-0.8754	-1.6000	-0.2434	4.7389	2.1051	2.4289	1.7057
656.0165	-1.2114	-0.0621	-1.5964	-1.4809	3.6671	2.1771	3.2240	3.2250	3.4844	-0.5767	-1.0357	0.1123	5.3005	2.3322	2.7818	1.8817
664.0167	-1.7013	-0.6861	-2.1335	-1.9722	3.7613	1.9319	3.4147	3.1513	3.8639	-1.2841	-1.7069	-0.5213	5.3400	2.2446	2.7466	1.8886
672.0169	-1.8633	-0.7589	-2.4539	-2.0067	3.3537	2.0601	3.1400	3.1919	5.5459	-1.2964	-1.9687	-0.5029	5.0738	2.3118	2.6883	1.9283
680.0171	-1.4582	-0.4406	-1.8197	-1.9521	3.8291	2.3179	3.3227	3.5918	7.1630	-1.0933	-1.1993	-0.1331	5.7947	2.5312	3.1976	2.1510
688.0173	-1.8860	-0.9944	-2.3632	-2.3218	3.6318	2.1799	3.2346	3.5514	4.5425	-1.6522	-1.7697	-0.5469	5.7270	2.4824	3.2086	2.1864
696.0175	-1.6832	-0.9044	-2.0951	-2.2658	3.5281	2.3188	3.0113	3.7164	3.2222	-1.5642	-1.3669	-0.2865	5.8958	2.5649	3.4691	2.2995
704.0177	-1.9627	-1.3389	-2.3555	-2.6817	3.3302	2.2314	2.8837	3.7381	2.3594	-2.0704	-1.6381	-0.6415	5.7910	2.5542	3.5003	2.3686
712.0179	-2.5862	-1.6965	-3.4769	-2.8039	2.0217	2.3686	2.0846	3.5675	1.4967	-2.1995	-2.6817	-0.7968	4.6587	2.5766	3.0173	2.3170
720.0181	-2.2882	-1.4147	-3.0662	-2.7068	1.8743	2.5876	1.8499	3.7518	2.2020	-1.9386	-2.1358	-0.4493	4.6803	2.7045	3.1802	2.4224
728.0183	-2.6640	-1.9179	-3.5139	-3.1113	1.3384	2.4844	1.4922	3.6748	-0.7534	-2.4473	-2.5757	-0.8156	4.2552	2.6544	3.0675	2.4453
736.0186	-2.8985	-2.1059	-3.9811	-3.1477	0.3824	2.5632	0.7917	3.5627	-1.6141	-2.4997	-2.9486	-0.8063	3.4906	2.6369	2.8299	2.4208
744.0188	-2.9558	-2.5015	-3.7408	-3.5927	0.6348	2.1911	0.9672	3.4132	1.6341	-3.1066	-2.8885	-1.3589	3.4888	2.4371	2.7938	2.3691
752.0190	-3.2052	-2.7366	-4.1111	-3.7480	0.1738	2.1679	0.6792	3.3267	0.9622	-3.2984	-3.2535	-1.5274	3.0674	2.4087	2.6221	2.3489
760.0192	-3.0552	-2.6398	-3.9200	-3.6979	-0.0530	2.2747	0.4159	3.4029	0.9492	-3.1943	-2.9691	-1.3339	2.9933	2.4552	2.7121	2.4037
768.0194	-3.1420	-3.0713	-3.7693	-4.0993	0.2180	1.9245	0.5892	3.2852	1.7477	-3.7973	-2.9610	-1.8318	3.1208	2.2728	2.7636	2.3760
776.0196	-3.0365	-2.8287	-3.7400	-3.9386	0.0774	2.1962	0.4469	3.4740	-0.3727	-3.4866	-2.7855	-1.4797	3.1921	2.4460	2.8881	2.4770
784.0198	-3.3548	-3.2716	-3.9580	-4.4290	0.2489	1.9693	0.6822	3.4132	0.8837	-4.0740	-3.1491	-2.0514	3.1759	2.3736	2.8044	2.4760
792.0200	-3.2899	-3.3129	-3.8000	-4.4620	0.3590	1.8607	0.7327	3.3575	2.0500	-4.1623	-3.0378	-2.1316	3.2169	2.2997	2.8153	2.4455
800.0202	-2.6732	-2.6798	-3.0279	-4.0246	0.5278	2.1814	0.6417	3.6321	-1.2244	-3.4994	-2.0499	-1.3831	3.6377	2.4807	3.1761	2.5694
808.0204	-3.3092	-3.5159	-3.6650	-4.7260	0.3679	1.7608	0.6995	3.3723	-1.7244	-4.4511	-2.8984	-2.2995	3.2477	2.2731	2.8900	2.4891
816.0206	-2.8324	-2.8268	-3.1297	-4.2889	0.6623	2.1358	0.8270	3.6590	1.2130	-3.7400	-2.2285	-1.6572	3.6386	2.5023	3.1184	2.5925
824.0208	-2.1903	-2.2719	-2.0636	-4.1175	1.5622	2.2448	1.3408	3.9320	3.2382	-3.3677	-1.1408	-1.2890	4.4408	2.6220	3.5073	2.6989
832.0210	-2.5995	-2.8298	-2.4755	-4.5589	1.2412	1.9215	1.2129	3.6607	2.5014	-3.9792	-1.6975	-1.8987	3.9248	2.4253	3.1969	2.5915
840.0212	-2.0228	-2.0818	-1.8412	-4.0125	0.9765	2.2715	0.8650	3.7844	-1.3274	-3.1167	-0.8463	-1.0851	3.7902	2.5736	3.2389	2.6151
848.0214	-2.4513	-2.7377	-2.2444	-4.4396	0.4090	1.7080	0.5722	3.2105	-4.4599	-3.7961	-1.4773	-1.8453	2.8173	2.1697	2.6337	2.3359
856.0216	-2.7494	-3.1167	-2.7326	-4.4673	-0.5035	1.3896	-0.0480	2.7044	-5.7246	-4.0378	-2.0571	-2.1586	1.7564	1.8491	2.0873	2.0771
864.0218	-2.3979	-3.0736	-2.1532	-4.2976	-0.6507	1.0587	-0.3150	2.3611	-6.9952	-4.0085	-1.5451	-2.1338	1.4262	1.5384	1.9399	1.8788
872.0220	-3.4599	-4.5507	-3.5073	-4.9735	-2.2052	0.0179	-1.2355	1.1993	-5.7808	-5.3890	-3.3153	-3.6046	-0.6411	0.7157	0.7768	1.3260
880.0222	-3.4587	-4.5599	-3.7119	-4.6505	-3.2023	-0.1481	-2.0087	0.7319	-1.8168	-5.2086	-3.5536	-3.5440	-1.7287	0.4271	0.2688	1.0557
888.0224	-3.0283	-4.6709	-2.8234	-4.6536	-2.7731	-0.7210	-1.8847	0.3608	-0.6356	-5.4872	-2.8619	-3.7926	-1.6382	0.0032	0.2693	0.8442
896.0226	-3.3108	-5.3306	-3.1346	-4.8158	-3.5983	-1.4050	-2.4918	-0.3973	-3.6249	-6.0750	-3.3831	-4.4095	-2.7694	-0.5706	-0.3429	0.4626
904.0228	-3.4803	-5.5846	-3.3801	-4.7952	-4.3407	-1.8064	-2.9775	-0.9847	-5.3978	-6.2270	-3.7754	-4.7240	-3.8517	-0.9490	-0.9805	0.1364
912.0230	-4.0072	-6.5124	-3.9501	-5.1540	-4.9488	-2.7019	-3.3111	-1.8765	-4.2470	-7.1447	-4.7218	-5.7568	-4.9884	-1.6344	-1.7309	-0.3214
920.0232	-3.8228	-6.4948	-3.7969	-4.7928	-5.5841	-3.0397	-3.8772	-2.4159	-4.5330	-6.9853	-4.6430	-5.7024	-5.8137	-2.0250	-2.1555	-0.6398
928.0234	-3.8512	-6.7365	-3.6441	-4.9274	-5.7919	-3.5581	-3.9848	-2.9530	-6.5181	-7.2745	-4.7113	-6.1513	-6.5258	-2.4211	-2.6704	-0.9433
936.0236	-4.0891	-7.0324	-4.0169	-4.9253	-6.4054	-3.8949	-4.3658	-3.4362	-7.1679	-7.4679	-5.2148	-6.4675	-7.3795	-2.7341	-3.1810	-1.2072
944.0238	-3.8320	-6.6262	-3.8235	-4.4937	-6.7523	-3.8310	-4.6525	-3.6065	-6.8487	-6.9328	-4.9873	-6.0982	-7.8323	-2.7958	-3.4367	-1.3483
952.0240	-4.3023	-7.0042	-4.4422	-4.6925	-7.4081	-4.2411	-4.8907	-4.2043	-5.8798	-7.2491	-5.8552	-6.7156	-9.0352	-3.1298	-4.2750	-1.6880
960.0242	-3.9092	-6.1944	-4.2212	-4.0044	-7.8595	-3.8342	-5.2494	-4.1754	-5.1100	-6.2298	-5.4695	-5.9219	-9.4657	-2.9798	-4.4857	-1.7465
968.0244	-3.4800	-5.6111	-3.6757	-3.6523	-7.7470	-3.6355	-5.2250	-4.0925	-6.4281	-5.6233	-4.8421	-5.4340	-9.4294	-2.8804	-4.4869	-1.7512
976.0246	-3.7842	-5.7091	-4.2517	-3.5766	-8.3801	-3.6995	-5.5438	-4.3878	-7.0037	-5.5672	-5.4707	-5.5590	-10.2204	-2.9905	-4.9791	-1.9261
984.0248	-3.4620	-4.8413	-4.1380	-2.9314	-8.6643	-3.1757	-5.7146	-4.2305	-5.5264	-4.5057	-5.1845	-4.7585	-10.4840	-2.7239	-5.1454	-1.9213
992.0250	-3.7525	-5.0078	-4.3912	-3.1986	-8.9476	-3.4657	-5.6887	-4.6286	-5.1576	-4.7150	-5.6596	-5.2714	-11.3603	-2.9204	-5.8311	-2.1609
1000.0252	-3.2243	-4.2984	-3.5689	-2.9188	-8.4683	-3.3397	-5.3388	-4.5648	-5.0312	-4.0874	-4.8516	-4.8883	-11.2398	-2.8341	-5.9159	-2.2025
1008.0254	-2.3360	-3.2586	-2.0337	-2.7093	-6.8431	-3.0733	-4.1937	-4.0929	-4.4422	-3.3475	-3.3258	-4.3562	-10.0180	-2.5271	-5.5048	-2.0441
1016.0256	-2.5558	-3.6028	-2.1059	-3.0377	-6.5993	-3.4928	-3.8790	-4.4018	-5.3256	-3.8063	-3.6355	-4.9493	-10.2269	-2.7657	-5.8190	-2.2155
1024.0258	-1.6391	-2.6675	-1.0137	-2.2632	-6.0403	-3.0777	-3.7837	-4.0125	-6.7631	-2.8154	-2.2827	-3.8621	-9.3090	-2.5426	-5.1981	-2.0603
1032.0260	-1.1783	-2.2161	-0.4602	-1.8877	-5.6369	-2.8515	-3.6573	-3.7566	-8.0040	-2.3461	-1.5852	-3.3060	-8.6686	-2.4019	-4.7852	-1.9449
1040.0262	-1.3743	-2.3193	-1.1405	-1.4313	-6.6625	-2.8814	-4.4358	-4.1120	-8.1523	-2.1191	-2.2009	-3.1084	-9.4748	-2.5944	-5.1118	-2.1418
1048.0264	-0.7043	-1.6413	-0.4600	-0.6363	-6.4405	-2.7190	-4.5075	-4.0687	-6.4663	-1.3079	-1.3951	-2.3162	-9.0755	-2.6027	-4.8443	-2.1824
1056.0266	-0.5227	-1.5179	-0.2142	-0.4214	-6.1767	-2.8775	-4.3459	-4.2221	-5.9908	-1.1751	-1.2251	-2.2695	-8.9703	-2.7421	-4.8830	-2.2999
1064.0268	-0.3564	-1.0549	-0.2766	0.0967	-6.4213	-2.6071	-4.5320	-4.1961	-7.4053	-0.5149	-1.1633	-1.7306	-9.1033	-2.6400	-4.9548	-2.3325
1072.0270	-0.4146	-1.0037	-0.3894	0.1605	-6.2518	-2.6297	-4.3305	-4.2406	-6.8078	-0.4454	-1.3327	-1.7712	-9.0601	-2.6490	-5.0428	-2.3807
1080.0272	-0.2006	-0.8758	-0.1589	0.4428	-5.9198	-2.7158	-4.1716	-4.2927	-3.3456	-0.2986	-1.1423	-1.6374	-8.7264	-2.7454	-4.9031	-2.4376
1088.0274	0.8367	0.1766	1.2314	1.1274	-4.5416	-2.2522	-3.4608	-3.6603	-1.9347	0.6611	0.4602	-0.5832	-7.0552	-2.3993	-3.9819	-2.1660
1096.0276	0.9531	0.3241	1.5260	1.0396	-3.5538	-2.1611	-2.7082	-3.3435	-3.3922	0.6686	0.7397	-0.5589	-6.0912	-2.2170	-3.5946	-2.0093
1104.0278	1.1451	0.6800	1.7088	1.2750	-2.8686	-1.9056	-2.2159	-3.0211	-2.9996	1.0200	0.9928	-0.2168	-5.2757	-1.9954	-3.2263	-1.8675
1112.0280	1.5819	1.1410	2.4898	1.3237	-1.4765	-1.7087	-1.2425	-2.5426	-2.5089	1.2724	1.7885	0.0494	-3.9120	-1.7281	-2.6311	-1.6462
1120.0282	1.8414	1.2753	2.9376	1.3510	-0.7675	-1.6486	-0.8265	-2.2832	-3.0429	1.3028	2.2743	0.2024	-3.0749	-1.6254	-2.1788	-1.5064
1128.0284	2.4091	1.7815	3.6883	1.6565	0.0510	-1.2694	-0.4606	-1.7287	-1.1784	1.7343	3.2235	0.8484	-1.8329	-1.3254	-1.3854	-1.2161
1136.0286	2.5079	1.8164	4.1344	1.3032	1.3608	-1.2455	0.5469	-1.3331	2.0700	1.4750	3.5717	0.6232	-0.6606	-1.1307	-0.9171	-1.0067
1144.0288	3.3094	2.6912	5.2820	1.7649	2.8328	-0.8902	1.4606	-0.7768	5.5980	2.2004	4.8132	1.3421	0.8878	-0.8184	-0.1779	-0.7787
1152.0290	4.1684	3.7256	6.4591	2.2931	4.3294	-0.3455	2.3819	-0.0552	5.6299	3.1164	6.1867	2.2854	2.5974	-0.3609	0.6828	-0.4605
1160.0292	4.3295	4.1097	6.6944	2.3484	5.2399	0.0196	3.0836	0.4503	2.5319	3.4275	6.5291	2.6134	3.6473	0.0071	1.1580	-0.2091
1168.0294	5.4417	5.3732	8.1412	3.0864	6.8889	0.7568	3.9876	1.3865	3.9604	4.5872	8.2893	3.9110	5.7656	0.5822	2.3424	0.2236
1176.0296	6.1179	5.8694	9.3674	3.1297	8.8969	0.9051	5.2966	2.0194	4.6477	4.7652	9.5296	4.2286	7.8257	0.8621	3.3200	0.5325
1184.0298	6.4514	6.0267	9.9580	3.1848	10.2276	0.9420	6.1515	2.4056	2.1640	4.7714	10.1430	4.4009	9.3202	1.0043	4.0494	0.7331
1192.0300	7.2355	6.9041	10.9997	3.6841	11.7115	1.4653	7.0287	3.1526	3.9182	5.5395	11.3884	5.2873	11.1559	1.4456	5.0305	1.0831
1200.0302	7.7204	7.4938	11.7776	3.8341	13.2992	1.8095	8.1361	3.7902	7.2003	5.9274	12.2193	5.7001	12.8238	1.8226	5.7926	1.3810
1208.0304	8.8445	8.6597	13.3246	4.5136	15.3405	2.3961	9.3266	4.6971	9.6933	6.9229	13.9950	6.8370	15.2439	2.3250	7.0645	1.7934
1216.0306	9.5799	9.4910	14.5190	4.7406	17.4384	2.8116	10.7608	5.4993	9.5455	7.4919	15.2801	7.4470	17.4213	2.7946	8.0580	2.1642
1224.0309	9.7672	9.7453	14.8876	4.7439	18.9863	2.9887	11.9163	6.0069	8.1736	7.5842	15.6484	7.5836	19.0346	3.0812	8.7346	2.4108
1232.0311	10.6678	10.5605	16.1915	5.2069	21.1011	3.3948	13.1952	6.8364	12.1219	8.1868	17.0938	8.3798	21.5062	3.4883	10.0108	2.8047
1240.0313	11.3873	11.1779	17.4945	5.2428	23.4952	3.6710	14.8072	7.6670	12.9555	8.4420	18.4344	8.7785	23.9916	3.9058	11.1758	3.2126
1248.0315	12.2408	11.9309	18.7985	5.5819	25.8463	4.1019	16.2737	8.6131	9.8438	8.9583	19.9241	9.5623	26.7702	4.3924	12.6014	3.6861
1256.0317	13.1049	12.6088	20.3163	5.6663	28.6491	4.4360	18.1057	9.6223	11.8833	9.2264	21.5135	10.0750	29.8103	4.8781	14.0910	4.1934
1264.0319	13.6261	12.9194	21.4574	5.4160	31.1109	4.5854	19.8066	10.4361	13.2419	9.1014	22.6275	10.1517	32.3327	5.2546	15.2670	4.6199
1272.0321	14.5554	13.4555	22.9630	5.6814	33.4501	4.7648	21.1618	11.2242	14.1135	9.3352	24.2377	10.7378	35.0665	5.5418	16.7229	5.0246
1280.0323	15.3690	13.8293	24.5826	5.5611	36.3511	4.7524	23.0546	12.0035	16.0330	9.2127	25.7903	10.8766	38.0084	5.8010	18.1125	5.4212
1288.0325	16.0492	14.4147	25.8063	5.5530	38.8319	5.1591	24.7072	13.0178	14.3093	9.4427	27.1369	11.3633	40.7922	6.3417	19.4975	5.9489
1296.0327	16.7936	15.0696	27.0636	5.6741	41.2614	5.5582	26.2986	13.9820	14.3791	9.7746	28.5125	11.9248	43.5206	6.8443	20.8550	6.4375
1304.0329	17.4661	15.4671	28.4163	5.5953	44.1066	5.5791	28.2494	14.7185	16.0543	9.7303	29.7740	12.0351	46.3272	7.1245	22.0926	6.7947
1312.0331	18.0238	15.8772	29.2853	5.8017	46.1031	5.8281	29.5207	15.4448	16.9261	9.9352	30.7297	12.4810	48.6794	7.4568	23.2823	7.1646
1320.0333	18.4561	16.1324	30.1705	5.6623	48.2331	5.9987	30.9713	16.1863	20.7935	9.8442	31.6059	12.5950	50.9671	7.7961	24.3835	7.5545
1328.0335	19.2899	16.6599	31.6679	5.6884	50.9109	6.2367	32.6734	17.1236	24.1162	9.9527	33.1546	13.0045	53.9116	8.2008	25.8693	8.0385
1336.0337	19.8840	17.0119	32.6800	5.7691	52.9937	6.4537	33.9789	17.8911	25.7875	10.0289	34.2430	13.3740	56.3464	8.5333	27.1308	8.4436
1344.0339	20.1548	17.1420	33.4436	5.4121	55.2279	6.5626	35.6034	18.6166	27.0845	9.7612	34.9432	13.2659	58.5972	8.8826	28.1321	8.8306
1352.0341	20.4944	17.4362	34.0985	5.3100	56.9990	6.8967	36.8131	19.4140	25.7554	9.8057	35.7014	13.5411	60.6772	9.3231	29.1860	9.2628
1360.0343	20.2885	17.1758	33.9170	5.0097	58.0316	6.9704	37.6152	19.8330	25.4430	9.4076	35.5094	13.3252	61.9335	9.5363	29.7866	9.5189
1368.0345	20.2695	17.1018	33.8948	4.9185	59.1756	7.2051	38.3995	20.4160	27.4318	9.2250	35.5654	13.4027	63.5178	9.8391	30.6424	9.8587
1376.0347	20.3610	17.2254	33.9641	4.9350	59.9724	7.5985	38.8955	21.0375	27.3886	9.2943	35.8140	13.7293	64.8305	10.2154	31.4351	10.2179
1384.0349	19.6576	16.7319	32.8637	4.5756	59.7413	7.7872	38.9171	21.2454	26.4327	8.8751	34.7646	13.4149	64.9017	10.4238	31.4999	10.3852
1392.0351	18.3549	15.8773	30.2956	4.5918	57.1665	8.1426	37.2319	21.0213	26.8797	8.6103	32.4472	13.2983	63.1462	10.4861	30.9275	10.3644
1400.0353	16.4972	14.4748	27.0445	4.1911	53.4563	8.1365	34.9156	20.2327	25.0259	7.8524	29.2854	12.5232	59.8606	10.2491	29.4988	10.0683
1408.0355	13.9146	12.6439	22.4977	3.6885	48.2533	8.1874	31.7090	19.1313	19.5876	6.9519	24.8822	11.5278	55.1899	9.9607	27.4157	9.6403
1416.0357	10.5049	10.2777	16.4086	3.1637	40.7863	8.1850	27.0492	17.4113	16.7008	5.8924	18.9400	10.2145	48.2774	9.4362	24.2850	8.9141
1424.0359	6.6592	7.3732	9.7740	2.3402	32.3377	7.7701	21.7919	15.1225	15.2433	4.3425	12.2743	8.2915	40.0519	8.5546	20.4387	7.9054
1432.0361	-0.4412	2.3870	-3.8988	2.4578	13.5406	7.9094	9.3076	10.8312	5.9536	2.8939	-0.6552	6.5672	23.4090	7.0582	13.3936	6.0527
1440.0363	-11.5519	-5.7571	-23.4738	0.7227	-12.7529	6.6248	-7.2519	3.4756	-8.1911	-0.8916	-20.2239	1.4307	-2.3856	4.1797	1.2746	2.6970
1448.0365	-19.0913	-11.9459	-34.3232	-3.0716	-26.7844	3.6592	-14.8830	-2.4471	-17.0634	-5.6797	-32.5788	-5.3542	-19.7523	1.4115	-8.3677	-0.1960
1456.0367	-21.7940	-14.3582	-37.6962	-4.9937	-31.9730	2.0150	-17.5841	-5.1243	-20.7506	-7.8511	-36.8197	-8.5404	-27.0715	0.0478	-12.6258	-1.5478
1464.0369	-23.7583	-15.9748	-40.4839	-6.0713	-36.3344	1.2145	-20.0909	-6.8472	-22.5423	-9.0912	-39.9915	-10.3509	-32.4205	-0.7502	-15.4913	-2.3881
1472.0371	-24.0530	-16.5007	-40.2313	-6.9755	-36.6135	0.4105	-20.0177	-7.5905	-23.0930	-9.9438	-40.2030	-11.5742	-33.8902	-1.2402	-16.5809	-2.7900
1480.0373	-23.7050	-16.6030	-39.3660	-7.1973	-36.7531	-0.1198	-20.2388	-8.0444	-22.8115	-10.2414	-39.5271	-11.9236	-34.5381	-1.6442	-16.9363	-3.0350
1488.0375	-22.8745	-16.3473	-37.5280	-7.4631	-35.6860	-0.7180	-19.6285	-8.2973	-20.6339	-10.4438	-37.9802	-12.2372	-34.2801	-1.9948	-16.9735	-3.2128
1496.0377	-20.8591	-15.1695	-33.8698	-7.2197	-32.6419	-1.0781	-17.9393	-7.9055	-19.0908	-9.9691	-34.4784	-11.6860	-31.8414	-2.0901	-15.8613	-3.1015
1504.0379	-19.6760	-14.5077	-31.9330	-6.8669	-31.5381	-1.1738	-17.5632	-7.7078	-19.4634	-9.5572	-32.4849	-11.0943	-30.7467	-2.1569	-15.1843	-3.0286
1512.0381	-18.1999	-13.5158	-29.6793	-6.1914	-29.7789	-1.1197	-16.7894	-7.2834	-17.9077	-8.8134	-30.1252	-10.1494	-28.8573	-2.1098	-14.1199	-2.8665
1520.0383	-16.5417	-12.4131	-27.0495	-5.4368	-27.6061	-1.3310	-15.6908	-7.0799	-16.5125	-8.0254	-27.5434	-9.3237	-26.9346	-2.2458	-13.2174	-2.8666
1528.0385	-15.2802	-11.6891	-24.6207	-5.3404	-25.2674	-1.8220	-14.2169	-7.0383	-15.2822	-7.8209	-25.3974	-9.2551	-25.3867	-2.4589	-12.7289	-2.9430
1536.0387	-13.0337	-10.2560	-21.2747	-4.1946	-22.5917	-1.7805	-13.0974	-6.4203	-12.0921	-6.7134	-21.8784	-7.7748	-22.3780	-2.4419	-11.0002	-2.7066
1544.0389	-11.5418	-9.2269	-19.5190	-2.8097	-21.8310	-1.6581	-13.2208	-6.2543	-12.7245	-5.5342	-19.8372	-6.3006	-21.0018	-2.5543	-10.0009	-2.6864
1552.0391	-10.7605	-8.5078	-18.3929	-2.2246	-20.8242	-1.7328	-12.6358	-6.2634	-14.3581	-4.8670	-18.7502	-5.7833	-20.2503	-2.6301	-9.7749	-2.7827
1560.0393	-9.3342	-7.3586	-16.4206	-1.2102	-19.1875	-1.6654	-11.8811	-5.9955	-12.0402	-3.8130	-16.6983	-4.6980	-18.5602	-2.6376	-8.9202	-2.7485
1568.0395	-8.3061	-6.4208	-15.1021	-0.3442	-18.2110	-1.5228	-11.4754	-5.8098	-10.9589	-2.8685	-15.2767	-3.7689	-17.5008	-2.6096	-8.3747	-2.7375
1576.0397	-8.0079	-6.1442	-14.7849	0.0337	-18.2712	-1.5772	-11.6096	-5.9688	-10.6543	-2.5154	-14.9563	-3.4921	-17.6239	-2.7300	-8.4502	-2.8609
1584.0399	-8.0941	-6.4834	-14.9933	0.1954	-19.0823	-2.0389	-12.2685	-6.5915	-9.5448	-2.7128	-15.2896	-3.7335	-18.5853	-3.1973	-8.9247	-3.1947
1592.0401	-8.5729	-6.7187	-16.2899	0.6992	-21.5109	-1.9662	-14.0403	-7.1905	-9.5455	-2.4079	-16.4229	-3.4852	-20.6666	-3.4456	-9.7485	-3.4968
1600.0403	-11.0405	-8.3498	-21.5030	1.3227	-29.7588	-1.8334	-19.7545	-9.1055	-12.0877	-2.4253	-21.2137	-3.6262	-27.8962	-4.1658	-12.7063	-4.3713
1608.0405	-14.8216	-11.3404	-27.8396	0.4719	-38.6013	-2.8641	-25.2181	-12.1470	-18.3227	-4.0763	-27.8479	-5.9670	-37.2760	-5.5496	-17.3827	-5.8292
1616.0407	-16.8006	-12.8235	-30.6949	-0.4672	-42.8157	-3.6937	-27.5309	-13.9616	-22.2480	-5.1351	-31.1363	-7.7497	-42.6541	-6.3706	-20.4039	-6.7543
1624.0409	-17.8824	-13.5169	-32.5274	-0.6979	-46.3962	-3.9695	-29.8020	-15.1313	-23.2961	-5.3742	-33.0510	-8.3861	-46.6604	-6.8550	-22.3974	-7.3464
1632.0411	-18.7934	-14.1478	-33.6840	-1.2957	-48.1484	-4.4358	-30.6342	-16.0268	-25.3247	-5.9076	-34.5038	-9.3904	-49.2632	-7.2502	-23.9816	-7.8224
1640.0413	-18.9102	-14.3269	-33.7664	-1.4274	-48.9582	-4.7271	-31.1694	-16.4953	-24.1195	-6.0688	-34.7120	-9.7079	-50.4386	-7.5323	-24.6186	-8.0757
1648.0415	-18.9611	-14.4336	-33.8264	-1.4823	-50.1213	-4.9066	-32.0250	-16.9335	-22.8421	-6.1084	-34.8101	-9.8493	-51.8238	-7.7777	-25.2525	-8.3020
1656.0417	-18.4370	-13.9312	-32.6715	-1.6565	-49.0578	-4.9655	-31.2210	-16.7917	-22.8807	-5.9275	-33.7858	-9.8640	-51.3307	-7.7041	-25.2130	-8.2802
1664.0419	-17.5372	-13.3216	-31.2002	-1.4055	-48.0731	-4.9186	-30.7893	-16.5169	-19.6542	-5.5424	-32.2723	-9.3841	-50.3704	-7.6512	-24.6559	-8.1674
1672.0421	-16.7341	-12.6540	-29.5756	-1.5671	-46.6104	-4.8764	-29.8110	-16.1440	-19.2510	-5.2905	-30.7131	-9.2086	-49.3470	-7.4738	-24.2670	-8.0153
1680.0423	-15.9565	-12.0311	-28.1078	-1.5898	-45.3220	-4.8121	-29.0078	-15.7907	-20.7619	-4.9889	-29.2510	-8.9149	-48.3173	-7.3151	-23.8131	-7.8654
1688.0425	-15.3105	-11.7888	-27.0830	-1.3710	-44.9049	-4.9317	-29.0040	-15.7508	-18.7003	-4.8616	-28.1943	-8.6183	-47.8126	-7.4335	-23.4177	-7.8484
1696.0427	-14.1260	-10.7444	-24.8400	-1.3877	-42.3587	-4.7654	-27.2963	-15.0490	-17.9245	-4.3610	-26.0039	-8.1798	-45.7006	-7.0900	-22.5491	-7.5535
1704.0429	-13.3805	-10.1140	-23.6039	-1.2327	-41.3417	-4.5454	-26.7524	-14.6127	-19.3050	-3.9346	-24.6599	-7.6616	-44.6377	-6.8665	-21.9600	-7.3459
1712.0432	-13.1007	-10.1755	-22.9253	-1.4113	-40.7488	-4.8153	-26.4266	-14.6397	-20.5538	-4.1911	-24.0745	-7.8372	-44.2143	-6.9982	-21.7668	-7.3539
1720.0434	-12.1370	-9.5484	-21.0796	-1.4370	-38.6123	-4.8668	-25.0697	-14.1646	-19.7985	-4.0120	-22.3069	-7.6004	-42.3549	-6.8590	-20.9466	-7.1480
1728.0436	-11.3399	-9.1557	-19.8602	-1.1407	-37.9134	-4.8469	-24.9209	-13.9240	-16.2080	-3.7639	-20.9961	-7.1170	-41.4278	-6.8629	-20.2882	-7.0250
1736.0438	-10.3732	-8.5879	-17.9555	-1.2174	-35.7398	-4.9996	-23.5352	-13.5239	-14.3817	-3.6775	-19.2221	-6.9909	-39.6234	-6.7933	-19.5214	-6.8607
1744.0440	-9.5648	-8.0080	-16.5282	-1.1099	-34.2528	-4.9357	-22.6522	-13.1121	-13.9834	-3.3882	-17.7838	-6.6234	-38.2199	-6.6440	-18.8389	-6.6768
1752.0442	-9.2591	-7.8839	-15.9586	-1.1286	-33.8675	-4.9746	-22.4847	-13.0168	-12.3150	-3.3895	-17.2204	-6.5549	-37.8564	-6.6488	-18.6153	-6.6266
1760.0444	-8.1261	-7.0471	-13.8957	-1.0220	-31.2621	-4.9074	-20.8178	-12.3532	-11.2673	-3.0261	-15.1999	-6.1189	-35.4560	-6.3990	-17.5381	-6.3365
1768.0446	-7.1640	-6.4262	-12.4928	-0.5791	-30.2351	-4.7059	-20.4746	-11.8928	-11.4145	-2.5359	-13.6045	-5.3398	-34.0398	-6.2504	-16.6084	-6.1030
1776.0448	-6.3237	-5.8852	-10.8265	-0.6948	-28.4578	-4.7421	-19.3478	-11.4711	-12.7832	-2.4097	-11.9912	-5.1556	-32.5318	-6.1108	-15.9368	-5.9110
1784.0450	-5.2439	-5.0915	-8.8907	-0.5393	-25.8057	-4.6724	-17.6436	-10.7987	-13.1242	-2.0499	-10.0848	-4.7006	-30.0131	-5.8580	-14.8036	-5.6147
1792.0452	-4.7357	-4.9208	-7.9853	-0.4447	-24.6484	-4.8313	-16.9845	-10.6350	-9.7111	-2.0796	-9.2500	-4.6181	-28.8853	-5.9111	-14.2539	-5.5462
1800.0454	-3.4618	-4.0575	-5.5362	-0.4682	-21.5794	-4.9053	-14.9808	-9.9777	-5.8478	-1.8391	-6.9513	-4.3488	-26.2500	-5.7152	-13.1384	-5.2722
1808.0456	-2.0149	-2.8924	-3.4984	0.3183	-19.4276	-4.4016	-13.9346	-9.0397	-3.6959	-0.8803	-4.6234	-3.0409	-23.5051	-5.2985	-11.5415	-4.8222
1816.0458	-1.0293	-2.2176	-1.7010	0.3987	-17.1800	-4.3675	-12.5233	-8.4678	-2.4340	-0.6199	-2.8607	-2.6797	-21.3952	-5.1016	-10.5667	-4.5655
1824.0460	0.0252	-1.4707	0.3141	0.3598	-14.5316	-4.3023	-10.7985	-7.7602	-3.5409	-0.3795	-0.8850	-2.3360	-18.9492	-4.8181	-9.4672	-4.2375
1832.0462	0.3143	-1.1625	0.4414	0.7804	-14.4599	-3.8716	-10.9651	-7.3348	-4.5466	0.0570	-0.4717	-1.6333	-18.2108	-4.5553	-8.8347	-3.9935
1840.0464	1.2228	-0.4383	2.2011	0.7573	-12.0009	-3.8397	-9.2852	-6.7559	-2.6272	0.3138	1.1821	-1.4031	-16.1016	-4.3187	-7.9847	-3.7516
1848.0466	2.2180	0.3338	3.6734	1.2091	-10.3127	-3.5150	-8.4030	-6.0615	-3.3908	0.8994	2.8458	-0.5569	-14.0277	-4.0092	-6.8154	-3.4109
1856.0468	2.3097	0.4395	3.8877	1.1093	-9.7037	-3.3527	-7.9699	-5.7326	-5.5157	0.9069	3.1185	-0.4596	-13.2993	-3.8054	-6.4407	-3.2268
1864.0470	3.3349	1.1994	5.9895	0.9613	-6.5052	-3.4117	-5.7355	-5.0506	-3.2722	1.0500	5.0285	-0.3584	-10.6109	-3.5511	-5.4024	-2.9420
1872.0472	3.8432	1.5993	6.4119	1.5722	-5.9620	-3.0515	-5.6529	-4.5932	-3.1224	1.5592	5.7191	0.4633	-9.3513	-3.3395	-4.5169	-2.6971
1880.0474	3.9428	1.6513	6.9621	1.1331	-4.4183	-3.1099	-4.4158	-4.2372	-4.4850	1.2733	6.1254	0.1454	-8.1222	-3.1603	-4.1210	-2.5191
1888.0476	4.6291	2.2022	8.0057	1.4044	-2.7653	-2.8331	-3.4302	-3.5883	-1.0587	1.6251	7.2689	0.6880	-6.1831	-2.8599	-3.0977	-2.1991
1896.0478	4.4455	2.1425	7.1605	1.9458	-3.9866	-2.4794	-4.4747	-3.5607	2.1621	1.9570	6.7030	1.2349	-6.6240	-2.7977	-2.9848	-2.1506
1904.0480	4.5479	2.1501	7.8508	1.3764	-2.5925	-2.7422	-3.2952	-3.4420	3.1246	1.5580	7.1215	0.6691	-5.8847	-2.7748	-2.9243	-2.1135
1912.0482	4.3855	2.0991	7.3660	1.5067	-2.9773	-2.4226	-3.6277	-3.2012	1.8454	1.6646	6.8392	0.9621	-5.7473	-2.5788	-2.6628	-1.9487
1920.0484	3.8797	1.7516	6.6606	1.1531	-3.2600	-2.3577	-3.6581	-3.1524	-0.5172	1.3388	6.1321	0.6412	-5.9894	-2.4750	-2.8093	-1.8866
1928.0486	4.1272	1.8185	7.3265	0.8811	-1.9278	-2.3889	-2.7187	-2.7890	-0.1781	1.1193	6.7300	0.5169	-4.7421	-2.3342	-2.2601	-1.6914
1936.0488	3.5099	1.3680	6.0476	0.9354	-3.2806	-2.1743	-3.6708	-2.8543	-0.0842	0.9874	5.6274	0.5445	-5.5334	-2.2907	-2.4263	-1.6642
1944.0490	3.5879	1.3293	6.8041	0.2153	-1.7482	-2.4723	-2.3601	-2.7110	1.3816	0.4694	6.0727	-0.1512	-4.7468	-2.2569	-2.3724	-1.6099
1952.0492	3.8093	1.4934	6.9078	0.5027	-1.7985	-2.1614	-2.6022	-2.3919	2.7121	0.7204	6.3980	0.3539	-4.2327	-2.0809	-1.8600	-1.4146
1960.0494	2.8332	0.7846	5.3698	0.0746	-3.2573	-2.1550	-3.3911	-2.6653	-0.4043	0.2240	4.8666	-0.1804	-5.6104	-2.1081	-2.5239	-1.4967
1968.0496	3.0256	0.8033	6.2165	-0.5460	-1.7207	-2.3144	-2.1849	-2.3556	0.2225	-0.2082	5.5167	-0.6437	-4.5382	-1.9865	-2.1955	-1.3358
1976.0498	2.6452	0.5844	5.1132	-0.2130	-3.3260	-1.8909	-3.4682	-2.2963	2.3038	-0.0301	4.7355	-0.2035	-5.2908	-1.8644	-2.1741	-1.2393
1984.0500	2.1684	0.0597	5.1282	-1.2942	-2.3221	-2.3695	-2.3507	-2.4017	1.4451	-0.9932	4.3380	-1.4170	-5.1951	-1.9394	-2.5509	-1.2899
1992.0502	2.3559	0.1202	5.3584	-1.2698	-1.7717	-2.0776	-2.1235	-1.8920	2.0008	-0.9899	4.7502	-1.0965	-4.1074	-1.6739	-1.7937	-0.9782
2000.0504	1.1949	-0.6443	2.9795	-1.1831	-4.6844	-1.7041	-4.1311	-2.1733	0.8685	-1.1373	2.6806	-1.0670	-6.1636	-1.6440	-2.4346	-1.0246
2008.0506	1.1025	-1.0173	3.7493	-2.3048	-2.9579	-2.2863	-2.6035	-2.1650	1.3256	-2.1328	2.9901	-2.2540	-5.4489	-1.7392	-2.5103	-1.0238
2016.0508	0.7298	-1.2534	2.6635	-2.0122	-4.3790	-1.7858	-3.7797	-1.9548	3.3410	-1.9977	2.2674	-1.7723	-5.8822	-1.5338	-2.2836	-0.8336
2024.0510	-0.3498	-2.0416	1.4523	-3.0198	-4.8151	-2.0573	-3.5722	-2.2446	3.0933	-2.9133	0.7543	-2.9864	-6.9703	-1.5806	-3.1532	-0.9556
2032.0512	0.0856	-1.9394	2.7719	-3.6777	-2.4914	-2.2201	-1.8791	-1.7061	5.9863	-3.4095	1.8605	-3.4135	-5.0640	-1.3931	-2.4006	-0.6733
2040.0514	-0.6386	-2.2837	0.8595	-3.2523	-5.2323	-1.4589	-3.9845	-1.5804	5.6150	-3.1053	0.4966	-2.7253	-6.4706	-1.1187	-2.4852	-0.4962
2048.0516	-0.1396	-2.1858	3.1223	-4.7977	-1.1371	-2.1386	-0.6682	-1.1019	2.4146	-4.1613	2.1061	-4.0892	-4.0046	-0.9964	-2.0142	-0.2963
2056.0518	2.0592	-0.7933	7.1947	-4.8027	4.7517	-1.8552	3.0438	0.7029	5.5033	-3.8173	6.1987	-3.2341	1.9974	-0.2839	0.9210	0.6020
2064.0520	2.8305	-0.0974	8.3102	-4.5695	6.8783	-1.1385	4.2912	1.9498	8.8300	-3.3702	7.6224	-2.3486	4.9120	0.4070	2.6108	1.2764
2072.0522	4.2735	0.6383	11.5730	-5.3132	12.0559	-1.2150	7.8293	3.3132	11.6865	-3.7589	10.6489	-2.4619	9.6243	0.9197	4.6871	1.9662
2080.0524	4.9305	1.1868	12.0257	-4.6282	12.6604	-0.2540	7.7441	4.4717	13.9290	-3.0803	11.7127	-1.0616	11.7887	1.5787	6.4062	2.6486
2088.0526	4.7658	1.2346	12.1834	-5.3067	14.0150	0.0188	8.9640	5.1177	12.5550	-3.3777	11.8256	-1.3752	12.9712	2.0471	6.8235	3.0071
2096.0528	5.0153	1.2848	13.1165	-6.0212	16.6415	0.2255	10.8840	6.1321	12.5348	-3.8878	12.7246	-1.6061	15.6752	2.5723	8.0934	3.5820
2104.0530	3.9400	0.6398	10.9247	-6.0506	14.6871	0.8797	9.5568	6.3923	14.5089	-4.0620	10.9089	-1.4581	14.8250	2.9231	8.0891	3.8365
2112.0532	3.8824	0.5196	11.6426	-7.1222	16.6307	0.7201	11.2466	6.8339	17.5256	-4.8076	11.3140	-2.3294	16.0427	3.1639	8.3488	4.0733
2120.0534	2.6311	0.5424	0.5184	8.2843	-4.8484	-5.3898	-5.0253	-8.0023	-0.9117	3.5292	-0.8814	1.7720	-6.8245	-6.1267	-4.4405	-5.0047
2128.0536	2.3743	0.2729	0.3736	7.7019	-4.7152	-5.2280	-4.8591	-7.6580	-0.4153	3.0829	-0.9869	1.4811	-6.5708	-5.8858	-4.2288	-4.7596
2136.0538	2.1033	-0.1824	0.4041	6.9157	-4.1375	-5.3331	-4.3424	-7.4152	0.1505	2.3251	-1.0597	0.8596	-6.1026	-5.7760	-4.0156	-4.5697
2144.0540	1.8654	-0.3344	0.3267	6.3264	-3.7174	-5.1489	-3.9006	-7.0290	0.0197	1.9609	-1.1336	0.5598	-5.6997	-5.4857	-3.8270	-4.3228
2152.0542	1.7941	-0.3612	0.4359	5.8442	-3.4922	-4.8510	-3.7035	-6.5670	-0.6609	1.7487	-0.9203	0.4977	-5.3219	-5.1490	-3.5299	-4.0258
2160.0544	1.4160	-0.8522	0.1659	5.1514	-3.4384	-4.8462	-3.5839	-6.3469	-2.5662	1.0828	-1.1937	0.0166	-5.1813	-5.0118	-3.3873	-3.8322
2168.0546	1.0954	-1.0782	-0.1412	4.6547	-3.4097	-4.6644	-3.4444	-6.0599	-2.3475	0.7385	-1.4689	-0.2469	-5.0747	-4.7755	-3.2959	-3.6317
2176.0548	1.0550	-1.0466	0.0808	4.1423	-2.8820	-4.4264	-2.9761	-5.6144	-0.1968	0.5187	-1.2289	-0.4115	-4.5835	-4.4568	-3.0424	-3.3650
2184.0550	0.7577	-1.1868	-0.1811	3.6478	-2.7126	-4.1880	-2.7089	-5.2616	-1.4350	0.2486	-1.4466	-0.6260	-4.3586	-4.1596	-2.9219	-3.1364
2192.0552	0.5362	-1.2502	-0.4634	3.3395	-2.7565	-3.8592	-2.6719	-4.8860	-2.5056	0.1368	-1.6039	-0.6235	-4.1622	-3.8475	-2.7263	-2.8930
2200.0555	0.8377	-0.8747	0.1381	3.1394	-1.9702	-3.4238	-2.1505	-4.2337	-1.7193	0.2956	-0.8543	-0.3277	-3.1835	-3.4101	-2.1408	-2.5297
2208.0557	0.8598	-0.7238	0.3025	2.8736	-1.5538	-3.1195	-1.8004	-3.8046	-1.9725	0.3041	-0.6065	-0.2608	-2.6826	-3.0877	-1.8592	-2.2832
2216.0559	0.4303	-1.1138	-0.1355	2.3068	-1.7207	-3.0884	-1.7765	-3.6920	0.8206	-0.2050	-1.0919	-0.7297	-2.8866	-2.9788	-1.9512	-2.1741
2224.0561	0.3817	-1.0263	-0.0035	1.8919	-1.2598	-2.7828	-1.3557	-3.2254	2.5354	-0.3167	-0.9071	-0.7917	-2.3957	-2.6284	-1.6880	-1.9008
2232.0563	0.0547	-1.3273	-0.3789	1.4981	-1.3619	-2.6918	-1.3497	-3.0555	0.0338	-0.6676	-1.2424	-1.0304	-2.3649	-2.4874	-1.6182	-1.7603
2240.0565	-0.4434	-1.8318	-1.0408	1.0811	-1.8195	-2.7346	-1.5751	-3.0865	0.9494	-1.1752	-1.9302	-1.4593	-2.7439	-2.4839	-1.7600	-1.7227
2248.0567	-0.0373	-1.2073	-0.3347	1.0178	-0.8930	-2.1817	-0.9231	-2.3662	2.0610	-0.7550	-1.0588	-0.9920	-1.6825	-1.9658	-1.1851	-1.3501
2256.0569	-0.0214	-1.2051	-0.0807	0.6263	-0.2613	-2.0023	-0.4382	-1.9477	1.3728	-0.9606	-0.7659	-1.0797	-0.9869	-1.6993	-0.8100	-1.0966
2264.0571	-0.5081	-1.5421	-0.6879	0.1950	-0.4553	-1.9791	-0.3806	-1.9169	3.0397	-1.3432	-1.4383	-1.5109	-1.2749	-1.6155	-1.0172	-1.0519
2272.0573	-0.4137	-1.1505	-0.5712	0.1774	-0.1566	-1.5195	-0.1102	-1.4573	3.3559	-1.0031	-1.1810	-1.1835	-0.8431	-1.2265	-0.7754	-0.8136
2280.0575	-0.4903	-1.1575	-0.6546	-0.0044	-0.1092	-1.2770	-0.0675	-1.1560	2.2695	-1.0527	-1.1566	-1.1169	-0.5797	-0.9988	-0.5494	-0.6213
2288.0577	-0.5673	-1.0233	-0.7163	-0.1620	0.0631	-1.0369	0.1585	-0.9028	1.1798	-0.9730	-1.1679	-1.0758	-0.4120	-0.7618	-0.4962	-0.4847
2296.0579	-0.4399	-0.9735	-0.3721	-0.3556	0.6245	-0.9464	0.5322	-0.6163	-0.7397	-1.0682	-0.7859	-1.0593	0.2185	-0.6055	-0.1511	-0.3144
2304.0581	-0.8187	-1.5144	-0.7713	-0.7951	0.3531	-1.1425	0.3907	-0.7217	-1.6294	-1.6630	-1.2518	-1.5482	-0.0501	-0.7004	-0.2516	-0.3167
2312.0583	-1.2380	-1.6798	-1.4006	-1.0230	-0.1295	-1.0387	0.2279	-0.7492	-0.9465	-1.7811	-1.8954	-1.7728	-0.6080	-0.6144	-0.5816	-0.3195
2320.0585	-1.0203	-1.3471	-1.1673	-0.8599	0.2365	-0.7248	0.4366	-0.3995	1.9561	-1.4698	-1.5488	-1.4090	-0.0312	-0.3742	-0.2267	-0.1434
2328.0587	-0.4010	-0.7809	-0.1603	-0.7174	1.1742	-0.4749	0.9636	0.0408	2.2965	-1.0793	-0.4409	-0.9410	0.9816	-0.1325	0.3293	0.0683
2336.0589	-0.3166	-0.6732	0.1306	-0.9343	1.5352	-0.3641	1.2497	0.2652	-2.1978	-1.0943	-0.1098	-0.9251	1.3034	0.0327	0.4793	0.1982
2344.0591	-0.7440	-0.8575	-0.5809	-1.0877	1.1189	-0.2004	1.0992	0.3207	-3.4096	-1.1872	-0.7776	-1.0441	0.9891	0.1630	0.3175	0.2486
2352.0593	-0.9281	-0.8821	-0.8863	-1.1652	0.9029	-0.0829	1.0291	0.3662	-2.0811	-1.1840	-1.0682	-1.0886	0.7798	0.2506	0.2026	0.2768
2360.0595	-0.9715	-1.0180	-0.9422	-1.2461	0.8303	-0.0733	0.9289	0.4237	-1.1467	-1.3316	-1.0935	-1.1257	0.8545	0.2617	0.3257	0.3328
2368.0597	-0.8296	-0.6539	-0.8207	-1.0992	0.9666	0.2306	1.0432	0.6678	1.2421	-0.9632	-0.8865	-0.8134	1.0557	0.4798	0.4344	0.4408
2376.0599	-0.6664	-0.3523	-0.4936	-1.1710	1.3586	0.4556	1.3600	0.9467	0.8672	-0.7663	-0.5107	-0.6545	1.3973	0.7028	0.5793	0.5776
2384.0601	-0.8611	-0.6354	-0.7518	-1.3416	1.2395	0.4055	1.2738	0.9527	-0.4809	-1.0461	-0.7597	-0.8238	1.4073	0.6876	0.6407	0.6150
2392.0603	-1.1452	-0.8489	-1.1881	-1.4536	0.8347	0.3354	1.0757	0.7927	1.2855	-1.2106	-1.2522	-1.0556	0.9207	0.6180	0.3618	0.5368
2400.0605	-1.0949	-0.8703	-1.0634	-1.5388	0.9542	0.3782	1.1180	0.9123	1.5714	-1.2855	-1.0958	-1.0431	1.1325	0.6735	0.5276	0.6170
2408.0607	-0.8535	-0.5799	-0.7180	-1.4417	1.3253	0.5926	1.3281	1.1850	-0.6796	-1.0322	-0.6463	-0.7332	1.6370	0.8581	0.8237	0.7565
2416.0609	-1.3006	-0.7854	-1.3605	-1.6632	0.7513	0.5522	1.1338	0.9738	-1.5585	-1.1755	-1.3675	-1.0645	0.8178	0.8270	0.2909	0.6434
2424.0611	-1.5418	-0.9494	-1.8296	-1.6578	0.3924	0.5957	0.9153	0.9344	0.7827	-1.2496	-1.8226	-1.1279	0.5788	0.8274	0.2048	0.6349
2432.0613	-1.0038	-0.4593	-1.0741	-1.3513	1.2220	0.8015	1.3554	1.2816	2.5192	-0.8400	-0.9755	-0.6400	1.5676	0.9962	0.7481	0.7912
2440.0615	-1.3745	-0.8750	-1.5546	-1.6159	0.9179	0.6259	1.2265	1.1095	0.6733	-1.2373	-1.5261	-1.0253	1.2103	0.8888	0.5403	0.7285
2448.0617	-1.6603	-1.0636	-2.0711	-1.6674	0.3814	0.6770	0.8958	1.0432	0.3551	-1.3231	-2.0083	-1.1024	0.7820	0.8947	0.3689	0.7132
2456.0619	-1.2573	-0.6649	-1.4958	-1.4864	0.7006	0.8879	1.0049	1.2932	1.3454	-0.9797	-1.3296	-0.7060	1.2164	1.0448	0.6662	0.8326
2464.0621	-1.7419	-1.2097	-2.2260	-1.7225	0.1274	0.7184	0.6634	1.0847	0.3957	-1.4401	-2.1033	-1.1007	0.7250	0.9117	0.4513	0.7650
2472.0623	-2.0594	-1.5363	-2.5765	-2.0017	0.0048	0.5177	0.7029	0.9009	1.3055	-1.8023	-2.5849	-1.5380	0.3874	0.7985	0.1821	0.6770
2480.0625	-1.7603	-1.3308	-2.0602	-1.9943	0.3869	0.6150	0.8775	1.1117	1.7591	-1.7002	-2.0141	-1.3506	0.8401	0.8984	0.4739	0.7910
2488.0627	-1.5316	-1.1035	-1.8036	-1.8172	0.6910	0.8264	0.9917	1.3815	-2.0033	-1.4549	-1.6129	-0.9746	1.4249	1.0634	0.8623	0.9389
2496.0629	-1.4061	-1.1012	-1.2563	-2.1885	1.5266	0.6567	1.6586	1.4683	-5.3320	-1.7067	-1.1918	-1.2702	1.9082	1.0782	0.9536	0.9802
2504.0631	-2.0393	-1.7395	-2.0947	-2.6867	0.8435	0.5208	1.3164	1.3027	-4.7972	-2.3310	-2.0999	-1.8562	1.2139	1.0061	0.6246	0.9501
2512.0633	-2.3784	-1.9786	-2.7871	-2.6224	0.2009	0.5381	0.9024	1.1591	0.5488	-2.4198	-2.7959	-1.9593	0.7063	0.9452	0.4157	0.8850
2520.0635	-1.8197	-1.6980	-1.8995	-2.4197	1.0451	0.4996	1.2993	1.3433	5.7716	-2.2868	-1.9152	-1.7099	1.6140	0.9317	0.9270	0.9642
2528.0637	-1.7270	-1.5316	-1.9513	-2.2458	0.9089	0.8719	1.0866	1.6842	4.1050	-2.0314	-1.7381	-1.2602	1.9684	1.1785	1.3112	1.1721
2536.0639	-2.0219	-1.5806	-2.2897	-2.5374	0.7480	0.9731	1.1657	1.7253	1.5657	-2.1093	-2.0984	-1.4661	1.6249	1.3083	1.0389	1.1979
2544.0641	-2.3784	-1.9223	-2.5834	-2.9882	0.8487	0.7680	1.4262	1.6043	2.7770	-2.5715	-2.5658	-2.0369	1.3936	1.2432	0.7671	1.1436
2552.0643	-2.7274	-2.0812	-3.0050	-3.2765	0.7998	0.7756	1.5888	1.5927	2.2319	-2.7614	-3.0608	-2.3493	1.1508	1.3072	0.5205	1.1402
2560.0645	-2.6266	-1.9477	-2.6171	-3.5539	1.3428	0.8285	2.0481	1.7907	0.0018	-2.8118	-2.7034	-2.4417	1.4908	1.4506	0.6076	1.2425
2568.0647	-2.2965	-1.4473	-2.4642	-3.1115	1.2611	1.4527	1.7933	2.3283	0.3349	-2.1783	-2.2052	-1.5865	2.0901	1.8428	1.1951	1.5402
2576.0649	-2.0559	-0.9386	-2.2984	-2.8138	1.2046	1.8893	1.7129	2.6305	1.9952	-1.6044	-1.8646	-1.0368	2.2376	2.1188	1.3515	1.6787
2584.0651	-2.0456	-0.8943	-2.2359	-2.8782	1.3430	1.9303	1.8381	2.7021	1.6252	-1.6004	-1.8027	-1.0463	2.3398	2.1760	1.3816	1.7156
2592.0653	-2.0661	-0.6990	-2.5187	-2.6234	1.2104	2.2910	1.7194	2.9618	1.5387	-1.2670	-1.9118	-0.6447	2.5804	2.4032	1.6064	1.8561
2600.0655	-2.0326	-0.6087	-2.1981	-2.9427	1.6168	2.2400	2.1360	3.0061	2.3482	-1.3717	-1.7075	-0.8969	2.5914	2.4558	1.4610	1.8636
2608.0657	-2.2802	-0.7347	-2.5838	-3.1085	1.2126	2.3822	1.9097	3.0785	0.1329	-1.4538	-2.0223	-0.9440	2.3060	2.5677	1.3748	1.9305
2616.0659	-2.3582	-0.4658	-2.9554	-2.8914	0.9893	2.8405	1.7869	3.3813	0.5491	-1.0450	-2.2101	-0.5302	2.4064	2.8706	1.5043	2.0883
2624.0661	-2.1384	-0.0606	-2.5049	-2.9342	1.7019	3.0152	2.3859	3.6379	3.2870	-0.7959	-1.7960	-0.4310	2.8768	3.0739	1.6042	2.1847
2632.0663	-2.4200	-0.0156	-3.1615	-2.8299	1.1523	3.3675	2.0699	3.7925	0.4329	-0.5655	-2.2873	-0.1916	2.6275	3.2946	1.5534	2.2806
2640.0665	-2.7967	-0.2537	-3.7071	-3.0752	0.6415	3.4154	1.8281	3.7466	-0.1643	-0.7632	-2.8323	-0.4206	2.1067	3.3370	1.2931	2.2813
2648.0667	-2.5507	0.0884	-3.2673	-3.1110	0.9553	3.6520	2.0409	4.0265	0.9353	-0.5308	-2.3274	-0.2025	2.4015	3.5488	1.4591	2.4204
2656.0669	-2.5389	0.4347	-3.4165	-2.9769	0.8632	4.1345	2.0088	4.3959	-2.4518	-0.0990	-2.2691	0.2452	2.5884	3.9029	1.6273	2.6168
2664.0671	-2.8415	0.3171	-3.7832	-3.2666	0.5805	4.1998	1.9678	4.3959	-0.0669	-0.2519	-2.6829	-0.0162	2.1463	3.9809	1.3455	2.6251
2672.0673	-2.6289	0.8125	-3.6111	-3.0507	0.4499	4.6178	1.8631	4.6661	3.6236	0.2752	-2.3702	0.4444	2.1246	4.2457	1.3990	2.7453
2680.0675	-2.7820	0.8313	-3.8384	-3.1493	0.3476	4.7557	1.8818	4.7562	0.3966	0.3150	-2.5542	0.4474	2.0290	4.3733	1.3264	2.7986
2688.0678	-3.2526	0.5450	-4.5524	-3.4009	-0.2006	4.8186	1.6452	4.7095	0.4725	0.0919	-3.2737	0.1809	1.4878	4.4265	1.0432	2.7997
2696.0680	-2.8595	1.2095	-4.0809	-3.1731	0.0438	5.3664	1.7617	5.2015	4.3688	0.7196	-2.6090	0.8023	1.9284	4.8204	1.3632	3.0378
2704.0682	-2.7350	1.2561	-3.5952	-3.5262	0.7619	5.3453	2.3188	5.4129	4.5109	0.5219	-2.1923	0.6075	2.4384	4.9285	1.5458	3.1546
2712.0684	-3.3103	0.9267	-4.5354	-3.7381	0.0092	5.4492	1.9538	5.3465	1.3425	0.3329	-3.0935	0.3870	1.7775	4.9980	1.2174	3.1516
2720.0686	-3.4122	1.0140	-4.6783	-3.8475	-0.2097	5.6359	1.8768	5.4541	-0.2571	0.4250	-3.1792	0.4303	1.5493	5.1489	1.1047	3.2138
2728.0688	-3.2631	0.9107	-4.1388	-4.2083	0.4837	5.4796	2.3445	5.5829	0.6746	0.0699	-2.7313	0.1584	2.0862	5.1457	1.3485	3.3000
2736.0690	-3.2427	0.8732	-3.9258	-4.4669	1.0151	5.4991	2.7508	5.7905	-0.4061	-0.1175	-2.5361	0.0310	2.5869	5.2567	1.5758	3.4251
2744.0692	-3.4357	0.3608	-3.3984	-5.5547	2.1451	4.9216	3.7976	5.6961	-2.2692	-1.1463	-2.3958	-1.1093	2.8761	5.1080	1.4006	3.3964
2752.0694	-3.6599	-0.2923	-2.9801	-6.6109	2.9344	4.3102	4.5211	5.5369	-2.4820	-2.2661	-2.3324	-2.2447	2.9812	4.8895	1.2414	3.3542
2760.0696	-3.3215	-0.3607	-2.2507	-6.8054	3.5020	4.1939	4.7352	5.7140	-1.4430	-2.5445	-1.5991	-2.2840	3.6539	4.8682	1.7084	3.4823
2768.0698	-3.0894	-0.7925	-1.7980	-6.8816	3.5645	3.8305	4.4635	5.6051	0.3630	-3.0623	-1.1551	-2.4266	4.0115	4.5832	2.1330	3.4848
2776.0700	-3.1954	-1.3219	-2.0296	-6.8628	2.8312	3.5096	3.7362	5.2757	-0.0276	-3.4797	-1.3734	-2.5907	3.5673	4.2561	2.1263	3.3657
2784.0702	-2.9354	-1.4607	-1.5846	-6.7960	3.0134	3.2406	3.6700	5.1516	1.4044	-3.6741	-0.9676	-2.6238	3.8211	4.0371	2.3472	3.3135
2792.0704	-2.7552	-1.6680	-1.5210	-6.4336	2.7112	3.0163	3.1820	4.9321	5.7406	-3.7553	-0.8772	-2.4829	3.8636	3.7515	2.5681	3.2147
2800.0706	-2.6140	-1.7600	-1.6225	-5.9206	1.9835	2.8398	2.4289	4.5811	5.7472	-3.6011	-0.9096	-2.2047	3.4347	3.4495	2.5262	3.0304
2808.0708	-2.3239	-1.7200	-1.3372	-5.5335	1.8503	2.6550	2.1315	4.3635	4.2173	-3.4540	-0.5969	-1.9658	3.4385	3.2196	2.6168	2.9052
2816.0710	-2.4395	-1.8109	-1.9068	-5.0546	0.8884	2.6562	1.3375	4.0799	5.2703	-3.2310	-1.0713	-1.7000	2.8004	3.0473	2.4350	2.7548
2824.0712	-2.4351	-1.8330	-2.0094	-4.7900	0.4788	2.3863	1.0458	3.6391	6.4227	-3.1302	-1.2825	-1.7600	2.1610	2.7518	2.0232	2.4840
2832.0714	-2.4785	-1.8846	-2.2421	-4.4747	0.0866	2.1607	0.7599	3.2459	5.2007	-3.0111	-1.5804	-1.7543	1.6632	2.4905	1.7033	2.2451
2840.0716	-2.7999	-2.0206	-3.1006	-4.0857	-0.9487	2.1645	0.0452	2.9083	3.2344	-2.8053	-2.3764	-1.6139	0.8170	2.3436	1.3144	2.0584
2848.0718	-2.3816	-1.6044	-2.4944	-3.7659	-0.3978	2.1188	0.3886	2.8825	3.9486	-2.4252	-1.8168	-1.3594	1.1661	2.2958	1.3800	1.9870
2856.0720	-2.2737	-1.2183	-2.5051	-3.4607	-0.3453	2.3523	0.4718	2.9787	2.7934	-1.9431	-1.7568	-1.0055	1.2262	2.4349	1.3513	1.9978
2864.0722	-2.7423	-1.4284	-3.2768	-3.5543	-0.9877	2.3293	0.2102	2.7491	1.1005	-2.0193	-2.5783	-1.2503	0.4386	2.3919	0.8514	1.8731
2872.0724	-2.3450	-1.1904	-2.6074	-3.3632	-0.3687	2.1265	0.5783	2.6498	3.1514	-1.8771	-2.0174	-1.1889	0.8062	2.2458	0.9310	1.7754
2880.0726	-2.1211	-0.9727	-2.3326	-3.1363	-0.2796	2.1212	0.5850	2.6073	0.9091	-1.6247	-1.7193	-0.9707	0.8684	2.2111	0.9474	1.7289
2888.0728	-2.2058	-1.1661	-2.2871	-3.3672	-0.2343	1.9148	0.6613	2.4699	-3.7333	-1.8834	-1.7497	-1.2428	0.7271	2.1057	0.8114	1.6669
2896.0730	-1.9266	-0.9377	-1.9273	-3.1456	0.2408	1.9830	0.9083	2.6184	-3.5712	-1.6702	-1.3462	-0.9768	1.3133	2.1585	1.1240	1.7289
2904.0732	-2.0559	-0.8336	-2.2502	-3.0220	0.0656	2.1115	0.8741	2.6140	-1.1812	-1.4802	-1.6646	-0.9065	1.1154	2.2226	0.9688	1.7052
2912.0734	-1.9138	-0.8956	-1.8235	-3.1592	0.3705	1.7892	1.0897	2.4011	1.0778	-1.6867	-1.4098	-1.1970	1.0534	2.0143	0.8267	1.5747
2920.0736	-1.6425	-1.0667	-1.1164	-3.3501	0.9252	1.3311	1.3835	2.1935	0.6490	-2.0620	-0.8757	-1.5243	1.3094	1.7324	0.8956	1.4654
2928.0738	-1.7978	-1.5772	-0.8829	-3.9506	1.4098	0.7647	1.8220	1.9087	0.7721	-2.8405	-0.9359	-2.3434	1.2751	1.4411	0.6995	1.3313
2936.0740	-1.2837	-1.6363	0.2181	-4.0891	2.5291	0.3517	2.4202	1.9097	3.2927	-3.1964	0.0107	-2.5441	2.2158	1.2246	1.1593	1.3330
2944.0742	-0.9311	-1.9037	0.9826	-4.1973	2.9888	-0.1190	2.5094	1.7318	2.1461	-3.6309	0.6752	-2.7571	2.6388	0.9055	1.4515	1.2648
2952.0744	-1.3412	-2.7567	0.6291	-4.6515	2.3669	-0.8376	2.0885	1.0683	0.8431	-4.5217	0.0671	-3.6232	1.6869	0.3723	0.9261	0.9570
2960.0746	-1.0568	-2.9128	1.0800	-4.4896	2.4560	-1.2188	1.9407	0.7932	2.4203	-4.6976	0.4403	-3.6760	1.7795	0.0400	1.0402	0.8133
2968.0748	-0.1890	-2.6986	2.4981	-4.1791	3.4152	-1.5574	2.2322	0.7792	2.3289	-4.6531	1.8363	-3.3885	2.8058	-0.2158	1.6707	0.7942
2976.0750	0.1204	-3.0590	3.0413	-4.0294	3.4996	-2.2041	2.0162	0.2993	1.6366	-5.0363	2.2405	-3.5929	2.8491	-0.7513	1.7616	0.5505
2984.0752	0.0362	-3.5171	2.8722	-3.8664	3.0513	-2.8183	1.6049	-0.3633	3.1095	-5.3836	1.8782	-3.9561	2.2251	-1.3042	1.4084	0.1926
2992.0754	0.3533	-3.6013	3.3820	-3.6292	3.1399	-3.3170	1.5032	-0.8129	4.7721	-5.4775	2.2317	-4.0632	2.0894	-1.7398	1.3023	-0.0726
3000.0756	0.9843	-3.6343	4.1292	-2.9678	3.1903	-3.7890	1.0934	-1.2077	3.8690	-5.3892	2.9863	-3.7167	2.4135	-2.2381	1.6537	-0.2904
3008.0758	1.5422	-3.5505	4.6869	-2.2121	3.2955	-4.1531	0.8037	-1.5596	2.9837	-5.1332	3.5573	-3.2954	2.7653	-2.6580	1.9491	-0.5056
3016.0760	1.6581	-3.5029	4.5439	-1.6195	2.6770	-4.3822	0.2456	-2.0387	3.5712	-4.8266	3.3915	-3.0719	2.1604	-3.0002	1.6508	-0.7996
3024.0762	1.4380	-3.6691	3.7459	-0.9831	1.2779	-4.6311	-0.8039	-2.7439	4.3531	-4.5650	2.5763	-2.9462	0.8236	-3.4302	1.0028	-1.2048
3032.0764	1.9216	-3.2208	4.0835	-0.0811	1.2159	-4.7642	-1.0305	-3.0880	5.1210	-3.8729	2.9214	-2.3753	0.7734	-3.7057	0.9425	-1.4674
3040.0766	2.4249	-2.7288	4.4161	0.8533	1.1794	-4.8022	-1.2601	-3.3305	1.9306	-3.1081	3.3376	-1.6710	0.8822	-3.9021	1.0026	-1.6670
3048.0768	2.3241	-2.5589	3.8109	1.5213	0.2356	-4.8030	-1.9160	-3.7619	-0.8537	-2.5523	2.7810	-1.3158	-0.0230	-4.0927	0.5023	-1.9479
3056.0770	2.6503	-1.8497	3.8599	2.3657	0.0197	-4.5702	-2.0824	-3.8842	1.2709	-1.5796	2.9027	-0.6195	-0.2756	-4.0817	0.2834	-2.1084
3064.0772	2.8019	-1.4713	3.6517	3.1334	-0.2558	-4.4993	-2.3162	-4.1023	0.1865	-0.8981	2.7535	-0.0984	-0.4646	-4.1800	0.1296	-2.2916
3072.0774	2.5134	-1.4149	2.8426	3.6082	-1.0007	-4.4864	-2.7265	-4.4581	-1.4203	-0.5099	1.9437	0.0574	-1.2381	-4.3041	-0.3719	-2.5272
3080.0776	2.4689	-0.9737	2.3115	4.2632	-1.6241	-4.1954	-3.0922	-4.5817	0.8129	0.2510	1.5013	0.5638	-1.8025	-4.2446	-0.7199	-2.6593
3088.0778	2.6970	-0.4053	2.3372	4.8797	-1.5288	-3.9771	-2.9954	-4.5845	1.8704	0.9958	1.5772	1.0879	-1.7413	-4.1721	-0.8005	-2.7378
3096.0780	3.0614	0.4033	2.7067	5.3626	-0.9832	-3.6237	-2.5184	-4.3724	0.8644	1.8559	2.0074	1.6703	-1.3669	-3.9259	-0.7915	-2.7141
3104.0782	2.7028	0.6865	1.8567	5.6179	-1.7214	-3.2280	-2.8090	-4.3770	-2.3819	2.4059	1.2658	1.9489	-2.1080	-3.7062	-1.2670	-2.7539
3112.0784	2.4561	0.8589	1.3313	5.7442	-1.9494	-3.0241	-2.7786	-4.3804	-2.8324	2.7071	0.7500	2.0304	-2.4382	-3.5763	-1.5671	-2.7902
3120.0786	2.9040	1.5167	1.9700	6.0196	-1.1280	-2.7354	-2.1916	-4.0486	-0.7627	3.2807	1.4341	2.4802	-1.7063	-3.3321	-1.2923	-2.6726
3128.0788	2.6723	1.5686	1.5811	5.9621	-1.4395	-2.5875	-2.2644	-4.0459	-2.9561	3.3979	1.0659	2.4645	-2.1025	-3.2221	-1.5616	-2.6793
3136.0790	2.7025	1.8407	1.6637	5.9351	-1.1794	-2.4127	-1.9624	-3.8981	-2.4794	3.6187	1.1422	2.5370	-2.0122	-3.0543	-1.6252	-2.6291
3144.0792	3.0108	2.2817	2.1192	6.0652	-0.6908	-2.1633	-1.6301	-3.6129	0.0378	3.9817	1.6536	2.8525	-1.5331	-2.8474	-1.4011	-2.5068
3152.0794	2.5455	2.0027	1.4490	5.7730	-1.2432	-2.1115	-1.8590	-3.6689	-2.3384	3.7565	0.9824	2.5766	-2.1160	-2.7909	-1.7175	-2.5093
3160.0796	2.4238	2.0451	1.2580	5.6723	-1.2332	-1.9008	-1.7842	-3.4668	-3.5771	3.7983	0.8599	2.6293	-2.0084	-2.6013	-1.6500	-2.3908
3168.0799	2.5260	2.1793	1.4082	5.6833	-1.0739	-1.7625	-1.6957	-3.2962	-1.8472	3.8943	1.0569	2.7575	-1.7713	-2.4870	-1.4923	-2.2997
3176.0801	2.4998	2.1522	1.6321	5.3236	-0.6482	-1.8192	-1.2874	-3.2128	-0.0898	3.6717	1.1736	2.4604	-1.6335	-2.4318	-1.5318	-2.2561
3184.0803	2.3210	1.9223	1.6467	4.8469	-0.2374	-1.9008	-0.8818	-3.1011	-0.5252	3.2545	1.0953	2.0540	-1.3995	-2.3697	-1.4924	-2.1728
3192.0805	1.7456	1.0868	1.0977	4.1563	-0.5764	-2.3247	-1.0062	-3.3846	-2.4113	2.3149	0.3720	1.1961	-1.9157	-2.5990	-1.7817	-2.2560
3200.0807	1.7636	0.6281	1.5337	3.6124	-0.0717	-2.7206	-0.7089	-3.4311	-1.6613	1.5805	0.6531	0.6330	-1.5753	-2.7753	-1.5976	-2.2333
3208.0809	1.9794	0.4062	2.1243	3.2832	0.4799	-2.8612	-0.4854	-3.2366	-1.4607	1.1325	1.2422	0.4691	-0.8831	-2.7897	-1.1087	-2.0781
3216.0811	1.7630	-0.0313	2.0956	2.7440	0.4590	-3.0689	-0.4663	-3.2759	-2.1021	0.5316	1.1271	-0.0316	-1.0134	-2.8585	-1.1531	-2.0484
3224.0813	1.7153	-0.4071	2.3383	2.3215	0.8108	-3.4107	-0.2229	-3.3752	-1.4704	-0.0433	1.2184	-0.5269	-0.8624	-3.0232	-1.1118	-2.0717
3232.0815	1.6980	-1.0036	2.5926	1.9470	1.0518	-3.8957	-0.1922	-3.5562	-2.5007	-0.7998	1.3494	-1.0302	-0.6143	-3.3195	-0.9067	-2.1105
3240.0817	1.6929	-1.3571	2.7805	1.6467	1.2450	-4.1055	-0.1502	-3.5463	-3.1914	-1.2811	1.5014	-1.3063	-0.3398	-3.4173	-0.6779	-2.0579
3248.0819	1.7150	-1.3622	2.3924	2.1125	0.6027	-3.8429	-0.8250	-3.4346	-2.8530	-1.0163	1.3636	-0.7782	-0.2762	-3.3582	-0.3464	-1.9667
3256.0821	1.8094	-1.0317	1.8276	3.0157	-0.6226	-3.4025	-1.9149	-3.4453	-2.6031	-0.2094	1.1348	0.1447	-0.7626	-3.2890	-0.2883	-1.9797
3264.0823	1.9956	-0.2691	2.1329	3.1845	-0.2734	-3.1671	-1.3957	-3.4182	-2.2540	0.5089	1.3562	0.3567	-1.0516	-3.0955	-0.7755	-2.0699
3272.0825	1.8808	-0.2895	2.5846	2.4707	0.8107	-3.5456	-0.2519	-3.5538	-3.3616	0.0916	1.4225	-0.4716	-1.0256	-3.1534	-1.2506	-2.1921
3280.0827	1.9395	-0.7852	2.7836	2.2798	0.8103	-3.8217	-0.4939	-3.5890	-2.1431	-0.4833	1.6282	-0.6815	-0.7044	-3.3499	-0.8567	-2.1407
3288.0829	2.4381	-0.3921	2.8750	3.2312	0.2324	-3.3447	-1.3623	-3.2974	0.9648	0.2550	2.1344	0.4573	-0.2191	-3.2215	-0.1299	-1.9670
3296.0831	2.7892	0.4141	2.8213	4.1363	0.0225	-2.7202	-1.6145	-2.9975	-0.0703	1.3819	2.3880	1.5385	0.0555	-2.9108	0.1179	-1.8648
3304.0833	2.5106	0.8995	1.9989	4.5256	-0.7214	-2.1413	-1.9186	-2.8746	-2.9037	2.1708	1.7469	2.0451	-0.5963	-2.5736	-0.2853	-1.8466
3312.0835	1.9043	1.2618	0.6595	4.8359	-1.8298	-1.6046	-2.3143	-2.9350	-3.7128	2.8994	0.5018	2.3134	-1.8179	-2.2826	-1.0937	-1.9396
3320.0837	1.8330	1.7070	0.4951	4.9437	-1.5861	-1.3414	-1.8904	-2.8281	-2.7940	3.3650	0.3011	2.4384	-1.8981	-2.0635	-1.3780	-1.9488
3328.0839	2.0264	1.9980	0.9195	4.8406	-1.0814	-1.1936	-1.4863	-2.5949	-2.5098	3.5142	0.7275	2.5226	-1.5401	-1.8868	-1.2618	-1.8423
3336.0841	2.0096	2.1365	0.8876	4.8074	-1.0210	-1.0059	-1.3921	-2.4271	-3.6126	3.6442	0.7521	2.6288	-1.4475	-1.7247	-1.2212	-1.7549
3344.0843	1.6995	2.1076	0.3238	4.7604	-1.2300	-0.7946	-1.4026	-2.3167	-2.7575	3.6930	0.2273	2.6142	-1.5797	-1.5623	-1.3174	-1.6937
3352.0845	1.1902	1.8824	-0.4995	4.5669	-1.9479	-0.6974	-1.7219	-2.4149	-0.1372	3.5641	-0.6176	2.3605	-2.3544	-1.5114	-1.7454	-1.7336
3360.0847	1.3357	2.0309	-0.1418	4.4349	-1.4596	-0.6315	-1.3563	-2.2263	0.9275	3.5725	-0.2771	2.3574	-1.9646	-1.3969	-1.5886	-1.6396
3368.0849	1.6954	2.3418	0.5002	4.3955	-0.6177	-0.3843	-0.8454	-1.7544	-0.3898	3.7208	0.4721	2.6485	-0.9504	-1.1254	-1.0140	-1.3828
3376.0851	1.5007	2.3672	0.2951	4.1111	-0.7541	-0.1480	-0.8169	-1.5472	-2.8458	3.7007	0.3293	2.5990	-1.0961	-0.8938	-1.0898	-1.2539
3384.0853	1.1651	2.1842	0.0254	3.6084	-0.6953	-0.0961	-0.5742	-1.4335	-6.0290	3.3985	0.0137	2.2328	-1.2294	-0.7444	-1.2527	-1.1702
3392.0855	0.6752	1.6360	-0.5660	3.1453	-1.0185	-0.2203	-0.6979	-1.4986	-8.7093	2.8281	-0.6215	1.7481	-1.5255	-0.7760	-1.3862	-1.1494
3400.0857	0.4645	1.4557	-0.8117	2.8931	-1.2238	-0.1774	-0.7864	-1.4481	-5.5829	2.6038	-0.8804	1.5445	-1.7216	-0.7214	-1.4534	-1.0976
3408.0859	0.7416	1.8218	-0.3402	2.8665	-0.6813	0.1261	-0.4275	-1.0393	0.4461	2.8211	-0.3471	1.7821	-1.1222	-0.4491	-1.1130	-0.8901
3416.0861	0.7517	1.6804	-0.2017	2.6559	-0.5172	0.1002	-0.3554	-0.9294	1.2453	2.5792	-0.2065	1.6623	-0.8862	-0.4228	-0.9280	-0.8026
3424.0863	0.5101	1.3524	-0.4454	2.3392	-0.5588	0.0448	-0.3498	-0.8867	0.1628	2.1969	-0.4648	1.3828	-0.8625	-0.4093	-0.8797	-0.7395
3432.0865	0.2507	1.2126	-0.8350	2.1441	-0.7512	0.2079	-0.4153	-0.7349	-0.1364	2.0686	-0.7970	1.3059	-0.9122	-0.2597	-0.8574	-0.6298
3440.0867	0.0596	0.9782	-0.9479	1.8058	-0.8131	0.1146	-0.3861	-0.7668	-1.2401	1.7497	-0.9671	0.9913	-1.0964	-0.2741	-0.9761	-0.6227
3448.0869	0.1452	1.1067	-0.7271	1.6876	-0.4355	0.2443	-0.0970	-0.5413	-0.9937	1.7761	-0.7238	1.0330	-0.7251	-0.1194	-0.7983	-0.5016
3456.0871	0.3513	1.3248	-0.3513	1.6457	0.0060	0.4236	0.1816	-0.2524	-1.5629	1.8943	-0.2801	1.2123	-0.2079	0.0648	-0.5042	-0.3461
3464.0873	0.1064	0.9240	-0.4008	1.1071	0.1195	0.1825	0.3584	-0.3294	-3.5234	1.3259	-0.4569	0.6643	-0.3287	-0.0116	-0.6299	-0.3521
3472.0875	-0.5138	0.4643	-1.3049	0.7164	-0.4543	0.2274	0.1299	-0.3536	-1.8628	0.9095	-1.3855	0.2448	-0.8554	0.0488	-0.8912	-0.3215
3480.0877	-0.4381	0.4524	-1.1028	0.5988	-0.1399	0.2458	0.3230	-0.2104	1.7186	0.7919	-1.1980	0.1921	-0.5134	0.1017	-0.6906	-0.2356
3488.0879	-0.0206	0.5134	-0.1832	0.4069	0.7765	0.0782	0.8452	-0.0498	1.5763	0.5895	-0.3381	0.1204	0.2976	0.0762	-0.2752	-0.1429
3496.0881	-0.2154	0.4257	-0.4989	0.2655	0.5150	0.2641	0.6964	0.1043	-0.2882	0.5325	-0.5613	0.1353	0.2209	0.2290	-0.2364	-0.0309
3504.0883	-0.3765	0.2110	-0.5842	-0.0202	0.5831	0.1526	0.8128	0.0737	0.5367	0.2282	-0.7264	-0.1754	0.1577	0.1992	-0.3121	-0.0314
3512.0885	-0.4065	-0.1378	-0.4259	-0.2824	0.9138	-0.1470	1.0030	-0.0091	-0.5568	-0.2427	-0.6675	-0.5240	0.4327	0.0415	-0.1763	-0.0468
3520.0887	-0.5761	-0.3748	-0.7274	-0.3653	0.7336	-0.0865	0.8310	0.0895	-3.8503	-0.4252	-0.8764	-0.5263	0.5607	0.0947	0.0112	0.0485
3528.0889	-0.3053	-0.1963	-0.2072	-0.4047	1.2955	-0.0520	1.1748	0.2754	-1.3250	-0.3903	-0.3670	-0.4555	1.0826	0.1681	0.2744	0.1399
3536.0891	0.0915	0.1023	0.5295	-0.4266	1.9934	0.0202	1.5932	0.5220	0.8031	-0.2712	0.3746	-0.3013	1.7208	0.2783	0.5987	0.2578
3544.0893	-0.1338	-0.0503	0.2729	-0.6956	1.8867	0.1156	1.5936	0.6431	-3.7890	-0.4440	0.1665	-0.4220	1.6806	0.4041	0.5985	0.3536
3552.0895	-0.5534	-0.3565	-0.4093	-0.8589	1.3488	0.1503	1.3080	0.5819	-5.1613	-0.6539	-0.4953	-0.6168	1.2458	0.4223	0.4055	0.3511
3560.0897	-0.4899	-0.3181	-0.4192	-0.7390	1.3104	0.2642	1.2009	0.6955	-1.7005	-0.5832	-0.4390	-0.4537	1.4283	0.4762	0.5991	0.4201
3568.0899	-0.2380	-0.2771	0.0871	-0.7856	1.8374	0.1660	1.4862	0.7778	-0.6925	-0.6735	0.0333	-0.4644	1.9262	0.4466	0.8607	0.4648
3576.0901	-0.3393	-0.5262	0.0429	-0.9410	1.7299	-0.0751	1.4202	0.5738	-1.2592	-0.9551	-0.1033	-0.7481	1.6783	0.2774	0.7043	0.3673
3584.0903	-0.6640	-0.9638	-0.3157	-1.2684	1.4151	-0.2898	1.2591	0.3888	-0.5354	-1.4234	-0.5567	-1.1932	1.2708	0.1411	0.4914	0.3017
3592.0905	-0.8053	-1.2731	-0.4021	-1.5178	1.6007	-0.4232	1.3906	0.4081	-0.2480	-1.8105	-0.6932	-1.4710	1.4953	0.0981	0.6220	0.3430
3600.0907	-0.7915	-1.3085	-0.4057	-1.5162	1.7259	-0.3535	1.4312	0.5426	-1.1464	-1.8453	-0.6379	-1.3941	1.8092	0.1642	0.8480	0.4315
3608.0909	-0.7410	-1.3985	-0.1754	-1.7041	1.7836	-0.4807	1.4535	0.4935	0.1353	-2.0409	-0.4675	-1.5736	1.7382	0.0964	0.8139	0.4156
3616.0911	-0.3735	-1.3764	0.5457	-1.7301	2.2575	-0.7200	1.6426	0.4441	2.5349	-2.1775	0.1743	-1.6317	2.0957	-0.0595	1.0140	0.3867
3624.0913	-0.2220	-1.3070	0.8002	-1.7063	2.6614	-0.6868	1.8712	0.5943	2.1996	-2.1637	0.4548	-1.5369	2.5912	-0.0035	1.2890	0.4690
3632.0915	-0.6943	-1.6176	0.1182	-1.9881	2.1354	-0.6807	1.6602	0.5008	1.6835	-2.4253	-0.2589	-1.8599	2.0081	0.0143	0.9604	0.4433
3640.0917	-0.6081	-1.6316	0.2130	-1.9249	2.0038	-0.6936	1.4807	0.4851	1.9704	-2.4207	-0.1273	-1.7792	1.9855	-0.0242	1.0302	0.4451
3648.0919	-0.1364	-1.3542	0.9285	-1.7252	2.6379	-0.6435	1.7497	0.6987	1.0377	-2.2229	0.6605	-1.4411	2.7782	0.0282	1.5081	0.5513
3656.0922	-0.2949	-1.5769	0.7641	-1.8834	2.4703	-0.7878	1.6665	0.5626	0.2526	-2.4561	0.4381	-1.6781	2.5259	-0.0681	1.3599	0.4926
3664.0924	-0.3268	-1.7237	0.8052	-2.0105	2.4442	-0.9215	1.6397	0.4760	0.6571	-2.6491	0.4275	-1.8510	2.4279	-0.1547	1.3097	0.4573
3672.0926	-0.2352	-1.6496	0.9341	-1.9617	2.5210	-0.8941	1.6622	0.5165	0.7032	-2.5838	0.5756	-1.7689	2.5327	-0.1372	1.3798	0.4760
3680.0928	-0.5246	-1.9241	0.3729	-1.9358	1.8803	-0.9489	1.2185	0.3309	-0.9958	-2.7072	0.0397	-1.8572	2.0299	-0.2346	1.1835	0.3991
3688.0930	-0.2635	-1.7254	0.7483	-1.8054	2.2101	-0.8703	1.3609	0.4798	-1.4058	-2.5426	0.4715	-1.6257	2.4621	-0.1711	1.4467	0.4720
3696.0932	0.2079	-1.0718	1.3925	-1.5181	2.5828	-0.5587	1.5751	0.7458	-0.2614	-1.9319	1.2148	-1.1054	2.8051	0.0456	1.6133	0.5677
3704.0934	-0.2806	-1.3068	0.5242	-1.5713	1.5349	-0.5383	0.9808	0.4746	-1.1622	-1.9772	0.3461	-1.2831	1.7124	-0.0118	1.0447	0.4326
3712.0936	-0.6657	-1.5804	-0.1355	-1.6370	0.8675	-0.5987	0.6055	0.2524	-0.1149	-2.1300	-0.3499	-1.5051	1.0193	-0.1022	0.6799	0.3254
3720.0938	-0.2079	-1.0280	0.4132	-1.2353	1.1314	-0.3844	0.6921	0.4063	2.2462	-1.5627	0.2833	-0.9927	1.3229	0.0056	0.8535	0.3626
3728.0940	-0.0044	-0.7857	0.6730	-1.0581	1.3743	-0.3142	0.8325	0.4759	1.2428	-1.3169	0.5740	-0.7743	1.5646	0.0512	0.9554	0.3774
3736.0942	0.0780	-0.6177	0.7384	-0.9250	1.4800	-0.2404	0.9150	0.5165	1.0938	-1.1248	0.6580	-0.6308	1.6610	0.0959	0.9747	0.3802
3744.0944	0.4207	-0.1868	1.1195	-0.5795	1.6644	-0.0602	0.9665	0.6381	0.1936	-0.6503	1.1315	-0.1849	1.9192	0.1893	1.1239	0.4120
3752.0946	0.2150	-0.3351	0.7664	-0.5854	1.4682	-0.1191	0.8901	0.5223	-2.7675	-0.7200	0.7626	-0.2861	1.7145	0.1391	0.9792	0.3532
3760.0948	-0.2208	-0.5424	-0.0683	-0.5441	0.6137	-0.0924	0.4050	0.2947	-2.0637	-0.7316	-0.0725	-0.4048	0.8801	0.0840	0.5436	0.2356
3768.0950	0.0165	-0.1435	0.1180	-0.2344	0.5967	0.1673	0.3404	0.4461	0.3445	-0.2720	0.2164	0.0163	0.9785	0.2220	0.6389	0.2891
3776.0952	0.5532	0.4638	0.8980	0.0500	1.5232	0.4287	0.9176	0.8260	2.5946	0.2293	1.0665	0.5027	1.9398	0.4482	1.0997	0.4465
3784.0954	0.4997	0.6686	0.7149	0.1798	1.3850	0.5781	0.9134	0.8326	3.6460	0.5023	0.8950	0.6248	1.7182	0.5324	0.9155	0.4211
3792.0956	0.1192	0.4966	0.0704	0.1091	0.7074	0.5869	0.5707	0.6437	1.0909	0.4609	0.2439	0.4706	0.9724	0.5050	0.4937	0.3256
3800.0958	0.2079	0.5991	0.1233	0.2563	0.7579	0.6554	0.5630	0.6988	-0.7787	0.6096	0.3546	0.6534	1.1367	0.5399	0.6062	0.3506
3808.0960	0.4079	0.7957	0.3470	0.4615	0.9033	0.7110	0.6020	0.7455	-0.0434	0.8259	0.6127	0.8729	1.3364	0.5554	0.7242	0.3584
3816.0962	0.5110	0.9608	0.5221	0.4936	1.0570	0.7588	0.7302	0.7891	1.0924	0.9549	0.7759	0.9361	1.3934	0.5980	0.7106	0.3637
3824.0964	0.4750	1.0808	0.3892	0.5672	0.9251	0.9024	0.6747	0.8471	0.7758	1.1272	0.6906	1.0615	1.2976	0.6881	0.6589	0.3865
3832.0966	0.1406	0.8992	-0.2398	0.5707	0.3477	0.9464	0.3451	0.7342	-0.8038	1.0906	0.0907	0.9938	0.8058	0.6806	0.4208	0.3385
3840.0968	0.2811	1.0870	-0.1188	0.7443	0.2579	1.0477	0.2328	0.7687	-0.4149	1.3211	0.2690	1.2169	0.7807	0.7170	0.4470	0.3453
3848.0970	0.4889	1.3691	0.1106	0.9214	0.0285	1.1927	0.0109	0.8009	1.3739	1.6325	0.5666	1.4910	0.5723	0.7685	0.3992	0.3469
3856.0972	0.2863	1.2915	-0.2101	0.8473	-0.3703	1.1969	-0.1845	0.6883	3.2754	1.5957	0.2127	1.3581	0.0710	0.7490	0.1134	0.2856
3864.0974	0.3518	1.3254	-0.0857	0.8606	-0.1296	1.1745	-0.0216	0.7223	2.4139	1.6017	0.3266	1.3720	0.2957	0.7526	0.2028	0.2986
3872.0976	0.0692	0.9754	-0.4883	0.6838	-0.4680	1.0773	-0.2394	0.6247	-2.6511	1.3070	-0.0621	1.1678	0.0611	0.6917	0.1268	0.2840
3880.0978	-0.4055	0.5156	-1.1902	0.4397	-1.0720	0.9425	-0.5665	0.4130	-3.2661	0.9220	-0.8166	0.7834	-0.5491	0.5842	-0.1815	0.2047
3888.0980	-0.1851	0.6498	-0.7831	0.4819	-0.6952	0.8439	-0.3279	0.3890	1.2490	0.9584	-0.4941	0.7612	-0.3517	0.5204	-0.1411	0.1670
3896.0982	0.1549	0.9714	-0.1989	0.5603	-0.0665	0.9011	0.0810	0.5553	3.3296	1.1591	0.0748	0.9263	0.1698	0.5987	0.0730	0.2269
3904.0984	0.1003	0.9609	-0.2596	0.5014	0.1087	0.9493	0.2430	0.6464	2.3685	1.1297	0.0203	0.9047	0.3657	0.6673	0.1492	0.2782
3912.0986	-0.3656	0.4156	-0.8756	0.1899	-0.4131	0.6887	-0.0316	0.3591	0.4097	0.6250	-0.6921	0.4075	-0.2397	0.4832	-0.1811	0.1614
3920.0988	-0.4035	0.3222	-0.9039	0.1236	-0.5431	0.6398	-0.1367	0.3128	0.1784	0.5262	-0.7262	0.3362	-0.3658	0.4443	-0.2193	0.1481
3928.0990	0.1666	0.6994	-0.0075	0.3289	0.2781	0.7099	0.2609	0.5788	-0.1790	0.7808	0.2356	0.7137	0.5663	0.5256	0.3099	0.2737
3936.0992	0.1854	0.5646	0.1218	0.2294	0.3853	0.5390	0.3131	0.4879	-2.2730	0.5977	0.3156	0.5664	0.6015	0.4221	0.3135	0.2341
3944.0994	-0.1057	0.4034	-0.3085	0.0984	-0.0501	0.4949	0.1251	0.3267	-2.5915	0.4875	-0.1634	0.3500	0.0296	0.3788	-0.0350	0.1509
3952.0996	-0.2876	0.2593	-0.5777	0.0267	-0.2697	0.4209	0.0329	0.2024	-2.0214	0.3726	-0.4816	0.1817	-0.2707	0.3168	-0.2259	0.0866
3960.0998	-0.3620	0.2730	-0.8088	0.1530	-0.6082	0.4602	-0.1972	0.1195	-0.7595	0.4805	-0.6943	0.2471	-0.5710	0.2938	-0.3641	0.0359
3968.1000	-0.1348	0.5277	-0.5520	0.3655	-0.5500	0.5667	-0.2249	0.1874	-0.2120	0.7585	-0.3788	0.5223	-0.4511	0.3391	-0.2688	0.0548
3976.1002	-0.0483	0.4497	-0.2904	0.2237	-0.3604	0.4628	-0.1360	0.1978	-1.1462	0.5877	-0.1429	0.4191	-0.2987	0.2977	-0.1725	0.0742
3984.1004	-0.1773	0.4631	-0.5023	0.1335	-0.6902	0.6117	-0.3167	0.2582	-0.3047	0.6217	-0.3100	0.4265	-0.6001	0.3998	-0.2929	0.1159
3992.1006	-0.5741	0.0650	-1.0987	-0.0661	-1.3175	0.4960	-0.6927	0.0562	-1.2557	0.3005	-0.9372	0.1181	-1.2130	0.2956	-0.5791	0.0404
4000.1008	-0.7940	-0.3364	-1.4043	-0.1904	-1.7163	0.2503	-0.9969	-0.1927	-1.3268	-0.0604	-1.3036	-0.1754	-1.5959	0.0906	-0.7324	-0.0633
4008.1010	-0.3853	0.2705	-0.9011	0.1131	-1.5036	0.5855	-0.8994	0.0622	1.9867	0.5331	-0.6941	0.3378	-1.3571	0.3043	-0.5889	0.0311
4016.1012	-0.3024	0.4625	-0.7562	0.1126	-1.3129	0.7175	-0.7318	0.1987	1.8478	0.6861	-0.5242	0.4453	-1.2072	0.4251	-0.5423	0.0916
4024.1014	-0.4229	0.2838	-0.9327	0.0408	-1.3475	0.6710	-0.7584	0.1898	1.0266	0.5203	-0.7012	0.3453	-1.1575	0.4017	-0.4921	0.1049
4032.1016	-0.4928	0.1962	-1.0060	-0.0433	-1.3820	0.6542	-0.7706	0.1917	-0.3155	0.4258	-0.7729	0.2766	-1.1769	0.4040	-0.4944	0.1172
4040.1018	-0.5659	0.0924	-1.1150	-0.0894	-1.4185	0.6410	-0.8000	0.1989	-1.4445	0.3335	-0.8702	0.2324	-1.1454	0.4018	-0.4555	0.1340
4048.1020	-0.1106	0.6178	-0.5776	0.2584	-1.0646	0.9762	-0.6886	0.5376	1.3399	0.8538	-0.1805	0.8125	-0.5550	0.6192	-0.0533	0.2911
4056.1022	-0.1535	0.6372	-0.5891	0.1374	-1.1633	1.0476	-0.7221	0.5923	0.0655	0.8464	-0.1698	0.7917	-0.6841	0.6901	-0.1130	0.3278
4064.1024	-0.5601	0.3032	-1.2138	-0.0433	-1.6661	0.9873	-0.9749	0.4462	0.2997	0.5834	-0.8314	0.5045	-1.1924	0.6367	-0.3799	0.2726
4072.1026	-0.3053	0.5641	-0.8599	0.0958	-1.4111	1.0994	-0.8563	0.5820	4.7783	0.7966	-0.4542	0.7130	-0.9157	0.7080	-0.2155	0.3265
4080.1028	-0.2228	0.5840	-0.6538	0.0033	-1.4912	1.0909	-0.9471	0.5886	0.7412	0.7797	-0.2133	0.7350	-1.0129	0.7146	-0.2268	0.3424
4088.1030	-0.2659	0.6113	-0.8140	0.0493	-1.7755	1.2686	-1.1805	0.7010	-3.5421	0.8891	-0.2418	0.9320	-1.0603	0.8279	-0.1492	0.4225
4096.1032	-0.0892	0.7855	-0.4778	0.0194	-1.3215	1.3597	-0.8729	0.8961	-1.7276	0.9605	0.1010	1.0152	-0.6232	0.9387	0.0607	0.5183
4104.1034	-0.0441	0.7964	-0.3831	0.0150	-1.3772	1.3082	-0.9245	0.8338	-2.0547	0.9605	0.1797	0.9980	-0.7424	0.8931	-0.0046	0.4824
4112.1036	-0.4953	0.3294	-1.1280	-0.1241	-2.1648	1.1851	-1.4362	0.5921	-3.7441	0.6301	-0.5719	0.7164	-1.4201	0.7602	-0.2888	0.3927
4120.1038	-1.0883	-0.2830	-1.9458	-0.5248	-2.9026	1.0021	-1.8350	0.3460	-3.2025	0.0642	-1.4707	0.1656	-2.1921	0.6286	-0.6673	0.3104
4128.1040	-0.5943	0.2039	-1.3359	-0.1748	-2.7613	1.2502	-1.9123	0.5652	0.5688	0.5473	-0.7294	0.7059	-1.8636	0.7530	-0.3721	0.4058
4136.1042	-0.1452	0.4198	-0.5520	-0.1206	-2.0634	1.2337	-1.5709	0.7560	1.0861	0.6134	0.0728	0.8901	-1.1244	0.7813	0.0500	0.5029
4144.1045	-0.7156	-0.2726	-1.2036	-0.6556	-2.6530	0.9089	-1.8573	0.4431	-3.1034	-0.0911	-0.6988	0.2080	-1.8697	0.5855	-0.3578	0.3908
4152.1047	-0.9941	-0.5669	-1.6799	-0.7287	-3.3401	0.8244	-2.3301	0.2387	-2.7328	-0.2862	-1.1797	0.0332	-2.4983	0.4718	-0.6153	0.3070
4160.1049	-0.8996	-0.6942	-1.4217	-0.8160	-2.9106	0.6479	-2.0814	0.2362	-1.7850	-0.5123	-0.9890	-0.1133	-2.0974	0.3833	-0.4217	0.3133
4168.1051	-0.7937	-0.7524	-1.2398	-0.8214	-3.0340	0.5867	-2.2709	0.2046	-4.0095	-0.5758	-0.7678	-0.0698	-2.1257	0.3237	-0.3445	0.3154
4176.1053	-0.9482	-1.0819	-1.3584	-1.0557	-3.3282	0.3822	-2.4902	0.0326	-3.2467	-0.9422	-0.9521	-0.3823	-2.4769	0.1756	-0.4861	0.2533
4184.1055	-1.1707	-1.2745	-1.5238	-1.3600	-3.1456	0.2701	-2.2234	-0.0040	-1.1826	-1.2359	-1.2418	-0.7601	-2.5290	0.1603	-0.6304	0.2362
4192.1057	-1.1348	-1.0716	-1.6104	-1.1921	-3.3508	0.4891	-2.3742	0.0993	-1.1213	-0.9520	-1.2316	-0.4948	-2.6050	0.2830	-0.6228	0.2829
4200.1059	-1.3800	-1.4100	-1.9479	-1.3251	-3.5170	0.3055	-2.4595	-0.0616	-1.6464	-1.2652	-1.6343	-0.7766	-2.7806	0.1535	-0.7254	0.2169
4208.1061	-1.1290	-1.1965	-1.5203	-1.2609	-3.0095	0.3375	-2.1378	0.0701	-1.0121	-1.1362	-1.2108	-0.6489	-2.3181	0.2081	-0.5213	0.2691
4216.1063	-0.7039	-0.9843	-0.7029	-1.3039	-2.2073	0.3036	-1.6789	0.2706	0.2682	-1.1239	-0.4132	-0.5589	-1.5773	0.2491	-0.1422	0.3681
4224.1065	-0.9123	-1.3605	-0.7578	-1.6841	-1.7773	-0.0154	-1.2730	0.1507	1.5851	-1.6533	-0.6605	-1.1117	-1.4203	0.1085	-0.1987	0.3156
4232.1067	-0.7295	-0.9332	-0.6131	-1.4401	-1.5338	0.2860	-1.0820	0.3867	3.0819	-1.1980	-0.4308	-0.7347	-1.1173	0.3203	-0.0676	0.4076
4240.1069	-0.5799	-0.7476	-0.4129	-1.3352	-1.1097	0.3945	-0.7996	0.5616	2.4954	-1.0370	-0.1932	-0.5556	-0.6272	0.4258	0.1655	0.4879
4248.1071	-0.4322	-0.6118	-0.2408	-1.1704	-0.8017	0.4098	-0.6177	0.6145	1.7027	-0.8918	-0.0076	-0.4038	-0.2808	0.4376	0.3205	0.4998
4256.1073	0.0638	-0.1132	0.5079	-0.9887	-0.1733	0.6622	-0.2884	0.9692	3.1710	-0.4998	0.8424	0.0391	0.4453	0.6464	0.7414	0.6671
4264.1075	0.1273	-0.0822	0.8098	-1.2427	0.4309	0.6699	0.1895	1.1601	3.3265	-0.6441	1.0960	-0.1007	0.9205	0.7513	0.9162	0.7712
4272.1077	-0.0743	-0.1759	0.4355	-1.2472	-0.0307	0.6936	-0.0840	1.0559	1.9483	-0.6442	0.7399	-0.1418	0.4741	0.7358	0.6957	0.7217
4280.1079	-0.2823	-0.5750	0.2299	-1.4780	-0.1477	0.4512	-0.1621	0.8933	2.8146	-1.0782	0.4450	-0.5090	0.3207	0.5762	0.6259	0.6641
4288.1081	0.3393	-0.0848	1.2517	-1.2709	1.0874	0.5151	0.5896	1.2086	4.7515	-0.7740	1.4660	-0.1718	1.5137	0.6878	1.1816	0.7913
4296.1083	0.8735	0.4574	2.0375	-0.9931	1.7278	0.6935	0.9342	1.4575	3.1797	-0.3016	2.3355	0.3013	2.1739	0.8304	1.5178	0.8877
4304.1085	0.1036	-0.4765	1.0748	-1.5572	1.1589	0.2010	0.7123	0.9984	1.8933	-1.2236	1.1546	-0.6248	1.3938	0.5104	1.0303	0.6970
4312.1087	-0.0574	-0.6056	0.7379	-1.4793	0.9071	0.1348	0.5617	0.8548	4.1390	-1.2679	0.7816	-0.7063	1.1501	0.4218	0.8902	0.6168
4320.1089	-0.0205	-0.6921	0.8794	-1.5734	0.8292	0.0126	0.4741	0.7613	3.4213	-1.3963	0.8920	-0.8128	0.9999	0.3339	0.8295	0.5763
4328.1091	-0.2375	-1.1547	0.6821	-1.8058	0.5999	-0.3442	0.3115	0.4657	1.5101	-1.8749	0.5820	-1.2386	0.6659	0.0807	0.6497	0.4478
4336.1093	-0.0098	-0.9570	0.8434	-1.4481	0.6529	-0.2769	0.2298	0.4939	1.3944	-1.5848	0.8210	-0.8952	0.9110	0.0712	0.8378	0.4471
4344.1095	-0.4010	-1.3491	0.3020	-1.6723	0.1479	-0.4638	-0.0259	0.2371	0.9834	-1.9300	0.1928	-1.2866	0.2901	-0.0731	0.4841	0.3309
4352.1097	-0.5175	-1.2694	-0.0423	-1.4956	-0.6749	-0.4073	-0.5676	0.0086	2.9824	-1.6951	-0.1344	-1.1987	-0.6010	-0.1369	0.0402	0.1917
4360.1099	-0.4912	-1.0600	-0.2243	-1.2088	-1.2688	-0.2271	-1.0134	-0.0464	2.5433	-1.3217	-0.2110	-0.8819	-1.0790	-0.1004	-0.1377	0.1484
4368.1101	-0.8336	-1.2453	-0.8383	-1.2556	-2.0961	-0.1950	-1.5187	-0.2242	-0.5053	-1.3570	-0.7869	-0.9667	-1.8719	-0.1296	-0.5124	0.0704
4376.1103	-0.5515	-0.7185	-0.6198	-0.8564	-2.4323	0.0626	-1.7929	-0.2075	1.4878	-0.7248	-0.4705	-0.4799	-2.2238	-0.0380	-0.6704	0.0341
4384.1105	-0.7009	-0.7923	-0.8445	-0.8830	-2.7374	-0.0381	-1.9284	-0.4124	2.3943	-0.7598	-0.7686	-0.6409	-2.7174	-0.1373	-0.9955	-0.0872
4392.1107	-1.0557	-0.8996	-1.5797	-0.7856	-3.7751	0.0336	-2.5727	-0.6550	0.6333	-0.6443	-1.4561	-0.6355	-3.7225	-0.1814	-1.4852	-0.2139
4400.1109	-1.0118	-0.4971	-1.7016	-0.5329	-4.2742	0.3303	-2.8650	-0.6341	1.3139	-0.1170	-1.4851	-0.2867	-4.2579	-0.0394	-1.7674	-0.2375
4408.1111	-0.6437	0.0096	-1.1975	-0.2985	-3.9788	0.5542	-2.6926	-0.4476	0.6388	0.3661	-0.9023	0.1234	-3.9944	0.1170	-1.6493	-0.1749
4416.1113	-0.1366	0.5376	-0.5853	0.1238	-3.8652	0.7612	-2.7749	-0.3078	-1.7289	0.9415	-0.1432	0.7233	-3.7369	0.2086	-1.4327	-0.1300
4424.1115	-0.5289	0.0749	-0.9644	-0.2279	-4.1225	0.3156	-2.7820	-0.7642	-2.1170	0.4364	-0.7659	0.0440	-4.4665	-0.0906	-1.9945	-0.3730
4432.1117	-0.3868	0.1166	-0.7027	-0.1210	-3.9418	0.0619	-2.6590	-1.0092	-1.1199	0.4524	-0.6307	-0.0557	-4.5622	-0.2942	-2.1578	-0.5366
4440.1119	0.0263	0.3301	-0.1961	0.2566	-3.7603	-0.0075	-2.7280	-1.0568	-1.3587	0.7057	-0.0792	0.2797	-4.2553	-0.4081	-1.9275	-0.5804
4448.1121	0.0362	0.1279	-0.1715	0.2735	-4.0626	-0.2411	-3.0264	-1.3026	-2.3691	0.5364	-0.0920	0.1661	-4.5672	-0.6228	-2.0368	-0.6982
4456.1123	0.7099	0.6105	0.8150	0.6145	-3.6684	-0.1783	-2.9849	-1.1756	-2.9967	0.9582	0.9889	0.6734	-4.0898	-0.6138	-1.6930	-0.6547
4464.1125	0.2151	-0.0275	0.3907	0.0610	-3.5492	-0.6647	-2.6940	-1.5170	-4.2476	0.1980	0.2924	-0.1853	-4.4092	-0.8706	-2.0670	-0.8174
4472.1127	-0.1474	-0.2922	-0.1359	-0.0452	-3.8517	-0.8805	-2.7448	-1.8316	-3.9652	-0.0066	-0.3784	-0.5619	-4.9839	-1.0374	-2.5114	-0.9969
4480.1129	0.3710	0.1882	0.4847	0.4474	-3.4005	-0.7916	-2.5818	-1.7390	-2.2207	0.5003	0.3020	-0.0574	-4.4494	-1.0260	-2.2219	-0.9935
4488.1131	-0.0160	-0.2089	0.0354	0.2184	-3.2362	-1.1569	-2.2740	-2.0519	-0.6710	0.0727	-0.3866	-0.6486	-4.6572	-1.2459	-2.5562	-1.1729
4496.1133	0.6810	0.6262	1.0390	0.6550	-2.3279	-0.9202	-1.6999	-1.7804	0.1691	0.8196	0.6664	-0.0429	-3.8964	-1.0658	-2.2679	-1.1058
4504.1135	0.8077	0.4983	1.5454	0.4090	-1.3059	-1.2813	-0.9364	-1.8320	-3.2987	0.4751	0.9860	-0.4074	-3.2184	-1.2036	-2.1148	-1.1454
4512.1137	-0.2307	-0.7375	0.1341	-0.1301	-2.0542	-2.0289	-1.2184	-2.5892	-6.0059	-0.6530	-0.7478	-1.5988	-4.2742	-1.7320	-2.8341	-1.4988
4520.1139	0.4051	-0.1746	0.8772	0.4589	-1.6390	-1.8724	-1.1533	-2.4357	-2.9050	-0.0516	0.1057	-0.9444	-3.6588	-1.6953	-2.4322	-1.4603
4528.1141	0.9684	0.1375	1.9816	0.4591	0.0380	-2.0026	-0.0382	-2.1553	-1.0450	-0.0372	1.0944	-0.9034	-2.1918	-1.6559	-1.8335	-1.3493
4536.1143	1.2082	0.3394	2.3649	0.5764	0.8430	-1.9602	0.4987	-1.9481	-3.6038	0.0987	1.4927	-0.7272	-1.3444	-1.5658	-1.4591	-1.2574
4544.1145	1.1909	0.2911	2.3313	0.5861	0.9276	-1.9716	0.5461	-1.9249	-8.1367	0.0752	1.4920	-0.6952	-1.1777	-1.5581	-1.3669	-1.2365
4552.1147	0.2509	-0.6969	1.0361	0.0670	0.0450	-2.4709	0.1678	-2.5063	-9.1687	-0.8169	-0.0395	-1.6725	-2.3163	-1.9151	-2.0734	-1.4997
4560.1149	0.3445	-0.4348	0.9192	0.4304	-0.1759	-2.2440	-0.0347	-2.4340	-4.4952	-0.4241	-0.0668	-1.3095	-2.3482	-1.8324	-2.0286	-1.4839
4568.1151	1.0463	0.3069	1.9438	0.8077	0.9758	-1.9734	0.6621	-2.0109	-0.9298	0.1824	1.0256	-0.7215	-1.1759	-1.6007	-1.4671	-1.3168
4576.1153	1.3607	0.6059	2.4846	0.8808	1.8034	-1.8867	1.2188	-1.7609	-0.8255	0.3613	1.5714	-0.5366	-0.3794	-1.4742	-1.1192	-1.2076
4584.1155	1.2978	0.7595	2.3770	0.8368	2.1746	-1.6220	1.5715	-1.4527	-4.1151	0.5017	1.5435	-0.3973	0.0952	-1.2132	-0.9167	-1.0450
4592.1157	0.8831	0.6088	1.7093	0.7306	1.9957	-1.5654	1.6403	-1.4889	-6.9271	0.4376	0.8507	-0.5777	-0.1466	-1.1464	-1.1544	-1.0661
4600.1159	0.8434	0.7898	1.4123	0.9969	1.7528	-1.3191	1.4769	-1.3939	-2.5795	0.7473	0.6351	-0.3072	-0.2065	-1.0293	-1.1434	-1.0314
4608.1161	1.1366	1.3812	1.7167	1.2559	2.2987	-0.8404	1.8665	-0.9208	1.3166	1.3147	1.0745	0.2183	0.4975	-0.6611	-0.7806	-0.8151
4616.1163	1.5068	1.9575	2.1304	1.5837	2.7372	-0.4604	2.1265	-0.5626	2.0418	1.8967	1.6290	0.7795	1.0876	-0.3879	-0.4586	-0.6596
4624.1165	1.5895	2.2031	2.1782	1.6865	3.0361	-0.2041	2.3551	-0.2953	5.0171	2.1316	1.7414	1.0060	1.5006	-0.1840	-0.2448	-0.5309
4632.1168	1.5742	2.3991	2.1820	1.6184	3.5717	0.0504	2.8340	0.0377	3.9925	2.2662	1.7915	1.1128	2.0705	0.0828	-0.0220	-0.3628
4640.1170	1.5057	2.3355	1.9956	1.6499	3.5265	0.1700	2.7648	0.1727	1.2228	2.2621	1.7033	1.2331	2.2934	0.1732	0.1783	-0.2681
4648.1172	1.5483	2.4410	2.0204	1.6967	3.6413	0.2934	2.8428	0.3025	3.0772	2.3622	1.7632	1.3428	2.4821	0.2677	0.2914	-0.2027
4656.1174	2.0497	3.0049	2.7210	1.9533	4.2760	0.6171	3.1793	0.7030	3.3651	2.8557	2.6015	1.8871	3.2743	0.5231	0.7494	-0.0148
4664.1176	1.6844	2.5400	2.1815	1.7098	4.0300	0.5728	3.0144	0.7241	2.5357	2.4231	2.0829	1.6264	3.2752	0.5154	0.8449	0.0507
4672.1178	1.6352	2.5289	2.1264	1.6358	4.1091	0.6459	3.0935	0.8271	2.5255	2.3907	2.0477	1.6169	3.4009	0.5940	0.9166	0.1134
4680.1180	1.8593	2.6123	2.4977	1.6398	4.5276	0.7424	3.2725	1.0793	0.9019	2.4026	2.5063	1.8024	4.0409	0.7031	1.3412	0.2658
4688.1182	1.0266	1.7093	1.3665	1.0644	3.9285	0.4822	3.0224	0.8529	1.4193	1.5299	1.2526	1.0090	3.4684	0.5605	1.0465	0.2163
4696.1184	1.5101	2.1992	2.0996	1.2421	4.3957	0.7021	3.2427	1.1324	2.7974	1.9252	2.0755	1.4260	3.9801	0.7298	1.3551	0.3418
4704.1186	1.4201	1.8103	2.1402	0.9294	4.8404	0.5465	3.5016	1.2523	1.9331	1.4099	2.0855	1.1373	4.5799	0.7041	1.7222	0.4545
4712.1188	0.3263	0.8506	0.5532	0.3389	3.8990	0.3214	3.1348	0.9236	1.4215	0.5690	0.3587	0.2558	3.5821	0.5711	1.1411	0.3426
4720.1190	0.5798	1.1670	0.8865	0.4449	3.7551	0.5652	2.9480	1.1038	0.6781	0.8830	0.8257	0.6090	3.5643	0.7231	1.2429	0.4385
4728.1192	0.1557	0.4374	0.4766	-0.0862	3.7001	0.2565	2.9349	1.0033	-0.6185	0.0619	0.3183	-0.0182	3.5666	0.5771	1.2891	0.4554
4736.1194	0.2887	0.5849	0.6437	-0.0020	3.9592	0.3784	3.0780	1.1722	-1.3059	0.1971	0.5465	0.1683	3.9440	0.6803	1.5104	0.5427
4744.1196	0.4610	0.5288	1.0115	-0.1246	4.3900	0.3788	3.2672	1.3797	-0.6018	0.0186	0.9486	0.1812	4.5450	0.7324	1.9157	0.6813
4752.1198	-0.5305	-0.6811	-0.2677	-0.8665	3.6419	-0.1209	2.9256	0.9505	0.2613	-1.1814	-0.5465	-0.9265	3.7212	0.4193	1.4740	0.5398
4760.1200	-0.2140	-0.4740	0.1461	-0.6791	3.6970	-0.0220	2.8062	1.0694	-1.0388	-0.9690	-0.0229	-0.5948	3.9739	0.4614	1.7275	0.6067
4768.1202	-0.1614	-0.7779	0.4153	-0.9290	4.2748	-0.2165	3.1193	1.1745	-0.3986	-1.4300	0.1960	-0.8384	4.6591	0.3998	2.1324	0.7008
4776.1204	0.0166	-0.6332	0.7434	-0.9073	4.6592	-0.2255	3.3761	1.2421	0.8235	-1.3629	0.4955	-0.7944	4.9554	0.4187	2.2413	0.7209
4784.1206	0.1186	-0.6349	1.0060	-1.0244	4.7555	-0.2616	3.4057	1.2766	-0.6179	-1.4419	0.7608	-0.8255	5.0201	0.4183	2.3015	0.7503
4792.1208	-0.9651	-1.8459	-0.4565	-1.7480	3.8791	-0.7196	3.0163	0.8316	0.6225	-2.6034	-0.9151	-1.9365	4.0632	0.1252	1.7743	0.5965
4800.1210	-0.6701	-1.4845	-0.1425	-1.4518	3.9116	-0.5501	2.9540	0.9288	2.4421	-2.2046	-0.5205	-1.5556	4.1784	0.1985	1.8808	0.6230
4808.1212	-0.6120	-1.6241	0.1061	-1.6438	4.2908	-0.6834	3.1875	0.9738	3.7946	-2.4746	-0.3324	-1.7440	4.5161	0.1566	2.0543	0.6625
4816.1214	-0.6189	-1.6738	0.1071	-1.6663	4.4470	-0.6987	3.2893	1.0158	5.8308	-2.5506	-0.3489	-1.7882	4.7056	0.1586	2.1541	0.6883
4824.1216	-0.3549	-1.3585	0.4693	-1.5037	4.6726	-0.5585	3.3997	1.1533	4.5061	-2.2493	0.0797	-1.4973	4.9585	0.2582	2.2928	0.7424
4832.1218	-1.2696	-2.1534	-0.7917	-2.0566	3.9186	-0.8171	3.1558	0.8068	3.7800	-2.9784	-1.3496	-2.3280	4.0010	0.1069	1.6847	0.6015
4840.1220	-0.8661	-1.5633	-0.3566	-1.6770	4.1603	-0.4478	3.2437	1.1059	2.4888	-2.3449	-0.7450	-1.7034	4.4196	0.3470	1.9517	0.7281
4848.1222	-0.5837	-1.3179	0.1087	-1.6201	4.7870	-0.3117	3.6221	1.3868	-0.0933	-2.1836	-0.2085	-1.4590	5.1524	0.5009	2.3417	0.8729
4856.1224	-0.5584	-1.1126	0.0517	-1.4926	4.7034	-0.1412	3.5962	1.4603	1.1651	-1.9317	-0.2210	-1.2805	5.0822	0.6029	2.2945	0.8941
4864.1226	-0.1393	-0.6040	0.6213	-1.2358	4.9537	0.0892	3.6919	1.6592	0.2053	-1.4428	0.4534	-0.8192	5.3641	0.7543	2.4662	0.9697
4872.1228	-1.0073	-1.3033	-0.6470	-1.6729	4.2886	-0.0729	3.4931	1.4015	-0.2240	-2.0445	-0.9395	-1.5043	4.5987	0.6657	1.9733	0.8707
4880.1230	-0.6914	-0.5000	-0.5821	-1.0310	4.1180	0.5375	3.3458	1.7179	2.5951	-1.0497	-0.6437	-0.6394	4.6798	1.0066	2.0700	0.9809
4888.1232	-0.2325	0.0817	0.1221	-0.8488	4.9212	0.8231	3.8787	2.0974	2.5731	-0.5784	0.1401	-0.2030	5.4767	1.2647	2.4374	1.1447
4896.1234	-0.0947	0.4686	0.2890	-0.7482	5.3236	1.1161	4.2258	2.3835	3.2231	-0.2226	0.3689	0.0685	5.8746	1.5129	2.5825	1.2683
4904.1236	0.0023	0.9241	0.2273	-0.4579	5.1188	1.4962	4.1212	2.5595	2.3648	0.3487	0.4465	0.5263	5.7600	1.7435	2.5296	1.3305
4912.1238	-1.0547	0.2268	-1.3690	-0.9029	4.2353	1.3787	3.8816	2.2353	1.9576	-0.1938	-1.2978	-0.2224	4.6726	1.6781	1.7982	1.1835
4920.1240	-0.0968	1.6764	-0.3555	0.0297	4.9989	2.2893	4.2519	2.9992	4.2147	1.3330	0.0779	1.2404	5.8246	2.2768	2.4769	1.4991
4928.1242	0.1612	1.9694	0.0623	0.0870	5.4813	2.4625	4.5565	3.2587	1.8344	1.5562	0.5701	1.4975	6.3652	2.4468	2.7577	1.6274
4936.1244	-0.2764	1.7232	-0.6463	-0.0489	4.9387	2.4617	4.3264	3.1126	3.8318	1.3995	-0.1869	1.2356	5.7541	2.4273	2.3965	1.5572
4944.1246	1.0067	3.2328	1.0050	0.8430	6.1674	3.2310	4.9058	3.9099	8.1512	2.8367	1.7800	2.6860	7.3008	2.9508	3.3001	1.8902
4952.1248	0.1970	2.3629	0.0845	0.1498	5.9784	2.7685	5.0578	3.5453	5.4616	1.9037	0.5978	1.6687	6.7451	2.7191	2.8142	1.7373
4960.1250	0.3615	2.6638	0.0719	0.5210	5.5103	3.0329	4.6251	3.6135	4.5143	2.3671	0.7573	2.1606	6.5455	2.8150	2.8459	1.7649
4968.1252	0.9081	3.1772	0.8171	0.8071	6.1357	3.3575	4.8831	4.0513	2.8311	2.8275	1.6908	2.7767	7.4810	3.0663	3.4498	1.9886
4976.1254	0.1274	2.6520	-0.2972	0.4235	5.4257	3.1754	4.6951	3.6981	1.5490	2.3946	0.4173	2.1258	6.4584	2.9502	2.7471	1.8120
4984.1256	0.9224	3.6234	0.5971	1.1412	5.5981	3.6593	4.5958	4.0247	5.3689	3.4319	1.5399	3.1354	6.8577	3.1930	3.0830	1.9247
4992.1258	0.1585	2.6591	-0.2686	0.4550	5.6119	3.1951	4.8085	3.7666	4.8207	2.3809	0.4366	2.1385	6.6974	2.9697	2.8770	1.8467
5000.1260	0.1169	2.7736	-0.5002	0.6240	5.2511	3.3957	4.5432	3.8285	1.8843	2.6253	0.3276	2.3984	6.5327	3.0714	2.8617	1.8820
5008.1262	0.3792	2.6998	-0.0772	0.6534	5.3392	3.3183	4.3910	3.8857	2.1135	2.5008	0.8115	2.5078	6.8623	3.0009	3.2054	1.9436
5016.1264	-0.6145	1.4485	-1.2667	-0.1177	4.8870	2.5974	4.3260	3.2835	4.2557	1.2046	-0.7392	1.1790	6.0432	2.5477	2.6153	1.6836
5024.1266	0.6237	2.7092	0.3339	0.6939	5.6012	3.2372	4.4380	3.9281	4.4911	2.4374	1.2227	2.5648	7.2074	2.9405	3.4584	1.9741
5032.1268	-0.7671	0.9856	-1.3846	-0.4556	4.5425	2.5187	3.9587	3.3325	2.2557	0.6969	-0.7879	0.9707	6.0089	2.5121	2.8190	1.7887
5040.1270	-1.4248	0.5097	-2.5017	-0.5769	3.4199	2.4001	3.3318	2.9440	4.4030	0.4199	-1.9774	0.5713	4.8258	2.3481	2.1903	1.6000
5048.1272	0.2798	1.9318	-0.0198	0.2115	5.0517	2.9617	3.9383	3.8006	4.5111	1.6123	0.8568	2.0620	6.9205	2.7557	3.5345	2.0032
5056.1274	-1.1063	0.2256	-1.6236	-0.9877	4.4612	2.0954	3.8800	3.1362	0.1569	-0.1740	-1.1482	0.3093	5.9315	2.2726	2.8346	1.7557
5064.1276	-0.5145	1.0795	-1.1737	-0.2032	3.9504	2.6275	3.3028	3.3391	0.5843	0.9012	-0.3958	1.3717	5.7879	2.4891	2.9656	1.8187
5072.1278	-0.9076	0.2622	-1.4617	-0.8361	3.9802	2.2466	3.3167	3.2402	2.5529	-0.0779	-0.8203	0.6299	5.8558	2.3024	3.0705	1.8463
5080.1280	-1.8611	-0.6313	-2.7598	-1.4145	3.4336	1.9064	3.2270	2.8809	4.1045	-0.9322	-2.3406	-0.3146	5.0898	2.1076	2.5298	1.6981
5088.1282	0.0869	1.1814	-0.1442	-0.2261	4.7646	2.7071	3.5320	3.7945	3.1101	0.7867	0.7717	1.6811	7.0534	2.6017	3.8900	2.1081
5096.1284	-1.6381	-1.0800	-2.0715	-1.8267	3.9474	1.5274	3.3587	2.9107	-0.5537	-1.6191	-1.6848	-0.6283	5.7324	1.9255	3.0168	1.7857
5104.1286	-1.8606	-0.7735	-2.7655	-1.4552	3.0058	1.8670	2.8265	2.8136	1.3853	-1.0374	-2.2809	-0.2945	4.8140	2.0452	2.5230	1.6941
5112.1288	-0.8329	0.0028	-1.3348	-0.9421	3.6952	2.2247	2.9026	3.3197	4.6938	-0.3656	-0.5986	0.6457	5.9441	2.2617	3.3801	1.9495
5120.1291	-2.0885	-1.5964	-2.7683	-2.1030	3.1668	1.4816	2.8207	2.8050	4.5551	-2.0795	-2.3853	-0.9710	5.1411	1.8597	2.8566	1.7866
5128.1293	-0.8363	-0.0295	-1.2604	-1.1929	3.8793	2.4962	2.9827	3.7367	2.1631	-0.4863	-0.3715	0.7506	6.4611	2.5359	3.8015	2.2224
5136.1295	-1.6656	-1.2010	-2.1541	-2.0976	3.4595	2.0427	2.8120	3.5025	-0.3720	-1.7646	-1.4290	-0.3140	6.0336	2.3183	3.6200	2.2061
5144.1297	-2.3587	-1.8136	-3.1752	-2.4608	2.5401	1.8768	2.3353	3.1928	1.0544	-2.2811	-2.5447	-0.8843	5.0366	2.1787	3.0952	2.0813
5152.1299	-1.5535	-0.9486	-2.1598	-1.9774	2.8405	2.4702	2.2634	3.7702	1.4869	-1.4324	-1.2030	0.1370	5.7942	2.5624	3.7411	2.3732
5160.1301	-2.9875	-2.3823	-4.1000	-2.9264	1.5291	1.9702	1.7055	3.1888	0.8409	-2.7817	-3.4002	-1.2485	4.2711	2.2484	2.8701	2.1594
5168.1303	-1.9467	-0.9740	-2.9505	-2.0095	1.9386	2.8436	1.7318	3.8811	2.4855	-1.2900	-1.8482	0.2528	5.1309	2.7830	3.5066	2.4553
5176.1305	-1.9191	-1.0980	-2.7442	-2.2914	2.3959	2.8905	2.0163	4.1528	3.0578	-1.5671	-1.6189	0.1476	5.7243	2.9060	3.8781	2.6360
5184.1307	-2.5464	-1.4604	-3.6850	-2.5875	1.6486	2.8731	1.7258	3.9508	3.3562	-1.8373	-2.6309	-0.2759	4.8205	2.8909	3.3320	2.5443
5192.1309	-1.5153	-0.3392	-2.3462	-1.9621	2.1212	3.5326	1.7400	4.5834	1.5118	-0.7394	-0.9272	0.9647	5.7201	3.3181	4.0369	2.8459
5200.1311	-2.9669	-2.0924	-4.1811	-3.0607	0.9285	2.7224	1.2035	3.8325	-0.1786	-2.4707	-3.1083	-0.7039	4.2693	2.7986	3.2112	2.5639
5208.1313	-2.2147	-1.2160	-3.3092	-2.3783	0.9805	3.0588	1.0343	3.9925	1.8025	-1.5203	-2.0602	0.1800	4.4263	2.9261	3.3845	2.5858
5216.1315	-1.5557	-0.9970	-2.1027	-2.3963	1.6125	2.9496	1.2155	4.1443	1.5827	-1.5272	-0.8253	0.3728	5.0814	2.8805	3.8472	2.6769
5224.1317	-2.8080	-2.3680	-3.7250	-3.2367	0.2157	2.2069	0.5574	3.2749	0.5969	-2.8217	-2.7966	-1.0595	3.2112	2.3465	2.7354	2.2834
5232.1319	-1.7452	-1.1845	-2.3807	-2.4335	0.7642	2.7004	0.6681	3.6823	-0.8960	-1.6163	-1.1862	0.1393	3.9649	2.6225	3.2348	2.4269
5240.1321	-2.3684	-2.1781	-3.0998	-2.9546	0.3988	2.0983	0.4833	3.2170	-2.9739	-2.6262	-2.1212	-0.7621	3.4782	2.2243	2.9491	2.2427
5248.1323	-2.2240	-2.0108	-3.1224	-2.4906	-0.3771	1.9616	-0.1453	2.7806	0.3072	-2.2657	-2.1710	-0.5595	2.5815	1.9546	2.5006	1.9681
5256.1325	-0.9217	-1.0713	-1.1009	-1.9347	0.7276	1.9784	0.2532	2.9897	2.4317	-1.5394	-0.0844	0.2269	3.6015	1.9350	3.0934	2.0132
5264.1327	-1.8334	-2.2460	-2.1882	-2.6336	-0.0435	1.2458	-0.0764	2.2846	-1.2086	-2.7023	-1.4784	-0.9750	2.4523	1.4400	2.3672	1.6987
5272.1329	-1.6401	-1.9131	-2.1949	-2.1326	-0.8699	1.3553	-0.7577	2.0629	-2.5527	-2.1415	-1.3724	-0.5095	1.6976	1.3600	2.0639	1.5490
5280.1331	-1.6437	-2.3694	-2.0270	-2.2616	-0.9923	0.7426	-0.9265	1.5459	1.3222	-2.6688	-1.4383	-1.0290	1.2786	0.8801	1.8103	1.2809
5288.1333	-1.5222	-2.3931	-1.8814	-2.0376	-1.3809	0.3873	-1.2547	1.0580	2.3911	-2.6203	-1.4198	-1.1177	0.6032	0.5223	1.4005	0.9883
5296.1335	-1.1435	-2.1525	-1.2899	-1.8493	-1.5361	0.2655	-1.4903	0.8729	-2.0221	-2.3779	-0.8112	-0.9061	0.3102	0.3784	1.2753	0.8699
5304.1337	-1.8404	-3.3388	-1.9996	-2.4718	-2.0906	-0.6909	-1.7604	0.0235	-1.9444	-3.6147	-1.9173	-2.1726	-0.7360	-0.2992	0.5907	0.4661
5312.1339	-1.1389	-2.9089	-1.0102	-1.9626	-1.7797	-0.8917	-1.7827	-0.1710	-0.7196	-3.1954	-0.9523	-1.7768	-0.5454	-0.5361	0.6993	0.3099
5320.1341	-1.4289	-3.5678	-1.1751	-2.3619	-2.2270	-1.5293	-2.0681	-0.7568	-4.5154	-3.9073	-1.3432	-2.5050	-1.3676	-0.9952	0.2062	0.0288
5328.1343	-1.7544	-4.1921	-1.5836	-2.4763	-3.0094	-2.2090	-2.5975	-1.5409	-4.7539	-4.4479	-2.0012	-3.1493	-2.5274	-1.5727	-0.4756	-0.3825
5336.1345	-0.8972	-3.7469	-0.2800	-2.0118	-2.3622	-2.4428	-2.4482	-1.6416	-4.2193	-4.0934	-0.7162	-2.7327	-1.9613	-1.8002	-0.1478	-0.4808
5344.1347	-1.6902	-4.8714	-1.1646	-2.6552	-3.1179	-3.2795	-2.7968	-2.4567	-6.0819	-5.2289	-1.9574	-3.9511	-3.2158	-2.3918	-0.9508	-0.8678
5352.1349	-1.5702	-4.7807	-1.1091	-2.3218	-3.6459	-3.5258	-3.2105	-2.9189	-5.2823	-5.0074	-1.9851	-3.9024	-3.9876	-2.6946	-1.4038	-1.1558
5360.1351	-1.2864	-4.8811	-0.5409	-2.2909	-3.3997	-3.9411	-3.1682	-3.2081	-4.1977	-5.2028	-1.5555	-4.0743	-3.9595	-3.0134	-1.4162	-1.3196
5368.1353	-1.4773	-5.4079	-0.7292	-2.4032	-3.9463	-4.5305	-3.5812	-3.8298	-3.2037	-5.6991	-1.9531	-4.6089	-4.7921	-3.5059	-1.8853	-1.6402
5376.1355	-0.7565	-4.9187	0.2505	-1.8411	-3.7939	-4.6831	-3.7254	-4.0323	-3.8357	-5.1823	-0.9580	-4.1206	-4.7301	-3.7257	-1.8209	-1.8012
5384.1357	-1.2955	-5.6773	-0.3842	-2.2097	-4.5164	-5.3076	-4.1131	-4.7128	-5.9908	-5.9029	-1.8458	-4.9399	-5.8460	-4.2005	-2.5111	-2.1388
5392.1359	-1.4739	-5.8096	-0.8186	-1.9804	-5.5982	-5.5673	-4.8541	-5.3026	-5.0400	-5.8247	-2.3671	-5.0553	-7.1528	-4.5411	-3.2149	-2.4766
5400.1361	-1.1163	-5.5402	-0.3435	-1.6426	-5.6465	-5.7263	-4.9873	-5.5524	-4.7281	-5.5179	-1.9352	-4.8550	-7.3896	-4.7371	-3.3742	-2.6532
5408.1363	-1.1550	-5.5580	-0.4292	-1.5481	-5.9943	-5.9014	-5.1982	-5.8593	-5.4301	-5.4679	-2.0977	-4.9436	-7.9588	-4.9187	-3.7408	-2.8390
5416.1365	-0.6755	-4.9311	0.0706	-0.9694	-6.2270	-5.7878	-5.4589	-5.9921	-5.2079	-4.7195	-1.5340	-4.3764	-8.3068	-4.9615	-3.9340	-2.9771
5424.1367	-1.1216	-5.2963	-0.5337	-1.1395	-6.9589	-6.1710	-5.7787	-6.5759	-6.6612	-4.9979	-2.3449	-4.9190	-9.5168	-5.2826	-4.7412	-3.3030
5432.1369	-1.2365	-5.2280	-0.8974	-0.8731	-7.6915	-6.2172	-6.2435	-6.9121	-7.0685	-4.7388	-2.7265	-4.8469	-10.3834	-5.4267	-5.2349	-3.5130
5440.1371	-0.7182	-4.6149	-0.3838	-0.2352	-7.6736	-6.0553	-6.3750	-6.9176	-5.7427	-4.0057	-2.1166	-4.2025	-10.3110	-5.4223	-5.1727	-3.5761
5448.1373	-0.6268	-4.3407	-0.3736	0.0518	-8.0469	-6.0628	-6.5985	-7.1544	-5.9197	-3.6203	-2.1302	-4.0344	-10.9074	-5.5110	-5.5650	-3.7500
5456.1375	-0.1617	-3.6851	0.0738	0.6274	-8.2370	-5.8255	-6.8364	-7.1486	-7.2206	-2.8309	-1.5522	-3.3679	-11.0733	-5.4492	-5.6232	-3.8037
5464.1377	-0.0739	-3.4753	0.0747	0.8840	-8.3974	-5.7820	-6.9465	-7.2411	-7.1440	-2.5303	-1.5382	-3.1747	-11.2871	-5.4744	-5.7688	-3.8840
5472.1379	0.2681	-2.9011	0.3547	1.3740	-8.6342	-5.5486	-7.1661	-7.2446	-5.9853	-1.8337	-1.1627	-2.6311	-11.5414	-5.4071	-5.8951	-3.9403
5480.1381	0.4490	-2.5086	0.3501	1.8430	-9.1436	-5.3690	-7.5735	-7.3405	-5.5954	-1.2569	-1.0705	-2.1755	-11.9994	-5.3987	-6.0971	-4.0312
5488.1383	0.2220	-2.3566	-0.1811	2.0339	-9.7124	-5.2446	-7.8173	-7.5090	-3.3640	-0.9417	-1.6190	-2.1153	-12.7281	-5.3815	-6.5756	-4.1600
5496.1385	1.0176	-1.3654	0.8628	2.6011	-8.9843	-4.8189	-7.4347	-7.1128	-1.5307	0.0083	-0.4216	-1.2544	-11.9623	-5.0991	-6.1845	-4.0226
5504.1387	0.7551	-1.6600	0.4572	2.5501	-9.4744	-5.0529	-7.7256	-7.4473	-2.8523	-0.2005	-0.9126	-1.5286	-12.5820	-5.3093	-6.5461	-4.1958
5512.1389	0.1109	-2.0093	-0.6764	2.5213	-10.8298	-5.1771	-8.4736	-7.9662	-1.7952	-0.3019	-2.1344	-1.8792	-14.1500	-5.5116	-7.4281	-4.4764
5520.1391	0.7592	-1.1130	0.0915	3.0428	-10.1845	-4.6295	-8.1387	-7.4441	-0.8118	0.5929	-1.1465	-0.9923	-13.2688	-5.1288	-6.9194	-4.2505
5528.1393	1.0499	-0.7718	0.5008	3.2003	-9.5804	-4.4257	-7.7604	-7.1466	-2.1131	0.8852	-0.6545	-0.6603	-12.5510	-4.9432	-6.5516	-4.1096
5536.1395	1.1986	-0.6769	0.7901	3.2102	-9.4524	-4.5003	-7.6881	-7.1998	-2.1373	0.9283	-0.4033	-0.6604	-12.5629	-4.9948	-6.5931	-4.1514
5544.1397	1.0157	-0.8200	0.5224	3.1149	-9.5378	-4.5124	-7.6920	-7.2166	-3.4385	0.8068	-0.6806	-0.7810	-12.6359	-4.9878	-6.6482	-4.1496
5552.1399	0.6106	-0.8990	-0.2764	3.1394	-10.1362	-4.2867	-7.9806	-7.1982	-3.1556	0.8957	-1.4109	-0.7613	-13.0949	-4.8597	-6.8748	-4.1331
5560.1401	0.9585	-0.4030	0.1593	3.3704	-9.7124	-3.9532	-7.7355	-6.8542	-0.6369	1.3564	-0.8620	-0.3042	-12.5476	-4.6121	-6.5622	-3.9768
5568.1403	1.4220	0.2507	0.8131	3.6177	-8.9245	-3.5710	-7.2133	-6.4056	-1.8049	1.9348	-0.0800	0.2482	-11.6856	-4.2881	-6.1454	-3.7774
5576.1405	1.8267	1.0044	1.3062	3.9297	-8.5522	-3.1046	-6.9397	-6.0320	-3.0790	2.6847	0.5661	0.8745	-11.2970	-3.9458	-5.9766	-3.6290
5584.1407	1.7272	1.0541	1.1403	3.9074	-8.5146	-3.0152	-6.8304	-5.9753	-2.3948	2.7426	0.3948	0.8623	-11.3033	-3.8653	-6.0338	-3.6080
5592.1409	1.4588	0.9190	0.7157	3.8187	-8.6099	-2.9981	-6.7841	-5.9970	-0.5224	2.6387	-0.0722	0.6927	-11.4388	-3.8407	-6.1638	-3.6193
5600.1411	1.7445	1.2918	1.1365	3.9295	-8.3060	-2.7884	-6.6046	-5.7731	2.3758	2.9456	0.4036	0.9717	-11.1310	-3.6803	-5.9938	-3.5216
5608.1414	1.9802	1.5796	1.4293	4.0859	-8.0678	-2.5853	-6.5004	-5.5538	1.4860	3.2272	0.7974	1.2977	-10.7516	-3.5303	-5.7499	-3.4137
5616.1416	2.2197	1.7842	1.8360	4.0798	-7.5883	-2.4067	-6.2319	-5.2426	-0.2647	3.3439	1.2972	1.5270	-10.1166	-3.3481	-5.3657	-3.2407
5624.1418	2.0571	1.4001	1.8499	3.6383	-7.4303	-2.6183	-6.0961	-5.2667	0.3975	2.8030	1.2123	1.0767	-10.0582	-3.4232	-5.3365	-3.2146
5632.1420	1.6847	0.8525	1.4031	3.3659	-7.6461	-2.9754	-6.1823	-5.5695	-0.0449	2.2552	0.6199	0.5453	-10.3987	-3.6661	-5.5638	-3.3484
5640.1422	1.9089	1.0808	1.7078	3.4819	-7.0639	-2.7859	-5.8332	-5.2571	-0.5886	2.4381	1.0108	0.8235	-9.6227	-3.4875	-5.1338	-3.1863
5648.1424	2.0332	1.4773	1.7356	3.6586	-6.8992	-2.3088	-5.7237	-4.8256	-1.4952	2.8789	1.2346	1.3090	-9.1557	-3.1294	-4.8169	-2.9616
5656.1426	2.0185	1.5336	1.7051	3.6680	-6.8711	-2.2617	-5.6719	-4.7974	-2.5725	2.9436	1.2137	1.3414	-9.1481	-3.0878	-4.8390	-2.9525
5664.1428	1.8710	1.2687	1.6765	3.3371	-6.6313	-2.3986	-5.4505	-4.7826	-2.2704	2.5579	1.1023	0.9985	-9.0039	-3.1133	-4.8020	-2.9213
5672.1430	1.5342	1.0235	1.2077	3.0851	-6.8618	-2.3452	-5.5120	-4.7388	-2.2704	2.3182	0.6334	0.7754	-9.1890	-3.0414	-4.8900	-2.8703
5680.1432	1.6751	0.9447	1.5700	2.9892	-6.2157	-2.5318	-5.0952	-4.7098	-0.5078	2.1012	0.9009	0.6131	-8.6323	-3.1180	-4.6566	-2.8561
5688.1434	2.0607	1.0704	2.2547	3.0415	-5.1797	-2.5822	-4.4957	-4.4608	-0.0546	2.0694	1.5795	0.7354	-7.4995	-3.0811	-4.0715	-2.7269
5696.1436	2.2847	1.2707	2.6860	3.0077	-4.2357	-2.4380	-3.8479	-4.0837	-4.2583	2.1453	2.0690	0.9105	-6.4481	-2.8692	-3.5645	-2.5276
5704.1438	2.0884	1.1644	2.6212	2.6459	-3.5315	-2.4734	-3.1600	-3.9337	-5.5470	1.8795	1.8912	0.5642	-5.9832	-2.7568	-3.5133	-2.4506
5712.1440	1.6233	1.2060	1.7585	2.6259	-3.8152	-2.1471	-3.1098	-3.7998	-3.3889	2.0468	1.0595	0.5512	-6.2511	-2.5117	-3.7524	-2.3936
5720.1442	1.6635	1.5561	1.6788	2.8160	-3.2094	-1.7776	-2.5990	-3.4068	-1.8091	2.4155	1.0634	0.8727	-5.4926	-2.1980	-3.4311	-2.2135
5728.1444	2.0916	2.2467	2.2515	3.0682	-2.0874	-1.2781	-1.8089	-2.7748	-0.7261	3.0105	1.7776	1.4625	-4.2040	-1.7544	-2.8139	-1.9185
5736.1446	2.0996	2.9192	2.0340	3.2590	-1.8654	-0.4710	-1.4989	-2.1189	-0.1223	3.7487	1.8032	2.0919	-3.7238	-1.1310	-2.5743	-1.5989
5744.1448	1.7699	3.1136	1.5216	3.0864	-1.4497	-0.0356	-0.9214	-1.6996	2.7724	3.9097	1.3145	2.0863	-3.3436	-0.7127	-2.5347	-1.3943
5752.1450	1.7985	3.7386	1.3748	3.2645	-1.1119	0.6620	-0.5315	-1.1153	4.5762	4.5716	1.3538	2.6221	-2.8313	-0.1648	-2.3137	-1.1184
5760.1452	1.8219	4.1617	1.2898	3.2829	-0.7877	1.3393	-0.2448	-0.4365	2.6506	4.9966	1.5234	3.1247	-2.1127	0.3971	-1.8589	-0.7476
5768.1454	1.8499	4.3079	1.4059	3.1152	0.0015	1.6609	0.3609	0.0888	2.8738	5.0129	1.7251	3.2435	-1.1278	0.7513	-1.3513	-0.4548
5776.1456	2.1389	4.9568	1.7206	3.3007	0.5765	2.2911	0.7774	0.7307	3.5495	5.6251	2.2550	3.8667	-0.2877	1.2598	-0.8776	-0.1347
5784.1458	1.9481	4.8702	1.5619	2.9716	1.0543	2.4868	1.2220	1.0923	2.5578	5.4251	2.1296	3.7411	0.2920	1.5219	-0.5998	0.0847
5792.1460	1.9046	4.9079	1.5389	2.8589	1.5580	2.6574	1.6293	1.3923	1.5222	5.3980	2.1490	3.7724	0.9118	1.7267	-0.3022	0.2531
5800.1462	2.1278	5.4394	1.7273	3.0473	1.8559	3.2262	1.8247	1.9315	0.8799	5.9414	2.5621	4.3592	1.5210	2.1639	0.0939	0.5303
5808.1464	2.2580	5.8159	1.9329	2.9907	2.4199	3.6870	2.2690	2.4787	3.2783	6.2132	2.8934	4.6578	2.2476	2.5797	0.4878	0.8182
5816.1466	2.8401	6.7803	2.6966	3.3128	3.3633	4.4041	2.9056	3.2409	4.1029	7.0874	3.8954	5.5088	3.4049	3.1605	1.0991	1.1769
5824.1468	2.8310	7.0124	2.6913	3.2363	3.7386	4.7406	3.2560	3.6208	2.7578	7.2702	3.9838	5.6862	3.8775	3.4774	1.3209	1.3776
5832.1470	2.7579	7.2104	2.5444	3.1941	3.9945	5.0707	3.5365	3.9532	4.2497	7.4471	3.9099	5.8301	4.2268	3.7679	1.4761	1.5493
5840.1472	3.2162	8.0798	3.0361	3.5408	4.6557	5.8540	3.9606	4.7286	2.6178	8.3103	4.7098	6.7371	5.2798	4.3773	2.1022	1.9335
5848.1474	2.9163	7.9954	2.5058	3.4399	4.4784	6.0972	3.9301	4.9240	0.8576	8.2942	4.2714	6.7581	5.3110	4.5806	2.1514	2.0600
5856.1476	2.7786	8.1871	2.1128	3.5788	4.1479	6.4027	3.7814	5.0463	4.7030	8.5922	3.9539	6.9573	5.0753	4.7622	2.0387	2.1100
5864.1478	2.6962	8.3437	1.9885	3.4760	4.3615	6.7061	4.0285	5.3629	6.2734	8.7076	3.8939	7.0496	5.3622	5.0377	2.1717	2.2791
5872.1480	2.2688	8.1185	1.3549	3.2290	4.3198	6.8372	4.1651	5.4984	5.4649	8.5029	3.2666	6.8369	5.3913	5.1935	2.1428	2.3733
5880.1482	1.8552	-0.6871	2.3006	3.1585	-9.4656	-5.7046	-7.7960	-8.3839	-3.8771	0.6689	0.6038	-1.3158	-13.9029	-5.9421	-7.6026	-4.8643
5888.1484	1.5387	-1.0704	1.7269	3.0324	-10.2734	-5.6640	-8.4206	-8.4300	-0.5391	0.3838	0.1016	-1.4371	-14.3950	-5.9691	-7.6549	-4.8334
5896.1486	1.2307	-1.5272	1.6346	2.4456	-9.7457	-5.9855	-7.8828	-8.4975	-1.3248	-0.2870	-0.2003	-2.1342	-14.2081	-6.0595	-7.7296	-4.8466
5904.1488	1.1686	-1.5896	1.5259	2.4345	-9.5470	-5.9541	-7.7338	-8.4045	-3.7798	-0.3375	-0.2819	-2.1239	-13.8954	-6.0069	-7.5700	-4.7879
5912.1490	0.5817	-2.3851	0.5648	2.1810	-10.5702	-6.1291	-8.5019	-8.6334	-4.1568	-0.9797	-1.2117	-2.5186	-14.5404	-6.1870	-7.6888	-4.8242
5920.1492	1.0014	-1.8377	1.4009	2.1225	-9.0951	-5.9023	-7.3874	-8.1347	-2.3418	-0.7021	-0.4057	-2.3322	-13.2782	-5.8709	-7.2211	-4.6056
5928.1494	0.6083	-2.3429	0.8353	1.8516	-9.5883	-6.0087	-7.7229	-8.2307	-2.8889	-1.1644	-0.9735	-2.6579	-13.6037	-5.9461	-7.2911	-4.6022
5936.1496	0.1638	-2.9398	0.4133	1.3054	-9.5859	-6.2553	-7.6084	-8.3156	-3.2890	-1.8705	-1.5222	-3.2926	-13.6992	-6.0344	-7.3785	-4.5976
5944.1498	0.9759	-1.9837	1.6456	1.6319	-8.2584	-5.7870	-6.7731	-7.6743	-1.0001	-1.1073	-0.1544	-2.5489	-12.3307	-5.6227	-6.7046	-4.3159
5952.1500	0.7531	-2.4549	1.3024	1.4486	-8.5846	-5.8501	-7.1122	-7.6465	-2.2926	-1.5429	-0.4265	-2.7013	-12.2725	-5.6688	-6.4767	-4.2324
5960.1502	0.6530	-2.2458	1.1775	1.3381	-7.9191	-5.5176	-6.4806	-7.2227	-3.3782	-1.4005	-0.5012	-2.6095	-11.5665	-5.3176	-6.2207	-4.0178
5968.1504	0.5323	-2.1106	0.8965	1.3453	-8.1853	-5.2274	-6.6015	-7.0506	-1.1424	-1.2145	-0.6969	-2.4650	-11.7257	-5.1177	-6.2664	-3.9255
5976.1506	0.1532	-2.4702	0.4145	1.0031	-8.2872	-5.2300	-6.5738	-6.9909	-0.1702	-1.6076	-1.2073	-2.8002	-11.7712	-5.0639	-6.2820	-3.8560
5984.1508	0.4937	-1.3731	0.6433	1.4519	-7.6577	-4.2895	-6.0084	-6.2064	-1.1578	-0.4550	-0.6888	-1.8234	-10.9244	-4.3447	-5.9037	-3.5065
5992.1510	0.3053	-1.4022	0.1913	1.4856	-8.1830	-4.0025	-6.3885	-6.0432	-3.1868	-0.3538	-0.9727	-1.6187	-11.0978	-4.1680	-5.8453	-3.3888
6000.1512	0.5386	-0.9430	0.5007	1.6341	-7.1578	-3.6318	-5.6210	-5.5291	-4.0694	0.0329	-0.5682	-1.2337	-9.9390	-3.8068	-5.3272	-3.1450
6008.1514	0.3170	-0.6481	-0.0065	1.7188	-7.2373	-3.1718	-5.4898	-5.2386	-4.5011	0.4306	-0.9624	-0.9800	-9.9294	-3.4570	-5.3870	-3.0115
6016.1516	-0.6474	-1.6827	-1.2846	1.0220	-8.0100	-3.5106	-5.8156	-5.5648	-3.7439	-0.5807	-2.4092	-1.9476	-10.7706	-3.6537	-5.8440	-3.1082
6024.1518	0.0467	-0.6788	-0.3372	1.4604	-6.6036	-2.9488	-4.8519	-4.8770	-1.6502	0.3026	-1.3153	-1.1409	-9.2817	-3.1739	-5.1676	-2.8164
6032.1520	0.4321	-0.3815	0.2717	1.5460	-5.9214	-2.7548	-4.4958	-4.5065	-2.9502	0.4963	-0.5956	-0.7986	-8.3920	-2.9816	-4.6349	-2.6173
6040.1522	0.4387	-0.4429	0.3856	1.3890	-5.0969	-2.6905	-3.9021	-4.1863	-3.9876	0.3153	-0.4723	-0.8480	-7.4264	-2.8244	-4.1622	-2.4305
6048.1524	1.0761	0.4376	1.2085	1.8401	-3.9710	-2.1772	-3.1783	-3.5818	-2.4862	1.1248	0.5159	-0.0609	-6.1321	-2.4101	-3.5244	-2.1682
6056.1526	1.0954	-0.0218	1.5699	1.3876	-3.1724	-2.4938	-2.6981	-3.4790	-0.7551	0.4087	0.7589	-0.5277	-5.3104	-2.5141	-3.0725	-2.0629
6064.1528	1.5096	0.6475	2.1045	1.6516	-1.9731	-1.9795	-1.8589	-2.8082	0.7283	0.9860	1.4420	0.0707	-3.8899	-2.0543	-2.3804	-1.7447
6072.1530	1.7595	1.0179	2.3262	1.8859	-1.8190	-1.6037	-1.8440	-2.4489	0.8659	1.3896	1.8482	0.5717	-3.4120	-1.7938	-2.0127	-1.5556
6080.1532	1.7715	0.6071	2.5992	1.5091	-1.0902	-1.8220	-1.4246	-2.2825	4.1803	0.7588	2.0430	0.2057	-2.5577	-1.8437	-1.5088	-1.4164
6088.1534	2.4350	1.6154	3.4527	1.9841	0.1416	-1.2164	-0.5896	-1.6009	5.2752	1.6904	3.0779	1.0692	-1.1857	-1.3498	-0.8640	-1.1242
6096.1537	2.0813	1.1798	2.9991	1.6586	-0.0659	-1.2566	-0.7025	-1.5635	-0.0375	1.2630	2.6595	0.8029	-1.2058	-1.3269	-0.8025	-1.0473
6104.1539	1.6610	0.8228	2.3581	1.4146	-0.0085	-1.1619	-0.5687	-1.3819	1.4629	0.9173	2.0336	0.5690	-0.9153	-1.1981	-0.6271	-0.9109
6112.1541	2.2140	1.4541	3.1228	1.7675	0.8352	-0.9086	-0.0606	-1.0464	4.8076	1.4681	2.8645	1.0860	-0.0412	-1.0004	-0.2082	-0.7832
6120.1543	2.1861	1.0218	3.3421	1.4216	1.3241	-1.2450	0.2211	-1.0823	1.4451	0.8786	2.9914	0.6903	0.4408	-1.1538	0.0494	-0.7596
6128.1545	1.8376	1.0976	2.6805	1.3948	1.0852	-0.8981	0.2370	-0.8858	1.7345	1.0553	2.4069	0.7632	0.2967	-0.8880	-0.0670	-0.6584
6136.1547	2.0792	1.3276	3.1333	1.3586	1.4711	-0.7972	0.4792	-0.6977	4.5730	1.1624	2.8679	0.8701	0.6298	-0.7794	0.1055	-0.5682
6144.1549	2.4260	1.5144	3.7430	1.3723	2.3257	-0.7050	0.9687	-0.3583	2.2289	1.2151	3.5460	1.0887	1.6526	-0.6347	0.6727	-0.3815
6152.1551	2.3698	1.7793	3.4259	1.5989	2.1060	-0.3111	0.8479	-0.1215	-1.1663	1.6312	3.4092	1.5001	1.7087	-0.3752	0.7555	-0.2610
6160.1553	2.4055	1.5008	3.6651	1.3271	2.4393	-0.4698	0.9952	-0.0455	0.3449	1.2054	3.6093	1.2637	2.1217	-0.4301	1.0428	-0.1811
6168.1555	2.3199	1.6423	3.5434	1.2435	2.7932	-0.2280	1.3586	0.2327	3.5305	1.2932	3.5035	1.2953	2.4841	-0.1952	1.1682	-0.0423
6176.1557	2.0228	1.6084	2.9995	1.1853	2.3691	-0.0221	1.1746	0.2962	5.1292	1.3427	3.0063	1.2824	2.1292	-0.0585	0.9937	-0.0017
6184.1559	2.5344	1.8706	3.8011	1.3086	3.1974	0.1202	1.5383	0.6962	7.6224	1.4617	3.9116	1.6412	3.2568	0.0869	1.7121	0.2204
6192.1561	2.9509	2.5962	4.2799	1.6416	3.8457	0.6603	1.9695	1.2361	6.1227	2.1780	4.5910	2.3427	4.1159	0.5087	2.1651	0.4698
6200.1563	2.7272	2.4241	3.9856	1.4470	3.7652	0.7176	1.9752	1.3176	1.4202	2.0153	4.3380	2.2370	4.1254	0.5951	2.1835	0.5407
6208.1565	2.7085	2.4253	4.0121	1.3503	4.2583	0.7975	2.3589	1.5315	1.8364	1.9440	4.3664	2.2107	4.6775	0.7211	2.4355	0.6591
6216.1567	2.6793	2.5928	3.9784	1.2929	4.7053	1.0370	2.7651	1.8331	2.8697	2.0570	4.3681	2.2956	5.1642	0.9615	2.6307	0.8114
6224.1569	3.0128	2.8751	4.5286	1.3038	5.6072	1.3151	3.3042	2.3528	2.3194	2.2014	5.0436	2.6231	6.3419	1.2531	3.3089	1.0971
6232.1571	3.4581	3.6034	5.1118	1.5687	6.4044	1.8348	3.8487	2.9210	1.9525	2.8660	5.8003	3.2672	7.2934	1.6815	3.7906	1.3608
6240.1573	3.2545	3.5161	4.8538	1.3519	6.4044	1.9885	3.9299	3.1037	-0.4942	2.7578	5.5943	3.1993	7.3841	1.8495	3.8501	1.4820
6248.1575	3.2156	3.4703	4.9475	1.0663	7.0525	2.1329	4.4291	3.4726	-0.6093	2.5603	5.7136	3.1159	8.1412	2.0732	4.2389	1.7032
6256.1577	3.2572	3.6520	5.0893	0.9440	7.6418	2.3434	4.9225	3.7998	2.6637	2.6193	5.8606	3.1499	8.7117	2.3081	4.4738	1.8686
6264.1579	3.0496	3.2561	4.8270	0.7319	7.7724	2.2656	4.9807	3.8858	4.4489	2.1860	5.5896	2.9114	9.0709	2.2942	4.7402	1.9601
6272.1581	3.4201	3.5752	5.4378	0.7827	8.8510	2.5103	5.6554	4.3957	3.9604	2.3568	6.2986	3.2368	10.3736	2.5697	5.4381	2.2295
6280.1583	3.8516	4.0598	6.1104	0.8637	9.9692	2.9309	6.3618	5.0608	3.2359	2.6904	7.1358	3.7260	11.7842	2.9803	6.2158	2.5789
6288.1585	3.5923	3.8268	5.7868	0.6305	10.7124	3.0132	6.9849	5.3807	4.4153	2.3749	6.7924	3.5205	12.6990	3.1605	6.6311	2.7723
6296.1587	3.5592	3.9129	6.0165	0.3069	12.0964	3.0296	8.1754	5.7065	5.1880	2.2082	6.8753	3.2379	13.7732	3.3645	6.9079	2.9188
6304.1589	3.7520	4.0321	6.5032	0.0900	13.3094	3.1832	9.0293	6.2097	4.5114	2.1007	7.3874	3.2731	15.0916	3.6327	7.5535	3.1979
6312.1591	3.8961	4.2454	6.6938	0.1408	14.5459	3.5141	9.8951	6.8267	5.4745	2.2119	7.6773	3.5459	16.6716	3.9952	8.3569	3.5269
6320.1593	4.4619	4.8115	7.6275	0.2691	16.4902	3.8622	11.2036	7.5954	7.8159	2.5281	8.6858	3.9911	18.8118	4.4115	9.3896	3.9056
6328.1595	4.4542	4.6192	7.8843	-0.1073	17.7508	3.8149	12.1312	7.9717	9.9491	2.0779	8.8600	3.6945	20.1055	4.5533	9.9805	4.1292
6336.1597	4.1583	4.5474	7.5694	-0.3802	18.5383	3.8898	12.9279	8.2052	10.4103	1.8985	8.4477	3.4083	20.7337	4.7454	10.0880	4.2418
6344.1599	4.4809	4.9851	7.9955	-0.2190	19.9667	4.3562	13.8928	8.9673	10.1932	2.2253	9.0382	3.9106	22.5717	5.2114	11.0423	4.6383
6352.1601	4.6181	5.0821	8.3213	-0.3597	21.7069	4.6074	15.1329	9.6863	11.4443	2.1012	9.4064	4.0017	24.6142	5.5914	12.0397	5.0318
6360.1603	4.8607	5.5393	8.8002	-0.3817	23.2538	4.9116	16.3426	10.2681	11.9302	2.3572	9.8882	4.2018	26.1044	5.9775	12.6160	5.3014
6368.1605	4.6913	5.3933	8.6552	-0.6314	24.2533	5.0277	17.1444	10.6795	12.3094	2.0805	9.7300	4.0414	27.2594	6.2107	13.1366	5.5394
6376.1607	4.2898	5.1226	8.2128	-1.0201	25.4005	5.0960	18.1879	11.0628	14.1139	1.6575	9.1854	3.6384	28.4129	6.4504	13.5369	5.7549
6384.1609	4.7836	5.9193	8.7927	-0.6531	26.7691	5.7757	19.1103	11.9218	14.3619	2.3842	10.0021	4.4542	30.1898	7.0384	14.4592	6.1756
6392.1611	11.0715	8.9644	14.7536	8.7496	14.2634	0.6928	6.8720	2.4949	7.1410	8.5466	15.5482	9.0716	15.5313	0.1026	7.8021	0.4605
6400.1613	10.0993	8.9685	12.3872	9.3072	10.7743	1.4881	4.5654	2.2077	5.2649	9.3468	13.6077	9.6971	12.7085	0.3305	6.6827	0.3342
6408.1615	8.8356	9.2011	9.3742	9.9300	6.4737	2.7213	1.8482	2.0273	3.5437	10.5433	11.1551	10.5528	9.1424	0.8235	5.1985	0.2555
6416.1617	6.9859	8.4387	6.3552	9.2888	3.0891	3.0215	0.1332	1.3975	2.5232	10.2556	8.1246	9.7402	5.4481	0.9058	3.2165	-0.0343
6424.1619	5.8846	8.5172	3.5261	10.0634	-1.3556	4.0737	-2.8816	1.0834	0.9521	11.3399	5.8796	10.6608	1.9404	1.2086	1.9019	-0.1638
6432.1621	4.9895	8.5916	2.0667	9.6765	-3.5797	4.6104	-3.9849	0.9030	-0.1401	11.6497	4.5112	10.4912	-0.6324	1.5159	0.5220	-0.2592
6440.1623	3.7948	7.9283	0.5141	8.7775	-5.2936	4.5203	-4.6675	0.4185	-1.7078	11.0400	2.7709	9.4739	-2.9878	1.4765	-0.8855	-0.4826
6448.1625	2.8617	7.5772	-1.3814	8.8148	-8.1898	4.9606	-6.5755	0.1074	-4.5959	11.2098	1.1494	9.5845	-5.4464	1.5694	-1.8571	-0.5863
6456.1627	1.8047	6.7348	-2.7490	7.9664	-9.8714	4.7618	-7.4233	-0.3674	-3.5721	10.4073	-0.3747	8.5971	-7.5050	1.4249	-2.9524	-0.7736
6464.1629	1.6154	6.7699	-3.5636	8.4433	-11.7600	5.1139	-8.9019	-0.5336	-1.1295	10.8536	-0.9149	9.1220	-8.8371	1.4355	-3.2933	-0.8354
6472.1631	1.3070	6.6084	-4.3344	8.5468	-13.4767	5.3937	-10.2017	-0.6395	-3.2804	10.9835	-1.4397	9.3814	-10.0861	1.4816	-3.6154	-0.8360
6480.1633	-0.0614	5.3152	-6.3432	7.7955	-15.8898	4.9931	-11.6260	-1.4270	-3.3913	9.9261	-3.6008	8.2479	-12.6509	1.1018	-4.8672	-1.1579
6488.1635	-0.8083	4.9807	-8.0092	8.0888	-18.5949	5.1598	-13.4701	-1.9982	0.3116	10.1182	-5.1294	8.3077	-15.0824	0.9368	-5.8932	-1.4364
6496.1637	-1.7121	4.1871	-8.9978	7.1932	-19.5151	4.8005	-13.7568	-2.4515	0.1742	9.2396	-6.3778	7.2065	-16.5814	0.7474	-6.8382	-1.6336
6504.1639	-2.5364	3.4893	-10.1409	6.6514	-20.6763	4.6358	-14.3478	-2.7947	-1.9156	8.6295	-7.6084	6.5232	-17.8866	0.6274	-7.5254	-1.7620
6512.1641	-2.5135	3.6068	-9.9187	6.3395	-20.8511	4.7701	-14.4108	-2.6799	-2.7249	8.6221	-7.3625	6.4624	-18.2296	0.7692	-7.6875	-1.6892
6520.1643	-3.3500	2.7297	-10.4769	5.0094	-21.0622	4.3513	-14.1637	-2.9141	-4.4711	7.4092	-8.2394	5.0999	-19.1595	0.6749	-8.3880	-1.7476
6528.1645	-4.0609	2.3285	-11.7806	4.8847	-22.5476	4.5527	-15.0820	-3.0593	-3.5712	7.2691	-9.4412	4.9508	-20.3856	0.7292	-8.8810	-1.7777
6536.1647	-3.9089	2.3795	-11.2259	4.4707	-22.0125	4.5562	-14.6791	-2.8444	-1.2729	7.0493	-8.9456	4.7471	-20.0613	0.8425	-8.7427	-1.6509
6544.1649	-4.3615	2.0034	-11.5682	3.7853	-22.3531	4.4297	-14.6931	-2.9566	-3.7372	6.5299	-9.4107	4.1166	-20.7776	0.8460	-9.2114	-1.6768
6552.1651	-4.6700	2.1378	-12.2708	3.8506	-23.3634	4.8637	-15.3029	-2.8593	-3.8360	6.8606	-9.9397	4.3666	-21.5877	1.0881	-9.5274	-1.6157
6560.1653	-4.2964	2.1640	-11.3489	3.5125	-22.1960	4.7549	-14.5711	-2.5510	0.7228	6.5359	-9.1048	4.1909	-20.5229	1.1480	-8.9875	-1.4376
6568.1655	-4.1450	1.9912	-11.0887	3.5222	-22.1860	4.5750	-14.7300	-2.6234	2.2795	6.3286	-8.8504	4.1540	-20.3791	0.9946	-8.7951	-1.4519
6576.1657	-4.2329	1.8388	-11.1851	3.3993	-22.5809	4.5223	-15.0283	-2.7161	2.8375	6.1788	-8.9469	4.0383	-20.7679	0.9358	-8.9290	-1.4801
6584.1660	-4.1090	1.6146	-10.8374	3.2272	-22.1689	4.3267	-14.8563	-2.6740	2.4451	5.8266	-8.6325	3.8780	-20.2748	0.8446	-8.6100	-1.4262
6592.1662	-3.8118	1.5924	-10.5103	3.4772	-22.1616	4.3032	-15.1185	-2.6139	0.1404	5.8604	-8.1738	4.1926	-19.8487	0.7757	-8.1741	-1.3657
6600.1664	-3.9884	1.2039	-10.4664	2.9691	-22.0713	4.0549	-15.0040	-2.6906	0.6140	5.2924	-8.2562	3.6718	-19.9622	0.6779	-8.2583	-1.3699
6608.1666	-4.2959	0.6713	-10.7342	2.6093	-22.3268	3.6540	-15.1289	-3.0266	2.2244	4.6965	-8.7026	3.0712	-20.4497	0.4047	-8.5568	-1.5214
6616.1668	-4.0228	0.5113	-10.1460	2.5225	-22.0446	3.3235	-15.0959	-3.1643	3.7691	4.3992	-8.2019	2.9053	-20.2393	0.1726	-8.3951	-1.5798
6624.1670	-4.0112	0.2539	-9.8993	2.2040	-21.7946	3.1243	-14.9604	-3.1681	4.3594	3.9845	-8.0287	2.6021	-20.0550	0.0900	-8.2761	-1.5511
6632.1672	-4.0178	0.1244	-10.0282	2.3261	-22.1461	3.1062	-15.3239	-3.2250	3.3410	3.9523	-8.0835	2.7071	-20.1523	0.0210	-8.1908	-1.5580
6640.1674	-3.7181	0.1493	-9.3326	2.1150	-21.6012	2.9929	-15.0367	-3.1080	5.1660	3.7584	-7.4350	2.6128	-19.7014	0.0047	-7.9311	-1.4838
6648.1676	-4.1821	-0.2733	-9.8055	1.5763	-21.8763	2.8748	-15.0498	-3.1978	5.3893	3.2474	-8.0171	2.0497	-20.1905	-0.0098	-8.2483	-1.4974
6656.1678	-4.4862	-0.6430	-10.1767	1.3146	-22.3249	2.7160	-15.3147	-3.3807	1.5960	2.9000	-8.4233	1.7319	-20.6799	-0.1169	-8.4850	-1.5611
6664.1680	-4.6349	-0.9450	-10.0699	0.8087	-22.2928	2.4664	-15.2094	-3.5050	1.6711	2.4119	-8.4607	1.2144	-20.9732	-0.2203	-8.7020	-1.6033
6672.1682	-5.1567	-1.2927	-10.8316	0.4702	-23.1541	2.5034	-15.6639	-3.6312	4.5675	2.1157	-9.2494	0.8522	-21.8885	-0.2080	-9.1468	-1.6375
6680.1684	-4.6305	-0.6994	-9.8876	0.4546	-22.0599	2.8335	-14.9293	-3.0855	6.2689	2.4694	-8.2314	1.2200	-20.8200	0.1393	-8.6241	-1.3727
6688.1686	-4.3814	-0.2710	-9.0222	-0.0644	-20.0065	3.0404	-13.2379	-2.4175	7.6574	2.4280	-7.4974	1.0331	-19.2237	0.5807	-8.1255	-1.0552
6696.1688	-4.3077	-0.0867	-8.5867	-0.4154	-18.4045	3.1165	-11.9094	-1.9760	7.9604	2.3055	-7.1869	0.8174	-17.9220	0.8547	-7.7262	-0.8473
6704.1690	-3.3954	0.2821	-6.5583	-0.7588	-15.4558	2.8202	-9.9276	-1.4531	6.9342	2.0460	-5.3702	0.6706	-15.4054	0.9392	-6.6872	-0.6038
6712.1692	-3.6079	-0.6555	-6.1923	-1.6686	-13.8801	2.0258	-8.7615	-1.5266	6.5900	0.6542	-5.3837	-0.5048	-14.1934	0.6258	-6.2617	-0.5845
6720.1694	-2.8986	-0.2244	-4.9678	-1.4948	-12.0146	2.0169	-7.6008	-1.0876	7.4261	0.8213	-4.1833	-0.2070	-12.3057	0.7456	-5.3745	-0.3863
6728.1696	-1.1306	1.5010	-1.8302	-1.2422	-7.8426	2.5050	-4.7840	0.2094	8.0846	1.8346	-1.0269	0.7567	-8.4976	1.4373	-3.7444	0.1731
6736.1698	-0.8417	1.6689	-0.9287	-1.6492	-5.2055	2.4588	-2.7820	0.8363	10.3629	1.5275	-0.3235	0.4628	-6.1563	1.7128	-2.8670	0.4768
6744.1700	0.2153	2.5140	0.6205	-1.0340	-2.6306	2.6691	-1.2106	1.5587	14.3453	2.1393	1.2811	1.2390	-3.3366	1.9817	-1.5035	0.7878
6752.1702	1.5055	3.3399	2.6959	-0.6035	0.3849	2.8654	0.5516	2.4876	16.1392	2.5766	3.4552	2.0319	0.0371	2.3072	0.2391	1.2394
6760.1704	1.8746	3.3495	3.3953	-0.5988	2.0704	2.7895	1.6014	2.9134	14.1925	2.3796	4.1477	2.1107	1.9648	2.3997	1.2069	1.4747
6768.1706	2.6107	3.8800	4.8359	-0.6145	4.5389	2.8014	3.2937	3.5036	10.1571	2.5243	5.5283	2.3247	4.2702	2.6379	2.1739	1.7429
6776.1708	3.2641	3.8523	6.4032	-1.0125	7.5853	2.4596	5.3078	4.1031	8.6923	1.9263	6.9130	2.0481	7.2321	2.7111	3.5236	2.0687
6784.1710	4.5477	4.4818	8.5956	-0.6700	10.9869	2.3646	7.3505	4.8807	7.9932	2.1055	9.0868	2.5875	10.8339	2.8667	5.2867	2.4375
6792.1712	5.7941	5.3123	10.6702	-0.3627	14.2227	2.6338	9.3142	5.9466	6.9789	2.5032	11.2818	3.3599	14.4412	3.2990	7.1262	2.9698
6800.1714	6.5325	5.6926	11.6689	0.0390	15.9448	2.9275	10.1769	6.7166	11.5636	2.7366	12.4735	4.0440	16.8827	3.5885	8.5835	3.3890
6808.1716	7.4872	6.5346	13.0460	0.5735	17.6194	3.2108	11.1224	7.2964	13.2435	3.4180	13.9720	4.8434	18.7670	3.8490	9.5559	3.6401
6816.1718	7.2995	6.1112	13.0862	0.0922	18.4837	2.9460	11.8149	7.3872	9.9686	2.7875	13.8734	4.3198	19.5140	3.8179	9.8241	3.7203
6824.1720	7.2901	6.0197	12.9237	0.3093	18.6404	2.9009	11.8597	7.3797	11.9030	2.7774	13.7179	4.3949	19.8779	3.7563	10.0398	3.7155
6832.1722	7.4872	6.2669	13.0807	0.5567	18.6859	3.0878	11.8077	7.5288	11.0893	3.0838	13.9889	4.7550	20.1263	3.8606	10.2415	3.7868
6840.1724	6.5772	5.3710	11.4131	0.4564	16.8814	2.9860	10.5622	7.1188	6.6055	2.5716	12.4176	4.4229	18.8065	3.6571	9.7901	3.6559
6848.1726	5.9399	4.9444	10.0003	0.7933	15.1632	2.9155	9.4007	6.5712	5.1291	2.6029	11.0569	4.3858	17.3273	3.4030	9.1209	3.3780
6856.1728	4.6821	3.6956	8.1102	0.2018	13.2904	2.4864	8.3186	5.8700	2.8901	1.5976	9.0203	3.3636	15.4071	3.0276	8.1637	3.0916
6864.1730	3.3198	2.7847	5.3816	0.3644	9.7368	2.5795	5.9484	5.0948	3.4643	1.4136	6.4542	3.1349	12.3707	2.7690	6.9028	2.7542
6872.1732	2.3224	2.3901	3.2015	0.7272	6.3009	2.7953	3.6612	4.3431	4.6814	1.7072	4.4467	3.2048	9.2099	2.5747	5.5073	2.3792
6880.1734	0.3138	0.5842	-0.0479	0.1042	2.2613	2.1680	1.1772	2.9144	0.9902	0.5013	1.0205	1.8154	5.0395	1.8676	3.4598	1.7325
6888.1736	-1.0725	-0.1781	-2.6460	0.1696	-1.4825	2.0382	-1.1389	1.7621	-2.4210	0.4297	-1.5852	1.3418	1.1534	1.4482	1.5076	1.1425
6896.1738	-2.1513	-1.0466	-4.2664	-0.2998	-3.8438	1.6435	-2.5128	0.8506	-4.3984	-0.1746	-3.3780	0.4577	-1.6288	1.0299	0.0310	0.6982
6904.1740	-3.0495	-1.9419	-5.7440	-0.4166	-5.9146	1.0182	-3.8020	-0.2394	-6.1459	-0.7287	-5.0758	-0.3294	-4.0514	0.3936	-1.2807	0.1374
6912.1742	-2.8976	-1.5968	-5.7459	0.0340	-6.7131	1.0252	-4.3830	-0.5910	-8.6539	-0.1752	-5.0434	0.0038	-5.0164	0.2507	-1.8019	-0.0999
6920.1744	-3.0373	-2.0286	-5.8338	-0.1325	-7.0259	0.5959	-4.6345	-0.9884	-9.3154	-0.6182	-5.2708	-0.4156	-5.5011	-0.0833	-2.0616	-0.2917
6928.1746	-2.6295	-1.6396	-5.2662	0.3087	-6.4871	0.3466	-4.2670	-1.2678	-7.6075	-0.2267	-4.8574	-0.2718	-5.3717	-0.3117	-2.2160	-0.5265
6936.1748	-2.2504	-1.4802	-4.2498	0.0656	-5.0663	-0.0638	-3.1822	-1.3370	-10.1929	-0.4015	-4.1103	-0.6241	-4.6313	-0.4567	-2.1615	-0.6150
6944.1750	-2.2416	-1.7727	-4.1928	0.2210	-4.6333	-0.6533	-2.8869	-1.8149	-11.5521	-0.6755	-4.2914	-0.9734	-4.4956	-0.8979	-2.2859	-0.9017
6952.1752	-0.6685	-0.3414	-2.0188	1.3216	-2.4295	-0.3762	-1.7046	-1.2653	-9.0653	0.6134	-1.9912	0.3290	-2.1908	-0.7044	-1.1642	-0.7376
6960.1754	0.7786	0.5117	0.5644	1.5164	0.6000	-0.4350	0.0923	-0.5592	-8.7714	0.9235	0.5603	0.8684	0.7462	-0.5379	0.2590	-0.4173
6968.1756	1.6544	1.5657	1.7334	2.2538	2.2797	-0.1714	1.2067	-0.1646	-7.8405	1.9054	1.7633	1.6816	2.3183	-0.3162	0.8558	-0.3235
6976.1758	2.8495	2.7957	3.5563	2.7520	4.5492	0.3709	2.6067	0.7614	-5.4665	2.8434	3.7555	2.6941	4.7431	0.2030	2.0600	0.0921
6984.1760	3.5380	3.1832	4.4032	3.3737	5.3467	0.3302	2.8696	0.8686	-1.7285	3.2401	4.6556	3.2445	5.8020	0.1122	2.6860	0.1121
6992.1762	3.9157	4.1959	4.1834	4.5645	4.8926	1.1183	2.4434	1.1742	0.0283	4.6946	4.7993	4.5831	5.9207	0.4738	2.8691	0.1938
7000.1764	3.7451	4.3731	3.7227	4.6483	4.7151	1.6056	2.3777	1.5528	-2.1519	4.9912	4.5445	4.9340	6.1193	0.8342	3.0600	0.4093
7008.1766	3.4402	4.3323	2.9708	5.0276	4.0321	1.4863	2.0230	1.1081	-0.9726	5.2248	3.7106	4.9087	5.2779	0.6229	2.4886	0.1251
7016.1768	3.3435	4.4573	2.7620	4.9394	4.0765	1.9045	2.0919	1.5316	-0.1033	5.3463	3.6572	5.1194	5.6218	0.9693	2.7611	0.3735
7024.1770	2.8823	4.4325	1.7904	4.9576	3.3069	2.4061	1.6622	1.7937	-0.1390	5.5304	2.8921	5.3358	5.2741	1.2987	2.7104	0.5430
7032.1772	2.8531	5.2535	1.1757	5.6311	2.6107	3.2426	1.2991	2.1187	2.7634	6.6876	2.5585	6.2357	4.8658	1.7736	2.5231	0.6518
7040.1774	2.9458	5.0727	1.6190	5.0704	3.3821	3.4621	1.7337	2.7602	1.5973	6.2190	3.1335	6.1666	6.0327	2.1065	3.3285	1.0778
7048.1776	2.5492	4.7662	0.8913	5.0916	2.8884	3.3842	1.4683	2.5575	-0.4553	6.0758	2.3893	5.9984	5.6093	2.0118	3.0911	0.9812
7056.1778	2.4337	4.8076	0.8736	4.6612	3.4175	3.8165	1.9233	3.1910	1.5673	5.9330	2.4886	6.0005	6.3769	2.4705	3.5576	1.3611
7064.1780	2.7710	4.4874	1.9199	4.0272	4.7631	3.5381	2.6992	3.5387	2.8257	5.1580	3.4425	5.5894	7.7421	2.4687	4.3402	1.6104
7072.1783	2.7938	4.3638	1.9759	4.0347	4.7822	3.3920	2.6618	3.4383	0.1972	5.0425	3.4816	5.5324	7.7799	2.3590	4.3732	1.5655
7080.1785	2.4240	3.1439	2.1473	2.6697	5.5068	3.0269	3.0528	3.8296	-1.4146	3.3329	3.5872	4.4869	8.8376	2.3736	5.1827	1.9548
7088.1787	-1.0119	3.1250	-2.0041	-1.4255	7.5346	6.9713	6.5721	8.3122	5.6106	2.3741	0.1017	3.3894	11.5869	6.4444	6.2928	4.5902
7096.1789	-0.6736	4.0291	-1.8949	-1.1011	7.1915	8.2607	6.1819	9.4037	4.9202	3.3987	0.8152	4.6765	12.2100	7.3532	7.0416	5.2043
7104.1791	-0.4779	4.7691	-1.8438	-0.8004	7.0723	8.9717	6.1483	9.8874	5.9349	4.2235	1.1137	5.3918	12.2994	7.8422	7.1451	5.4282
7112.1793	-1.2485	2.5883	-2.2114	-1.6312	6.9936	6.3962	6.2021	7.7101	6.1715	1.8400	-0.3251	2.7937	10.7039	5.9821	5.7768	4.2821
7120.1795	-0.4679	4.8419	-1.7783	-0.9868	6.7266	9.2142	5.8788	10.0923	4.3192	4.2588	1.3087	5.5115	12.0955	8.0310	7.1787	5.5696
7128.1797	-1.1014	3.1914	-2.3069	-1.3020	6.3699	7.1024	5.7257	8.1196	5.0515	2.6115	-0.0966	3.5674	10.4832	6.4175	5.8555	4.4947
7136.1799	-0.8180	3.4973	-1.9529	-1.2149	6.6230	7.5142	5.7643	8.6101	3.4236	2.8875	0.4881	4.0588	11.1708	6.7411	6.4031	4.7799
7144.1801	-0.4082	4.5182	-1.6175	-0.8876	6.7781	8.6114	5.8386	9.5541	2.2802	3.9524	1.2694	5.1796	11.8792	7.5502	6.9683	5.2687
7152.1803	-1.3892	2.2845	-2.4622	-1.5959	6.1944	6.0859	5.5884	7.2519	3.4683	1.6588	-0.6297	2.6024	9.8255	5.6654	5.3674	4.0510
7160.1805	-0.6530	4.1141	-1.9219	-1.0457	6.1590	8.2782	5.4155	9.1474	2.2812	3.5894	0.8520	4.7898	11.0951	7.2629	6.5641	5.0708
7168.1807	-1.1136	3.0403	-2.3153	-1.3182	5.8809	6.9451	5.3148	7.8938	2.4172	2.5067	-0.1057	3.4990	9.9805	6.2545	5.6643	4.3905
7176.1809	-1.5725	2.4246	-2.9477	-1.5790	5.0300	6.5691	4.7658	7.4232	3.1563	1.9632	-0.8705	2.9454	8.9975	5.9330	5.1706	4.1752
7184.1811	-1.0414	3.8200	-2.5451	-1.1542	4.9354	8.1008	4.6476	8.6740	2.1777	3.4389	0.1610	4.4851	9.6569	7.0375	5.8233	4.8277
7192.1813	-1.6769	2.1244	-2.9457	-1.7146	4.9425	6.1044	4.7514	6.9787	1.2794	1.6311	-1.0669	2.5042	8.5262	5.5923	4.7916	3.9292
7200.1815	-1.3733	3.1473	-2.9040	-1.4064	4.6948	7.5511	4.4893	8.2100	0.9704	2.7675	-0.3910	3.8610	9.2518	6.6376	5.5666	4.6111
7208.1817	-1.4707	2.9596	-3.0892	-1.2455	4.5508	7.1489	4.4284	7.7310	2.6550	2.6604	-0.7643	3.5917	8.8054	6.2839	5.1863	4.3218
7216.1819	-1.5793	2.5061	-3.1654	-1.2789	4.4690	6.5770	4.3392	7.2192	3.6698	2.2129	-1.0559	3.1239	8.4758	5.8347	4.9320	4.0483
7224.1821	-1.0389	3.5774	-2.5776	-1.0532	4.4972	7.7811	4.2375	8.2992	3.5586	3.2648	0.0526	4.3371	9.1729	6.7233	5.6195	4.6332
7232.1823	-1.3699	2.5047	-2.5663	-1.5491	4.7728	6.3845	4.5256	7.1751	3.9581	2.0077	-0.5538	2.9094	8.4949	5.7509	4.9051	4.0275
7240.1825	-0.9335	3.5616	-2.1871	-1.2764	4.9658	7.6235	4.5973	8.2968	2.1804	3.0867	0.3474	4.1295	9.3929	6.6830	5.6405	4.6281
7248.1827	-1.2490	2.9660	-2.6182	-1.4301	4.3956	7.1871	4.1717	7.8465	1.6523	2.5570	-0.2086	3.6595	8.7662	6.3208	5.3432	4.4216
7256.1829	-1.5648	1.7123	-2.6945	-1.8856	4.4069	5.8879	4.0922	6.8678	3.0338	1.1736	-0.7607	2.3896	8.3014	5.3840	4.9854	3.9445
7264.1831	-0.8861	2.5387	-1.6933	-1.7755	4.8541	6.6464	4.2128	7.7013	1.2084	1.8618	0.6052	3.2877	9.2012	5.9821	5.7107	4.4006
7272.1833	-1.6680	0.7432	-2.3360	-2.5123	4.2383	4.8673	3.8442	6.1436	-0.0951	-0.0157	-0.7285	1.3635	7.6994	4.6787	4.6730	3.6222
7280.1835	-1.5821	0.7134	-2.1815	-2.5956	4.1921	4.9656	3.7106	6.3085	0.7514	-0.0903	-0.4897	1.4490	7.8678	4.7572	4.9039	3.7414
7288.1837	-1.3076	0.7097	-1.6362	-2.6153	4.3050	4.7347	3.6701	6.1654	-0.4370	-0.1830	0.0054	1.4040	7.8550	4.5833	4.9219	3.6662
7296.1839	-1.8409	-0.5962	-2.1253	-3.0321	3.8646	3.4445	3.3601	5.0350	-1.9546	-1.5015	-0.9559	0.0997	6.8841	3.6184	4.2622	3.1023
7304.1841	-1.3700	0.2669	-1.6620	-2.6564	3.8125	4.2217	3.2221	5.6436	-1.7603	-0.5870	-0.1535	1.0459	7.2206	4.1437	4.6231	3.4065
7312.1843	-1.8535	-0.7582	-2.0940	-2.9913	2.9682	2.9825	2.7173	4.3490	-1.3219	-1.5978	-1.0981	-0.1994	5.5251	3.1641	3.5010	2.7147
7320.1845	-2.0992	-1.2960	-2.3875	-3.1625	2.4468	2.5578	2.3146	3.9234	-1.6914	-2.1013	-1.5143	-0.6465	4.9166	2.8161	3.2164	2.5195
7328.1847	-1.8658	-1.2179	-2.0600	-2.9952	2.2747	2.4272	2.0746	3.7527	-2.7599	-1.9988	-1.1850	-0.5290	4.7117	2.6636	3.1581	2.4202
7336.1849	-2.5605	-2.4508	-2.8999	-3.3064	1.1007	1.1404	1.3486	2.3476	-2.4447	-3.1206	-2.5351	-1.8574	2.7895	1.6171	1.9485	1.6829
