Time	Fz	Fpz	C3	C4	T5	T4	O1	O2	F7	F8	F3	F4	T3	T6	P3	P4
0.0000	0.1182	-0.1079	0.8199	-0.7751	0.3946	-2.0750	-0.1772	-2.2274	0.1378	-0.9591	0.4854	-1.3000	-0.4159	-2.3082	-0.5919	-1.0519
8.0000	-3.1843	-5.1295	-1.5135	-5.2059	-1.7922	-6.5003	-3.7766	-7.7839	-5.3516	-7.3431	-2.5545	-8.9163	-2.3015	-6.5257	-1.8606	-3.4603
16.0001	-2.7138	-4.1420	-2.0517	-3.4185	-2.6394	-4.9720	-3.7026	-6.2949	-2.1516	-5.4026	-2.7387	-6.7012	-2.6048	-5.2334	-1.6811	-2.8932
24.0001	0.2355	-0.8509	1.5929	-1.3575	1.2029	-2.8338	0.4639	-2.4337	0.4074	-2.0036	0.9278	-2.2653	-0.0141	-2.6881	-0.4410	-1.1879
32.0002	-2.4636	-5.0646	-1.0557	-4.1222	-1.6585	-5.8900	-2.3870	-6.1329	-4.5738	-6.7014	-1.9981	-7.6189	-1.8194	-5.8278	-1.0895	-2.9130
40.0002	-0.9423	-2.0398	-0.2232	-1.8025	-0.7048	-3.6708	-1.5088	-4.0148	-2.9266	-3.0581	-0.8646	-3.4518	-1.4049	-3.7424	-1.0932	-1.8263
48.0002	-2.4116	-5.3135	-0.3888	-4.6804	-0.7307	-6.6303	-2.3333	-6.8639	-3.9161	-7.3533	-1.8018	-8.3729	-1.8863	-6.1174	-1.6016	-3.1459
56.0003	-3.8290	-6.7138	-2.8147	-4.8712	-3.4926	-6.9163	-4.1907	-7.8559	-4.5636	-8.2333	-3.9806	-9.5954	-3.5149	-6.8233	-2.0411	-3.7007
64.0003	-0.7462	-2.2691	0.4635	-2.1670	0.0756	-4.1135	-0.8705	-4.0661	-0.4689	-3.5636	-0.4315	-3.9133	-1.0953	-3.9349	-1.0512	-1.8668
72.0004	-2.3438	-5.9599	-0.5269	-4.3804	-1.1506	-6.8185	-2.0714	-6.5128	-2.2293	-7.7395	-1.8520	-8.3616	-1.6723	-6.3676	-1.0203	-3.1053
80.0004	-1.7220	-3.6782	-1.2012	-2.2547	-1.9235	-4.6019	-2.1877	-4.8225	-4.0506	-4.5199	-2.0197	-4.8811	-2.3128	-4.5621	-1.3242	-2.2876
88.0004	-1.9275	-4.1778	-0.3769	-3.7096	-0.7678	-5.8977	-2.3541	-6.2721	-4.0443	-5.9367	-1.6256	-6.6374	-2.0231	-5.5447	-1.7040	-2.7947
96.0005	-3.4355	-6.6020	-2.3876	-4.5262	-3.2310	-7.1744	-4.1688	-7.9275	-3.7427	-8.1284	-3.5829	-9.1586	-3.2460	-7.0756	-1.8346	-3.7029
104.0005	-0.7719	-2.0221	-0.3360	-1.2044	-1.0865	-3.6572	-1.6902	-3.9576	-1.6327	-2.7424	-1.0127	-2.9455	-1.7878	-3.7180	-1.2088	-1.8361
112.0006	-1.3697	-4.0635	-0.0327	-2.7637	-0.7664	-5.3333	-1.9951	-5.3288	-0.0570	-5.3615	-1.1147	-5.7510	-1.4211	-5.0003	-0.9950	-2.4844
120.0006	-0.6858	-2.4402	-0.5458	-0.6192	-1.6030	-3.2727	-1.7811	-3.3604	1.6530	-2.6822	-1.1033	-2.7079	-1.6422	-3.3117	-0.7425	-1.6745
128.0006	0.4267	-0.4630	0.8115	0.1684	0.0850	-2.2373	-0.6809	-2.2462	0.5619	-0.8045	0.2520	-0.6529	-0.8563	-2.1466	-0.7599	-1.0406
136.0007	-0.3488	-2.5848	0.1436	-0.5830	-0.6920	-3.4698	-1.3839	-3.2502	-0.6088	-2.9022	-0.5836	-2.7294	-0.9384	-3.1965	-0.4676	-1.5899
144.0007	2.2043	1.3724	1.8683	2.9531	0.9424	0.0952	1.1864	1.0923	-0.1680	2.1925	1.7093	3.3917	0.4546	0.2623	0.4446	0.3453
152.0008	1.7623	0.4824	2.0336	1.8270	1.2456	-0.7614	0.9599	0.1754	-3.3052	0.8402	1.6647	1.7172	0.5819	-0.3915	0.3423	-0.0471
160.0008	0.8178	-0.5508	0.6180	1.5130	-0.3295	-1.1312	-0.4735	-0.7715	-4.5906	0.0297	0.3414	0.6091	-0.3348	-0.9391	0.0262	-0.5001
168.0008	1.4561	0.7332	1.3084	2.0532	0.3668	-0.4376	-0.0355	-0.1432	-2.3149	1.2998	1.0056	1.9614	-0.3123	-0.1912	-0.2357	-0.1301
176.0009	0.6419	-0.8288	0.6580	1.0837	-0.4454	-1.4884	-0.7411	-1.2426	-0.7629	-0.4407	0.2351	-0.0411	-0.7085	-1.2324	-0.2677	-0.7052
184.0009	1.9327	1.3605	1.3878	3.0256	0.2385	0.6212	0.5094	1.1685	0.7015	2.4138	1.3679	3.2907	0.0568	0.7200	0.2887	0.3617
192.0010	2.3406	1.4128	2.2388	2.9521	1.1351	0.6529	1.1613	1.5813	3.5585	2.3221	2.0688	3.3185	0.6543	1.0161	0.5493	0.5519
200.0010	2.3625	1.2971	1.8625	3.5400	0.7105	1.0863	1.1704	2.1263	5.1542	2.6350	1.8018	3.7771	0.6603	1.4266	0.7900	0.7262
208.0010	2.1031	1.7165	1.4781	3.4267	0.5460	1.3247	0.7023	1.8410	2.1532	3.0167	1.3914	3.8883	0.0959	1.6647	0.1709	0.6945
216.0011	0.9478	0.0959	0.4115	2.1966	-0.6063	0.1703	-0.3821	0.3303	3.1620	1.1581	0.1615	1.5399	-0.8161	0.4862	-0.2799	-0.0415
224.0011	3.0720	3.0804	1.8541	5.1316	0.8731	3.0429	2.1545	4.1498	5.8212	5.1178	2.0947	6.4354	0.7317	3.2573	0.8469	1.5901
232.0012	3.3004	3.3910	2.2462	5.2037	1.4673	3.4235	2.4601	4.5972	0.6919	5.4341	2.4921	6.8130	1.1712	3.8144	0.9681	1.8480
240.0012	1.9848	2.1445	0.6117	4.3364	-0.3333	2.7486	0.6057	3.0172	0.2570	4.1931	0.8628	4.9199	-0.1831	2.9504	0.2497	1.1258
248.0012	2.7879	3.7401	1.0976	5.5518	0.2784	4.0657	1.3213	4.3367	5.2355	6.1352	1.4706	7.0079	0.0924	4.2313	0.2669	1.7390
256.0013	3.4786	4.3133	1.8197	6.2086	1.0501	4.7855	2.2367	5.5473	5.3887	6.9017	2.3387	8.1423	1.0840	5.0102	0.9773	2.2601
264.0013	4.8751	6.6622	2.7205	8.0236	1.8631	6.8384	3.6482	8.0287	3.4408	9.7710	3.7544	11.6626	2.0979	6.7931	1.7460	3.3962
272.0014	4.4522	6.3937	2.3688	7.4697	1.6034	6.4620	3.0510	7.3206	1.8802	9.2920	3.2931	11.0135	1.5790	6.4588	1.2759	3.1662
280.0014	3.6213	5.4036	1.3683	6.9481	0.4787	5.9300	1.9078	6.2908	4.2403	8.3435	2.2095	9.6511	0.6853	5.8895	0.8083	2.6685
288.0014	4.2700	6.7999	1.8820	7.7116	1.0928	7.0223	2.6586	7.4153	5.9123	9.8929	2.8797	11.2710	1.0284	6.9010	0.8846	3.1932
296.0015	3.9666	6.3324	1.7787	7.1644	1.1974	6.6837	2.5193	7.0137	3.4909	9.2238	2.7800	10.4400	1.3374	6.5689	1.0360	3.0208
304.0015	4.8915	7.7461	2.4579	8.3339	1.8775	7.8811	3.4275	8.4684	4.5517	10.9394	3.7751	12.4853	2.2498	7.5826	1.6668	3.6598
312.0016	4.7610	7.8995	2.4359	7.9424	1.8632	7.8015	3.3604	8.2833	4.7209	10.8702	3.6973	12.3618	1.8819	7.4993	1.3304	3.6457
320.0016	3.6932	6.6004	1.3875	6.8878	0.8014	6.9935	2.2688	7.0218	3.9214	9.4061	2.5435	10.4142	1.0329	6.6767	0.8616	3.0580
328.0016	4.5949	7.8169	2.2565	7.8453	1.8819	8.0011	3.3297	8.3587	5.5190	10.8173	3.5733	12.1072	2.0989	7.6857	1.4397	3.6583
336.0017	4.4724	7.5307	2.2625	7.5212	2.0246	7.7735	3.3790	8.2353	2.4395	10.4037	3.5615	11.7613	2.2915	7.5125	1.5516	3.6325
344.0017	4.0750	7.2767	1.7274	7.3008	1.4454	7.8078	3.0400	8.0312	0.0045	10.2124	3.1183	11.3065	1.9501	7.4333	1.4180	3.4962
352.0018	3.7411	7.0383	1.4271	6.8741	1.2180	7.5632	2.7682	7.6148	3.3406	9.8119	2.7578	10.7284	1.6404	7.1508	1.1824	3.3270
360.0018	3.5269	6.8819	1.1682	6.6344	0.9219	7.3792	2.5164	7.3386	5.6570	9.5652	2.4861	10.4532	1.3435	6.8988	1.0331	3.2244
368.0018	4.1611	7.8382	1.9077	7.1623	1.7380	8.1283	3.3609	8.2753	3.7166	10.5950	3.3509	11.5344	2.0402	7.6486	1.3553	3.6253
376.0019	3.1620	6.6316	1.0680	5.9609	1.0272	7.1990	2.3865	6.9322	-0.3464	9.0740	2.4035	9.5933	1.4657	6.7252	0.9617	3.0489
384.0019	2.6343	6.1573	0.4833	5.4127	0.4693	6.7422	1.7494	6.1974	0.1720	8.4290	1.8117	8.7956	1.0286	6.1533	0.7179	2.7564
392.0020	3.5492	7.0655	1.5340	6.1365	1.5954	7.4338	2.9763	7.4658	4.1525	9.4180	2.9179	10.1844	2.0236	6.9242	1.3175	3.3133
400.0020	3.1606	6.5418	1.1917	5.6814	1.1072	7.0857	2.4588	6.9500	3.9731	8.8063	2.5259	9.4327	1.5831	6.5833	1.0977	3.0896
408.0020	2.2719	5.5145	0.5447	4.4725	0.4468	5.9277	1.1730	5.2095	3.3695	7.3240	1.7081	7.5166	0.8658	5.3951	0.5274	2.3846
416.0021	2.5384	5.5361	0.9737	4.5341	1.0649	5.8428	1.6747	5.4402	5.7462	7.2585	2.0931	7.6395	1.4860	5.3812	0.8838	2.4883
424.0021	2.7126	5.6695	1.2500	4.5427	1.3076	5.9799	2.2453	5.8568	6.1115	7.3686	2.3844	7.8075	1.6687	5.5249	1.0427	2.6267
432.0022	1.7072	4.1650	0.6524	2.9831	0.7028	4.5282	1.3099	4.1333	5.9145	5.3085	1.5636	5.3512	1.0766	4.0932	0.6511	1.8724
440.0022	2.0707	4.4959	1.1332	3.1338	1.2037	4.6246	1.8053	4.4964	8.5818	5.5551	2.0565	5.7994	1.5116	4.1833	0.9170	2.0462
448.0022	2.2280	4.3967	1.7635	2.6623	1.8705	4.2184	2.2724	4.3719	8.1370	5.1071	2.5540	5.3999	1.8663	3.9031	1.0193	2.0081
456.0023	0.5747	2.0099	0.3501	0.6647	0.5916	2.2082	0.7468	1.9479	4.4726	2.1766	0.8682	2.0019	0.8357	1.9097	0.4416	0.9373
464.0023	0.8538	2.6501	0.5020	1.0503	0.9376	2.7255	1.4962	2.6443	4.2382	2.9123	1.1428	2.7702	1.1683	2.3140	0.6306	1.1987
472.0024	0.9326	2.2884	1.0889	0.5230	1.7291	2.1881	1.9240	2.3869	2.9433	2.2019	1.6141	2.0576	1.8909	1.9119	0.9589	1.0827
480.0024	-0.1372	0.8576	-0.0009	-0.5927	0.5028	0.8492	0.2782	0.5236	-0.3787	0.4771	0.3932	0.1473	0.8799	0.5135	0.4091	0.3364
488.0024	-0.0988	1.2637	0.0944	-0.6729	0.4990	0.8694	0.2590	0.3721	0.1792	0.7579	0.4463	0.2854	0.4805	0.4838	0.0282	0.2900
496.0025	-0.4007	0.4511	0.0553	-1.2484	0.5906	0.2571	0.3737	-0.0507	0.4262	-0.2344	0.2818	-0.8182	0.6657	-0.0305	0.1659	0.0407
504.0025	-0.0954	0.8977	0.1217	-0.7014	0.5238	0.7457	0.7305	0.6323	0.2653	0.4471	0.4664	0.0995	0.6783	0.3892	0.3104	0.3225
512.0026	0.3723	1.2429	0.8535	-0.5841	1.2149	0.8742	1.4022	1.1220	2.4941	0.6926	1.1308	0.5453	1.0845	0.6380	0.5083	0.5484
520.0026	-0.0430	0.4406	0.3932	-0.9896	0.7773	0.2813	0.8957	0.5471	1.2013	-0.1705	0.5830	-0.1741	0.7929	0.1066	0.4323	0.3346
528.0026	-0.3071	0.2837	0.1301	-1.2745	0.3769	0.0502	0.5835	0.1509	-1.0051	-0.3876	0.2247	-0.5135	0.0885	-0.0930	-0.0513	0.1719
536.0027	-0.5802	-0.6077	0.1727	-1.8077	0.5079	-0.6200	0.6141	-0.3629	-0.6417	-1.4302	0.0869	-1.7137	0.2540	-0.5954	0.0394	-0.1274
544.0027	-0.5753	-0.6153	-0.0642	-1.5684	0.2786	-0.6034	0.4502	-0.3073	-2.6334	-1.3124	-0.0848	-1.3401	0.2011	-0.6298	0.1097	-0.0638
552.0028	-1.2886	-1.4696	-0.5363	-2.6751	-0.3294	-1.6026	-0.3283	-1.5863	-1.8875	-2.5869	-0.7591	-2.8823	-0.6820	-1.6238	-0.4913	-0.5905
560.0028	-1.6084	-2.0695	-0.8125	-3.0134	-0.5451	-2.0065	-0.3626	-1.9392	1.8770	-3.2503	-1.1146	-3.7029	-0.7736	-2.0353	-0.4830	-0.8212
568.0028	-1.5777	-1.7892	-0.8226	-2.9457	-0.5149	-1.9353	-0.3817	-1.9833	-0.3842	-2.9810	-1.1229	-3.4722	-0.9254	-1.9866	-0.6720	-0.8167
576.0029	-2.4688	-3.3298	-1.3987	-4.2001	-1.1371	-3.3831	-1.4997	-3.7165	-0.9526	-4.9370	-1.9313	-5.7112	-1.4424	-3.3667	-0.9947	-1.5658
584.0029	-1.0419	-1.7189	-0.3146	-2.4111	-0.0961	-1.9177	0.1514	-1.4358	1.8525	-2.7941	-0.5514	-2.7695	-0.1923	-1.9726	-0.0144	-0.5920
592.0029	-0.7033	-1.3042	0.2219	-2.3539	0.3957	-1.7050	0.6533	-1.0102	-2.3293	-2.4454	-0.0308	-2.2810	-0.0199	-1.6545	0.0066	-0.3727
600.0030	-2.4837	-3.7433	-1.3872	-4.2496	-1.3006	-3.7235	-1.7068	-3.9089	-4.3845	-5.3270	-1.9673	-5.8640	-1.5293	-3.6187	-0.9397	-1.6295
608.0030	-1.8770	-2.6885	-0.9769	-3.4029	-0.9673	-2.9835	-1.2121	-3.1102	-1.3572	-4.0566	-1.4626	-4.4569	-1.3895	-2.9570	-0.8975	-1.2806
616.0031	-2.4141	-3.5316	-1.1897	-4.3005	-1.1312	-3.7520	-1.5393	-4.0128	-2.9660	-5.2125	-1.7863	-5.9742	-1.5078	-3.7036	-1.0211	-1.7227
624.0031	-2.6641	-3.8485	-1.7940	-4.1206	-1.7297	-3.8645	-2.0585	-4.2697	-2.9570	-5.3473	-2.2938	-6.0355	-1.6585	-3.9542	-0.9487	-1.8426
632.0031	-1.4703	-2.2205	-0.6459	-2.9469	-0.6095	-2.7026	-0.6911	-2.5861	-0.9594	-3.5068	-1.0270	-3.6876	-0.9252	-2.7614	-0.5575	-1.0665
640.0032	-2.2413	-3.4254	-1.1450	-3.9930	-1.0957	-3.6489	-1.4996	-3.8141	-2.6289	-5.0067	-1.6555	-5.5711	-1.2303	-3.6634	-0.7554	-1.6274
648.0032	-1.7014	-2.5958	-0.8783	-3.1177	-0.8687	-3.0457	-1.3016	-3.1785	-3.0383	-3.9147	-1.2559	-4.1997	-0.9685	-3.1298	-0.5858	-1.3106
656.0033	-1.7705	-2.8338	-0.6840	-3.4975	-0.6869	-3.4820	-1.3231	-3.5913	-3.6639	-4.3639	-1.2123	-4.7108	-1.0807	-3.4581	-0.7661	-1.4790
664.0033	-2.6753	-4.0183	-1.7846	-4.0824	-1.8511	-4.1592	-2.4185	-4.6785	-3.4654	-5.5099	-2.3647	-6.2092	-1.8526	-4.2028	-1.0996	-2.0158
672.0033	-0.7977	-1.8373	-0.1803	-1.7982	-0.2908	-2.2234	-0.3762	-1.8522	0.9044	-2.6503	-0.5853	-2.5082	-0.5779	-2.1206	-0.2812	-0.7885
680.0034	-0.8461	-2.2759	0.0144	-2.0224	0.0417	-2.4787	-0.2026	-1.9551	0.6913	-3.1430	-0.5436	-3.0573	-0.3544	-2.1624	-0.2178	-0.8612
688.0034	-2.1535	-3.2070	-1.5115	-3.0975	-1.4113	-3.0824	-1.8074	-3.4884	-3.5974	-4.2444	-2.0200	-4.8454	-1.5035	-2.9955	-0.9476	-1.5151
696.0035	-1.8685	-2.7360	-1.0571	-3.0536	-1.0058	-2.8472	-1.5883	-3.2574	-3.6532	-3.8834	-1.5045	-4.5022	-1.1816	-2.7917	-0.8271	-1.3860
704.0035	-1.5149	-2.5824	-0.7969	-2.5406	-0.8036	-2.6762	-1.2717	-2.8431	-0.5274	-3.5574	-1.2077	-3.9618	-0.8048	-2.6282	-0.4887	-1.2436
712.0035	-0.3709	-0.7974	-0.0558	-1.0057	-0.0605	-1.1575	0.1011	-0.8247	1.4704	-1.3154	-0.2310	-1.1474	-0.2424	-1.1895	-0.0828	-0.3438
720.0036	-0.6297	-1.3078	-0.0437	-1.5669	-0.0120	-1.6359	-0.3316	-1.4549	-0.6481	-2.0574	-0.2749	-2.0329	-0.1014	-1.6063	-0.0612	-0.5859
728.0036	-1.9011	-2.7222	-1.4534	-2.5733	-1.5075	-2.7734	-2.3540	-3.5146	-1.8737	-3.6260	-1.8064	-4.1954	-1.3167	-2.8374	-0.8226	-1.4722
736.0037	-1.2373	-1.7637	-0.9188	-1.7544	-1.0077	-1.9587	-1.2987	-2.3026	1.0227	-2.4095	-1.2725	-2.7351	-1.2436	-1.9531	-0.7982	-0.9784
744.0037	-0.7470	-1.5964	-0.4147	-1.1930	-0.4660	-1.6060	-0.5628	-1.5042	0.4461	-2.0252	-0.6950	-2.0984	-0.4481	-1.5294	-0.1966	-0.6944
752.0037	-0.7907	-1.3743	-0.7255	-0.8671	-0.7978	-1.3455	-1.0167	-1.5534	-1.3218	-1.6190	-0.9043	-1.7494	-0.6205	-1.3581	-0.3035	-0.6923
760.0038	-0.9479	-1.3476	-0.6984	-1.2421	-0.6727	-1.4049	-1.0129	-1.7556	-0.2662	-1.7657	-0.9860	-2.1403	-0.8550	-1.3437	-0.6223	-0.7665
768.0038	-1.4127	-1.9539	-1.2047	-1.6255	-1.1185	-1.8696	-1.8082	-2.5498	-1.0005	-2.4507	-1.4877	-2.9968	-0.9827	-1.8702	-0.6825	-1.0950
776.0039	-0.5825	-1.0014	-0.5922	-0.5181	-0.5323	-1.1124	-1.1938	-1.4839	-0.3297	-1.1801	-0.7537	-1.2486	-0.3760	-1.1018	-0.2683	-0.5943
784.0039	0.2416	-0.2573	0.3061	0.3244	0.4826	-0.2732	0.1478	-0.0482	0.8997	-0.1623	0.1549	0.0473	0.4579	-0.0686	0.2246	-0.0275
792.0039	-0.0646	-0.3727	-0.1140	0.1570	0.0438	-0.1764	-0.1863	-0.1942	-1.0046	-0.2332	-0.1961	-0.2279	0.1499	-0.0453	0.0621	-0.1023
800.0040	-0.0731	-0.1938	-0.0853	-0.0499	-0.0787	-0.2596	-0.3939	-0.3648	-0.6836	-0.2275	-0.1213	-0.1537	-0.0339	-0.2348	-0.0385	-0.1107
808.0040	-0.2766	-0.5265	-0.2900	-0.2472	-0.2622	-0.4331	-0.6289	-0.5842	-0.3171	-0.5815	-0.3551	-0.5331	-0.1318	-0.3822	-0.0680	-0.2003
816.0041	-0.5672	-0.6992	-0.7547	-0.2624	-0.7609	-0.3519	-0.8893	-0.7001	-0.7378	-0.6134	-0.8128	-0.7826	-0.5849	-0.3309	-0.3158	-0.3003
824.0041	0.2326	0.4179	0.0037	0.5312	-0.0424	0.4847	0.1938	0.5147	1.6228	0.6482	0.1131	0.7158	0.0855	0.4059	0.1254	0.1968
832.0041	0.9479	1.4216	0.5553	1.4217	0.6926	1.3823	0.9636	1.6809	1.6046	1.8843	0.8542	2.2960	0.9403	1.2666	0.6498	0.7415
840.0042	0.8156	1.2381	0.3454	1.5085	0.5914	1.2827	0.6526	1.4152	-0.4799	1.8086	0.5565	2.1461	0.7485	1.2765	0.4399	0.6333
848.0042	0.0674	0.3560	-0.4179	0.9119	-0.1904	0.6268	-0.1685	0.3471	-2.7554	0.8868	-0.3744	0.7779	-0.1259	0.6761	-0.1607	0.1123
856.0043	-0.5669	-0.0749	-1.1067	0.2912	-0.9246	0.3489	-0.7524	-0.2877	-4.8700	0.3401	-1.0581	-0.1126	-0.8374	0.2945	-0.5900	-0.1770
864.0043	0.3260	1.0766	-0.1251	0.9101	-0.0320	1.0094	0.1883	0.7729	-2.6682	1.4506	0.1267	1.4014	0.0810	0.8172	0.0129	0.3297
872.0043	0.9513	1.7561	0.4634	1.5871	0.6221	1.6417	0.6852	1.6212	-1.1342	2.2803	0.8754	2.5100	0.9753	1.4257	0.5958	0.7284
880.0044	0.3124	0.9182	-0.2428	1.1979	-0.0442	1.2585	-0.0645	0.8940	-1.6506	1.5207	0.0258	1.3969	0.3336	1.1591	0.1737	0.3689
888.0044	0.2707	0.8276	-0.2828	1.1980	-0.1681	1.0987	-0.0545	0.7562	-0.3655	1.4546	-0.1606	1.3001	-0.1283	1.0937	-0.1577	0.2866
896.0045	0.3553	1.1440	-0.2322	1.2557	-0.0625	1.4565	0.2372	1.1837	-0.7281	1.7909	-0.0526	1.6792	-0.0968	1.4391	-0.1424	0.4909
904.0045	0.5313	1.4146	-0.0721	1.3670	0.0960	1.7201	0.5704	1.5909	-1.0864	2.0610	0.2525	2.0451	0.2792	1.5892	0.1757	0.6610
912.0045	0.5935	1.4946	-0.1271	1.4926	-0.0042	1.6403	0.3970	1.5044	-0.0080	2.1335	0.2495	2.2963	0.3058	1.4140	0.2557	0.6636
920.0046	0.3409	1.2863	-0.3767	1.2674	-0.2198	1.5812	0.0280	1.2387	1.6697	1.8984	-0.0679	1.9098	0.0041	1.4129	0.0132	0.5712
928.0046	1.0401	2.0067	0.4292	1.8499	0.5222	2.1776	1.0304	2.2697	3.3222	2.7319	0.7939	2.9560	0.6198	2.0584	0.4050	0.9804
936.0047	0.9610	1.9352	0.2985	1.7572	0.3941	2.1088	1.0767	2.2745	1.0276	2.6406	0.7019	2.9509	0.5530	1.9424	0.4256	0.9881
944.0047	0.8132	1.7532	0.1821	1.5445	0.3222	2.0353	0.9644	2.1708	-0.1836	2.4043	0.6051	2.6896	0.5801	1.8652	0.4600	0.9565
952.0047	1.6085	2.5574	0.9825	2.3469	1.0944	2.6524	1.8380	3.2031	0.8404	3.3850	1.4919	4.0231	1.3214	2.5177	0.9386	1.4010
960.0048	0.8467	1.7778	0.1957	1.6768	0.4167	2.0179	0.9289	2.1081	-0.4010	2.4836	0.5481	2.7536	0.5339	1.9258	0.3477	0.9338
968.0048	0.2547	1.1565	-0.2416	0.9041	0.1388	1.3562	0.1769	1.0417	-0.6659	1.5707	0.0124	1.5023	0.2559	1.2501	0.0429	0.5032
976.0049	0.1461	1.1582	-0.3029	0.6289	0.0714	1.1199	-0.0479	0.6758	-0.8340	1.3739	0.0327	1.2616	0.3499	0.8470	0.1095	0.3722
984.0049	0.1404	1.2295	-0.3418	0.6090	-0.0269	1.2219	0.1424	0.8585	1.0948	1.4468	0.0160	1.3296	0.2317	0.8974	0.0953	0.4260
992.0049	1.5051	2.6357	1.0134	1.9545	1.4476	2.4389	1.9865	2.9673	2.7453	3.1650	1.5238	3.7532	1.6239	2.2164	1.0040	1.3445
1000.0050	0.7824	1.9106	0.3214	1.1716	0.8052	1.7149	1.0709	1.8097	-2.9433	2.2215	0.7758	2.5209	1.0262	1.4433	0.5728	0.8724
1008.0050	-0.8088	0.0599	-1.0800	-0.6140	-0.8052	0.0831	-1.1108	-0.7843	-4.4688	-0.0978	-0.8920	-0.5782	-0.6089	-0.2030	-0.5112	-0.2379
1016.0051	-0.3157	0.4112	-0.5210	-0.2034	-0.3378	0.3100	-0.7969	-0.3296	0.4346	0.2893	-0.3072	0.0607	-0.0822	0.0450	-0.1439	-0.0205
1024.0051	0.1803	1.0257	-0.0557	0.2978	0.1348	0.7273	-0.0713	0.3756	3.5179	0.9837	0.2416	0.9211	0.3876	0.3906	0.1779	0.2516
1032.0051	0.9819	1.8625	0.7806	1.0180	1.0508	1.4231	1.1109	1.6334	6.2613	1.9550	1.1472	2.2893	1.1981	1.1427	0.7001	0.7933
1040.0052	1.0189	1.9080	0.8424	1.0203	1.2903	1.4864	1.1963	1.7267	4.4689	1.9823	1.2298	2.3762	1.4846	1.2392	0.8307	0.8663
1048.0052	-0.1004	0.7054	-0.0961	-0.2956	0.3205	0.4459	0.0213	0.0887	-0.0419	0.4351	0.1458	0.1962	0.4843	0.1705	0.1299	0.1298
1056.0053	-0.2882	0.4390	-0.1831	-0.6808	0.2034	0.1217	-0.1539	-0.2599	-1.3647	-0.0010	0.0607	-0.2587	0.4319	-0.1992	0.1227	-0.0057
1064.0053	-0.5022	0.1990	-0.5079	-0.8032	-0.1180	-0.1127	-0.3546	-0.5381	-1.1851	-0.2546	-0.2606	-0.5110	0.2090	-0.5091	0.0479	-0.1363
1072.0053	-0.6864	-0.1487	-0.6552	-1.0253	-0.3660	-0.2903	-0.3452	-0.6337	0.8823	-0.6109	-0.5111	-0.9192	-0.1716	-0.6160	-0.1360	-0.2163
1080.0054	-0.7976	-0.2353	-0.6178	-1.3827	-0.3459	-0.5888	-0.6144	-1.0670	1.4837	-0.9239	-0.4868	-1.3005	-0.1720	-0.9664	-0.1903	-0.3629
1088.0054	-1.0077	-0.7085	-0.7161	-1.6488	-0.4795	-1.1159	-0.8065	-1.6303	-0.2805	-1.4712	-0.7138	-1.9762	-0.4084	-1.4292	-0.3750	-0.6513
1096.0055	-0.9632	-1.2895	-0.6150	-1.5497	-0.3061	-1.3430	-0.4161	-1.4067	-2.6672	-1.8842	-0.8086	-2.1292	-0.3780	-1.3432	-0.3003	-0.5959
1104.0055	-1.8547	-2.3595	-1.3334	-2.7679	-0.9866	-2.5657	-1.5317	-3.0447	-5.3585	-3.4167	-1.6543	-3.9135	-1.0260	-2.6401	-0.7508	-1.2462
1112.0055	-2.5735	-3.3937	-1.7613	-3.9426	-1.6134	-3.7854	-2.2004	-4.4401	-4.0616	-4.9144	-2.2682	-5.6949	-1.7806	-3.9205	-1.1989	-1.8773
1120.0056	-2.7467	-3.9613	-1.7827	-4.2767	-1.6326	-4.3735	-2.3503	-4.9364	-1.7560	-5.6174	-2.4694	-6.3679	-1.9297	-4.3916	-1.3028	-2.0974
1128.0056	-3.2182	-4.5254	-2.0184	-5.0738	-1.8687	-5.2936	-3.1756	-6.2416	-0.3695	-6.5907	-2.8312	-7.6062	-2.2406	-5.3761	-1.6243	-2.6191
1136.0057	-3.1558	-4.5135	-1.7611	-5.3665	-1.6962	-5.4328	-2.8228	-6.1859	0.9849	-6.7873	-2.5305	-7.7905	-2.0217	-5.6104	-1.4269	-2.6198
1144.0057	-2.7994	-3.7823	-1.4480	-5.0672	-1.2599	-4.9623	-2.3120	-5.6338	-1.1112	-6.0790	-1.9727	-7.0040	-1.3358	-5.3581	-0.9944	-2.3722
1152.0057	-2.2406	-3.1308	-0.8389	-4.5691	-0.6214	-4.6205	-1.8445	-5.1327	-3.3754	-5.3894	-1.2374	-6.1257	-0.6086	-5.0686	-0.5827	-2.1380
1160.0058	-2.1063	-3.1214	-0.7500	-4.3304	-0.6293	-4.5872	-1.8427	-5.0381	-5.2509	-5.2665	-1.1330	-5.9069	-0.5468	-5.0102	-0.4982	-2.1093
1168.0058	-2.5573	-3.2856	-1.3215	-4.5308	-1.3286	-4.7913	-2.6376	-5.8261	-7.0592	-5.4145	-1.6990	-6.5498	-1.2398	-5.3459	-1.0035	-2.4992
1176.0059	-2.7436	-3.5236	-1.5967	-4.4034	-1.7222	-4.7127	-2.7291	-5.8880	-6.8954	-5.4232	-2.0441	-6.8980	-1.6913	-5.2048	-1.2785	-2.6486
1184.0059	-2.6759	-3.1521	-1.7848	-3.9534	-1.9488	-4.3004	-2.6705	-5.6189	-6.7403	-4.8165	-2.1264	-6.4439	-1.8204	-4.9169	-1.3336	-2.5980
1192.0059	-1.6264	-1.7245	-0.7597	-2.8467	-0.9588	-3.0894	-1.4730	-4.0396	-4.8331	-3.1241	-0.9216	-4.4996	-0.9403	-3.7156	-0.8253	-1.9274
1200.0060	-1.6122	-2.1121	-0.6376	-2.8383	-0.7903	-3.0240	-1.3803	-3.7869	-5.4343	-3.3867	-0.9177	-4.6719	-0.8174	-3.3734	-0.7408	-1.8172
1208.0060	-2.9456	-3.5460	-2.0308	-4.0653	-2.2262	-4.4021	-3.4354	-6.0947	-7.3041	-5.1236	-2.5002	-6.9733	-2.1837	-4.8292	-1.6679	-2.7739
1216.0061	-2.6105	-3.3274	-1.7149	-3.6530	-1.9651	-4.1771	-2.9708	-5.6122	-3.7178	-4.7652	-2.2255	-6.4775	-2.0262	-4.5351	-1.5374	-2.6060
1224.0061	-2.3372	-3.2474	-1.5277	-3.1924	-1.6725	-3.8309	-2.4121	-4.9431	-2.7779	-4.4493	-2.0220	-5.9922	-1.6163	-4.0986	-1.2085	-2.3681
1232.0061	-2.2886	-3.1678	-1.4939	-3.1493	-1.7085	-3.9746	-2.6116	-5.1645	-1.8213	-4.4171	-2.0097	-5.9085	-1.7217	-4.2745	-1.2982	-2.4341
1240.0062	-1.7833	-2.9218	-0.9164	-2.7686	-1.2199	-3.6463	-1.7949	-4.2530	0.9461	-4.0530	-1.5293	-5.0944	-1.5376	-3.7261	-1.1110	-2.0240
1248.0062	-2.5152	-3.7308	-1.6548	-3.5103	-1.9619	-4.3566	-2.7400	-5.3553	-2.2201	-5.0347	-2.3608	-6.3207	-2.2597	-4.4507	-1.5784	-2.4748
1256.0063	-2.5189	-3.9484	-1.6564	-3.4664	-1.9827	-4.5754	-2.9230	-5.5663	-2.0800	-5.2286	-2.4241	-6.4440	-2.2637	-4.6091	-1.5763	-2.5595
1264.0063	-1.6306	-3.1993	-0.9807	-2.2864	-1.2291	-3.6194	-1.6522	-3.8850	0.4318	-4.0329	-1.6682	-4.6468	-1.4694	-3.5155	-0.9386	-1.8564
1272.0063	-1.2327	-2.4957	-0.7243	-1.6932	-1.0098	-3.0131	-1.4130	-3.2994	-0.8238	-3.1419	-1.2662	-3.6863	-1.1854	-2.9807	-0.7736	-1.5955
1280.0064	-1.2533	-2.5980	-0.6966	-1.6530	-0.9943	-3.0080	-1.6228	-3.4253	-0.1278	-3.1911	-1.2972	-3.8628	-1.2068	-2.8855	-0.8497	-1.6583
1288.0064	-1.8555	-3.0538	-1.4724	-2.0121	-1.6926	-3.3832	-2.4589	-4.2819	0.0351	-3.6824	-2.0908	-4.6869	-1.7774	-3.3735	-1.2353	-2.0372
1296.0065	-1.0183	-1.9062	-0.7435	-1.0227	-1.0497	-2.2920	-1.4652	-2.8605	1.2577	-2.2316	-1.1827	-3.0072	-1.1521	-2.3086	-0.8102	-1.4502
1304.0065	0.3895	-0.3367	0.5463	0.5649	0.2149	-0.6128	0.4849	-0.3130	2.8571	-0.1383	0.3190	-0.3176	0.0660	-0.5178	0.0559	-0.3932
1312.0065	0.2102	-0.1704	0.1951	0.5536	-0.0971	-0.6031	-0.0280	-0.6751	-0.4375	0.0129	0.1017	-0.2918	-0.0486	-0.6949	-0.0453	-0.5123
1320.0066	-0.2400	-0.7514	-0.2170	0.0785	-0.5049	-1.0565	-0.8119	-1.4300	-1.1849	-0.6796	-0.4080	-1.1137	-0.4555	-1.0828	-0.3400	-0.7873
1328.0066	-0.5706	-1.1708	-0.7045	-0.0641	-0.9915	-1.2316	-1.1332	-1.6522	1.0711	-1.0263	-1.0116	-1.4390	-1.0561	-1.1781	-0.6635	-0.8745
1336.0067	0.2497	-0.3536	-0.0560	1.0039	-0.3659	-0.2942	-0.1584	-0.1942	1.9650	0.1877	-0.2846	0.2611	-0.4861	-0.1112	-0.2241	-0.2428
1344.0067	1.7948	0.9684	1.4953	2.5569	1.1890	1.3022	1.8007	2.5172	0.9789	2.0211	1.4298	3.0472	1.0624	1.7931	0.8848	0.9701
1352.0067	1.5367	0.7815	1.1116	2.3453	0.7109	1.2718	1.2757	2.3376	-1.5183	1.8283	1.0940	2.9616	0.6837	1.7397	0.7327	0.9726
1360.0068	1.3783	0.4355	0.8362	2.4760	0.4024	1.4173	0.9197	2.3907	1.5788	1.7137	0.6935	2.8126	0.3053	2.0931	0.5146	0.9972
1368.0068	2.4586	1.6297	1.7235	3.9291	1.3646	2.8049	2.1224	4.2797	5.3119	3.4371	1.6933	4.9608	1.2327	3.6430	1.1104	1.8012
1376.0069	3.0410	2.7242	2.0135	4.8635	1.6410	3.7422	2.4353	5.1730	3.5047	4.8237	2.2480	6.5074	1.7083	4.4180	1.4181	2.2138
1384.0069	4.0900	4.0478	2.7158	6.4490	2.3803	5.4735	3.8225	7.4531	5.0209	6.8251	3.1552	8.9269	2.4945	6.2647	2.0139	3.1559
1392.0069	5.1538	5.7262	3.3824	7.9553	2.9691	7.2319	5.0794	9.6303	6.0599	9.0522	4.1328	11.5919	3.1236	7.9500	2.5242	4.0977
1400.0070	4.6962	5.5254	2.8118	7.6509	2.3613	7.0075	3.9851	8.7866	4.3492	8.7853	3.5835	11.0502	2.6030	7.6353	2.1196	3.8001
1408.0070	5.1413	6.0618	3.1920	8.3316	2.9290	7.6231	4.5037	9.5182	7.6839	9.5714	3.9392	11.8732	3.0295	8.3843	2.2740	4.0964
1416.0071	6.0095	7.1455	3.9953	9.2776	3.6920	8.6160	5.6853	10.9780	6.9003	10.9280	4.9163	13.5402	3.7750	9.3680	2.7854	4.6950
1424.0071	5.0048	5.7875	3.1075	8.1363	2.8307	7.6271	4.4927	9.5870	1.8346	9.3238	3.8851	11.6436	3.0415	8.4595	2.3360	4.1267
1432.0071	4.7480	5.5896	2.8880	7.7598	2.7591	7.4823	4.4011	9.3956	4.1002	8.9841	3.6141	11.2488	2.8902	8.3235	2.2073	4.0752
1440.0072	4.6827	5.5354	3.0514	7.2939	2.7715	7.3040	4.4571	9.2618	4.7751	8.6785	3.7832	10.8918	2.8308	8.0939	2.1912	4.0289
1448.0072	3.1020	3.6197	1.7564	5.2857	1.4055	5.4627	2.5947	6.6808	2.0518	6.1314	2.2265	7.7179	1.4454	6.2122	1.2751	2.9426
1456.0073	2.8350	3.4518	1.5125	4.8398	1.1962	5.0792	2.4452	6.2353	5.4254	5.7201	1.9639	7.2564	1.2045	5.6918	1.1376	2.7660
1464.0073	3.4165	3.9074	2.2358	5.2189	1.9331	5.6218	3.4435	7.2925	7.1249	6.2420	2.7876	8.0396	2.0540	6.2757	1.7509	3.1946
1472.0073	3.5492	4.0915	2.5245	5.1119	2.3223	5.6816	3.7891	7.4624	4.4192	6.3022	3.1476	8.1091	2.4973	6.2985	1.9883	3.2731
1480.0074	3.3797	3.8715	2.4731	4.6796	2.2121	5.1424	3.4671	6.8483	3.6995	5.8160	3.0637	7.6582	2.3484	5.6830	1.8826	3.0554
1488.0074	2.2282	2.2972	1.4628	3.3521	1.1547	3.6367	1.8908	4.7886	2.7942	3.8484	1.8078	5.3214	1.3161	4.1961	1.2119	2.1964
1496.0075	2.0436	2.2582	1.3121	3.0994	1.1374	3.4640	1.8197	4.4828	2.8008	3.6782	1.6504	4.9861	1.2606	3.9538	1.1015	2.0595
1504.0075	2.9608	3.1061	2.3525	3.8543	2.2096	4.2736	3.2512	5.9866	4.2043	4.6870	2.7905	6.3984	2.2950	4.8498	1.7978	2.6781
1512.0075	2.8347	2.8674	2.3263	3.5441	2.1473	3.8776	3.0950	5.5882	2.9887	4.2810	2.7413	6.0102	2.2481	4.4160	1.7778	2.5199
1520.0076	2.1172	2.2390	1.7226	2.6088	1.5965	3.0609	2.1949	4.2950	2.1381	3.2804	2.0672	4.6479	1.6836	3.4770	1.3329	1.9940
1528.0076	1.5996	1.5014	1.4203	1.8682	1.3427	2.4983	1.7725	3.5511	2.7447	2.3235	1.6418	3.3774	1.4200	2.9716	1.1211	1.6476
1536.0077	1.6731	1.6673	1.5129	1.8604	1.4156	2.4758	2.0545	3.6207	1.6065	2.4308	1.7843	3.4824	1.4882	2.8515	1.1808	1.6471
1544.0077	2.1851	2.1237	2.0355	2.3091	2.0221	2.8377	2.8751	4.4285	-0.1421	2.9742	2.3889	4.3755	2.1323	3.2351	1.6308	1.9976
1552.0077	2.1588	2.0669	2.1133	2.1071	2.2002	2.6538	2.8353	4.2496	-2.1711	2.7785	2.4620	4.2336	2.3065	3.0590	1.6884	1.9641
1560.0078	1.0687	1.1687	1.1035	0.8102	1.1165	1.5566	1.4162	2.3974	-4.2379	1.4206	1.3866	2.3021	1.2402	1.7426	0.9493	1.1890
1568.0078	0.0207	-0.2336	0.1118	-0.1764	0.1277	0.5489	0.2730	0.8999	-3.0992	-0.1408	0.2026	0.1760	0.3832	0.7592	0.4168	0.4666
1576.0079	0.3261	0.0161	0.3938	0.2577	0.4563	0.6745	0.6152	1.1485	-0.6584	0.2277	0.4434	0.5842	0.6230	0.9247	0.5190	0.5308
1584.0079	0.6083	0.4465	0.7240	0.3596	0.7235	0.7942	0.9325	1.4159	-0.0651	0.5641	0.8241	1.0995	0.7843	0.9761	0.6208	0.6829
1592.0079	0.3730	0.1533	0.5183	0.0362	0.4965	0.6391	0.8274	1.2570	1.0713	0.1900	0.6076	0.6662	0.6140	0.8000	0.5727	0.6060
1600.0080	0.2744	0.1240	0.4209	-0.0582	0.3780	0.5291	0.8292	1.1026	1.6595	0.1314	0.4469	0.5055	0.3093	0.6916	0.3440	0.5162
1608.0080	-0.4056	-0.7168	-0.1046	-0.9087	-0.1184	-0.2335	0.1561	0.0453	-0.0436	-0.9539	-0.2296	-0.9125	-0.2799	-0.0331	-0.0895	0.0495
1616.0081	-0.6325	-0.8976	-0.2504	-1.2381	-0.2310	-0.5161	-0.1222	-0.4475	0.2692	-1.2938	-0.3491	-1.4873	-0.2576	-0.4290	-0.1111	-0.1828
1624.0081	0.1317	-0.0084	0.5098	-0.5189	0.5033	0.1367	0.7743	0.6029	1.7060	-0.2837	0.5426	-0.1361	0.4791	0.1892	0.3801	0.2775
1632.0081	0.1357	-0.0414	0.5264	-0.5496	0.6563	0.2272	1.0010	0.8197	-0.5733	-0.3061	0.5919	-0.0896	0.7095	0.3092	0.5366	0.3758
1640.0082	-0.8848	-0.9465	-0.4513	-1.6732	-0.2666	-0.8072	-0.2921	-0.9002	-3.3468	-1.5841	-0.4718	-1.8849	-0.1841	-0.8795	-0.1200	-0.3468
1648.0082	-1.4216	-1.6869	-0.9352	-2.3165	-0.8397	-1.6198	-1.1454	-1.9684	-2.2701	-2.5415	-1.1364	-2.9197	-0.9145	-1.6499	-0.5958	-0.7588
1656.0083	-1.1724	-1.4937	-0.7666	-1.9427	-0.6600	-1.3545	-0.7396	-1.4725	-0.5066	-2.1921	-0.9816	-2.4071	-0.7962	-1.3228	-0.4822	-0.5656
1664.0083	-1.2138	-1.3675	-0.8135	-1.9703	-0.7317	-1.3035	-0.6619	-1.5121	-0.1111	-2.0871	-0.9724	-2.4995	-0.8206	-1.3872	-0.5041	-0.6362
1672.0083	-0.9649	-1.1558	-0.5093	-1.7883	-0.3484	-1.1332	-0.2786	-1.1748	0.7578	-1.8699	-0.6083	-2.2049	-0.3188	-1.2389	-0.1834	-0.5047
1680.0084	-0.7501	-0.7943	-0.3281	-1.5413	-0.0519	-0.9208	0.0897	-0.8672	0.7193	-1.4747	-0.3911	-1.7546	-0.0782	-1.0554	-0.0790	-0.3773
1688.0084	-1.6450	-1.7559	-1.1816	-2.5060	-0.9260	-1.8548	-0.9254	-2.2418	-0.7204	-2.6909	-1.4465	-3.3224	-1.1709	-1.9703	-0.8276	-0.9584
1696.0085	-1.9861	-2.2837	-1.5440	-2.7987	-1.2006	-2.2935	-1.3775	-2.8075	-1.9018	-3.2715	-1.8827	-3.9453	-1.3757	-2.3741	-0.9600	-1.1888
1704.0085	-1.5744	-1.8273	-1.1680	-2.3492	-0.8594	-1.9351	-1.0509	-2.3062	-1.8620	-2.7181	-1.3851	-3.2204	-0.8684	-2.0735	-0.6019	-0.9687
1712.0085	-1.2299	-1.4530	-0.7515	-2.1022	-0.5293	-1.6109	-0.7354	-1.8480	0.4401	-2.3206	-0.9163	-2.7267	-0.5322	-1.7474	-0.3780	-0.7643
1720.0086	-1.2987	-1.4256	-0.7861	-2.1413	-0.4133	-1.6681	-0.8648	-2.0919	1.4932	-2.3359	-0.9824	-2.9337	-0.4580	-1.8081	-0.4549	-0.8759
1728.0086	-1.9119	-2.1190	-1.3568	-2.7448	-0.9503	-2.2357	-1.5453	-2.9971	-0.1984	-3.1483	-1.6832	-4.0779	-1.0768	-2.3366	-0.9088	-1.2833
1736.0086	-1.4922	-1.8267	-1.0083	-2.2171	-0.6035	-1.7316	-0.6623	-1.9979	-2.6055	-2.5993	-1.2869	-3.2388	-0.7337	-1.7336	-0.5842	-0.9028
1744.0087	-1.3806	-1.7870	-1.0673	-1.8806	-0.6271	-1.5654	-0.3234	-1.6072	-6.2844	-2.3552	-1.3062	-2.8159	-0.6846	-1.5475	-0.4654	-0.7694
1752.0087	-2.2234	-2.7379	-1.9730	-2.6248	-1.6143	-2.3319	-1.4981	-2.8653	-5.9961	-3.4355	-2.3587	-4.2227	-1.6849	-2.3171	-1.0885	-1.3039
1760.0088	-1.8590	-2.1764	-1.6412	-2.1736	-1.2533	-1.8707	-1.0095	-2.3156	-2.4026	-2.7630	-1.9856	-3.5730	-1.4047	-1.8828	-0.9582	-1.1042
1768.0088	-1.9872	-2.3009	-1.7602	-2.3309	-1.4017	-1.9998	-1.1134	-2.4864	-3.4735	-2.9287	-2.1210	-3.7835	-1.5871	-2.0209	-1.0680	-1.1805
1776.0088	-2.2754	-2.6621	-2.0401	-2.7056	-1.8196	-2.3409	-1.6891	-2.9871	-2.9813	-3.4118	-2.4369	-4.2527	-1.9835	-2.3773	-1.2662	-1.3432
1784.0089	-0.9821	-1.0682	-0.7918	-1.3739	-0.5734	-1.0931	-0.0414	-1.1064	0.9474	-1.5386	-0.9788	-1.9499	-0.7862	-1.1896	-0.4999	-0.5680
1792.0089	-0.8634	-1.0120	-0.6069	-1.2869	-0.3787	-1.0298	0.2040	-0.9488	-0.1722	-1.4536	-0.7944	-1.8856	-0.6028	-1.0935	-0.4011	-0.5324
1800.0090	-1.7023	-1.9680	-1.2873	-2.2753	-0.9760	-2.0187	-1.2409	-2.6271	-1.2650	-2.7558	-1.6091	-3.6183	-1.1235	-2.0919	-0.8779	-1.1907
1808.0090	-1.2945	-1.2547	-0.8191	-1.9973	-0.3724	-1.6147	-0.8335	-2.1870	1.3995	-2.1141	-1.0331	-2.9223	-0.5193	-1.7815	-0.5964	-0.9630
1816.0090	-1.2375	-1.2130	-0.8603	-1.8285	-0.4244	-1.3816	-0.6257	-1.8189	0.4132	-1.9432	-1.0220	-2.6562	-0.4752	-1.5420	-0.4833	-0.8212
1824.0091	-1.8249	-2.0427	-1.5665	-2.1922	-1.1612	-2.0637	-1.6685	-2.8725	-0.3445	-2.7795	-1.8635	-3.6352	-1.1472	-2.1801	-0.8981	-1.2596
1832.0091	-1.3335	-1.3765	-1.1472	-1.6935	-0.7629	-1.5680	-1.0558	-2.0900	4.3620	-2.0260	-1.4223	-2.5910	-0.9508	-1.6764	-0.7601	-0.8927
1840.0092	-1.1035	-1.0177	-0.9435	-1.4710	-0.6668	-1.1868	-0.8266	-1.6241	5.4252	-1.6018	-1.1384	-2.0827	-0.8333	-1.3256	-0.6374	-0.6839
1848.0092	-1.4426	-1.4911	-1.2662	-1.7332	-1.0696	-1.6638	-1.7944	-2.5421	3.8312	-2.1390	-1.4929	-2.8324	-1.0525	-1.8219	-0.8195	-1.0559
1856.0092	-0.4648	-0.3136	-0.3545	-0.6854	-0.0313	-0.5796	-0.4850	-0.9122	4.6340	-0.6882	-0.4254	-0.9470	-0.0517	-0.6925	-0.1908	-0.3444
1864.0093	0.0466	0.2298	0.0958	-0.0932	0.5160	0.0585	0.2635	0.0809	0.4412	0.0703	0.1625	0.1058	0.6172	-0.0093	0.2715	0.0865
1872.0093	-0.1896	-0.2309	-0.0942	-0.3771	0.1407	-0.3622	-0.3200	-0.4832	-2.7464	-0.4500	-0.0660	-0.4202	0.3188	-0.4040	0.1320	-0.1333
1880.0094	0.0417	0.2290	0.2178	-0.2979	0.3677	-0.0421	0.1327	-0.0515	-0.9415	-0.0273	0.2643	-0.0151	0.3165	-0.1030	0.1003	0.0420
1888.0094	-0.7773	-0.6004	-0.5058	-1.2201	-0.3102	-0.8623	-0.9398	-1.4227	-3.1932	-1.1368	-0.5636	-1.5674	-0.3519	-0.9692	-0.4158	-0.5348
1896.0094	-1.0491	-1.0274	-0.8291	-1.4556	-0.7061	-1.2661	-1.3855	-1.9247	-3.1107	-1.6156	-0.9197	-2.0427	-0.6403	-1.4095	-0.5286	-0.7449
1904.0095	-0.5226	-0.3100	-0.4583	-0.7386	-0.3119	-0.4622	-0.3363	-0.7179	-0.3554	-0.6284	-0.4272	-0.9030	-0.2295	-0.6517	-0.1814	-0.3042
1912.0095	-0.5631	-0.4251	-0.5014	-0.7073	-0.4026	-0.3747	-0.4554	-0.6820	-0.4265	-0.6634	-0.4729	-1.0046	-0.2534	-0.5144	-0.1780	-0.3035
1920.0096	0.5578	0.6994	0.7301	0.2433	0.6972	0.4700	0.6732	0.7436	0.5502	0.6171	0.8689	0.8245	0.7282	0.4167	0.4542	0.3563
1928.0096	0.5683	0.6622	0.8292	0.1880	0.9381	0.3359	0.7157	0.5990	-3.2612	0.5289	0.9527	0.7097	0.9531	0.3221	0.5053	0.2999
1936.0096	-0.8010	-1.0639	-0.5635	-1.0416	-0.4516	-0.9980	-1.1228	-1.4858	-6.7042	-1.3940	-0.6689	-1.7605	-0.3148	-0.9604	-0.3129	-0.6022
1944.0097	-0.3351	-0.4408	-0.1722	-0.5530	-0.3456	-0.5272	-0.6236	-0.7908	-1.5884	-0.6617	-0.1923	-0.8644	-0.2624	-0.5888	-0.1652	-0.3328
1952.0097	-0.0428	0.0570	0.0838	-0.2838	-0.1700	-0.1581	-0.2004	-0.2959	2.0923	-0.1396	0.1639	-0.2921	-0.0561	-0.3392	0.0153	-0.1416
1960.0098	0.0074	0.1005	0.1001	-0.1550	-0.0449	-0.0152	-0.1223	-0.1209	4.5127	-0.0305	0.1313	-0.1467	-0.0113	-0.1148	0.0057	-0.0531
1968.0098	0.6961	0.9672	0.8317	0.4773	0.7590	0.6174	0.7014	0.8083	5.4358	0.9311	0.9422	1.0481	0.6717	0.5418	0.3675	0.3640
1976.0098	0.4017	0.5544	0.5435	0.1797	0.5059	0.2905	0.2294	0.3149	1.5507	0.4550	0.6664	0.5144	0.6080	0.2009	0.3397	0.1729
1984.0099	0.2880	0.2927	0.3120	0.2460	0.3310	0.1729	0.0670	0.2107	-0.1519	0.2962	0.4039	0.4406	0.5036	0.1355	0.3122	0.1306
1992.0099	0.3045	0.3955	0.3408	0.2434	0.3202	0.1989	0.0151	0.1711	-0.2838	0.3786	0.4377	0.4817	0.4381	0.1439	0.2446	0.1199
2000.0100	-0.1033	-0.0716	0.0205	-0.2615	-0.1414	-0.1598	-0.6711	-0.4904	0.9013	-0.2234	0.0418	-0.3464	-0.0512	-0.1988	-0.0732	-0.1476
2008.0100	-0.0520	-0.0853	0.0850	-0.1631	-0.0006	-0.2458	-0.7044	-0.6052	2.2474	-0.2269	0.0549	-0.3675	0.0507	-0.2482	-0.0702	-0.2004
2016.0100	0.1059	0.0365	0.2454	0.0268	0.2437	-0.1940	-0.5155	-0.4733	0.4829	-0.0616	0.2305	-0.1355	0.3198	-0.1784	0.0680	-0.1482
2024.0101	0.8798	0.8901	0.9554	0.8080	0.8834	0.6684	0.6409	0.9807	0.6646	1.0299	1.0570	1.4166	0.8766	0.7363	0.5232	0.4777
2032.0101	1.1682	1.3176	1.2351	1.0251	1.2356	0.9824	1.1036	1.4910	-0.9442	1.4665	1.4378	2.0393	1.2631	1.0057	0.7773	0.7218
2040.0102	0.1883	0.2124	0.3755	-0.0964	0.3487	0.0483	-0.2604	-0.0536	-3.7503	0.0584	0.4610	0.1882	0.4568	0.0613	0.2188	0.0918
2048.0102	-0.1319	-0.2192	0.1071	-0.4623	0.0180	-0.2233	-0.6221	-0.4495	-3.2659	-0.4357	0.1018	-0.4381	0.0529	-0.1490	-0.0313	-0.0804
2056.0102	-0.4404	-0.5899	-0.1889	-0.7690	-0.1597	-0.6196	-0.9092	-1.0036	-5.1587	-0.9079	-0.1887	-1.0842	0.0517	-0.6248	-0.0494	-0.3463
2064.0103	-0.1058	-0.2666	0.1074	-0.3721	0.0662	-0.3202	-0.4319	-0.4805	-2.8852	-0.4627	0.1485	-0.5281	0.2917	-0.3418	0.1588	-0.1637
2072.0103	1.1425	1.1148	1.2923	0.9272	1.1602	0.9702	1.2711	1.6135	1.1713	1.2823	1.4440	1.8055	1.1473	1.0528	0.7726	0.7220
2080.0104	0.3692	0.1836	0.5875	0.0642	0.4649	0.1592	0.3320	0.4249	-1.7206	0.1285	0.6239	0.3666	0.4799	0.2463	0.3309	0.2249
2088.0104	-0.2320	-0.5303	-0.0350	-0.4882	-0.1541	-0.4903	-0.3146	-0.4927	-1.0803	-0.7009	-0.1464	-0.7106	-0.2333	-0.3961	-0.1350	-0.1925
2096.0104	0.3655	0.1549	0.4931	0.2299	0.5078	0.1453	0.7479	0.5789	-0.8080	0.2093	0.4329	0.4277	0.3142	0.2898	0.2011	0.2217
2104.0105	-0.0777	-0.4460	0.1130	-0.2610	0.1129	-0.2591	0.3460	0.0137	-3.7073	-0.4788	0.0293	-0.4843	0.0660	-0.1263	0.0762	-0.0571
2112.0105	0.2936	-0.0699	0.4594	0.1452	0.4256	0.1358	0.7196	0.5950	-0.6760	0.0086	0.4269	0.1676	0.4198	0.2826	0.3367	0.1952
2120.0106	0.3876	0.0354	0.5350	0.2671	0.5650	0.2582	0.7294	0.7355	0.0707	0.1482	0.4852	0.4011	0.5072	0.4644	0.3589	0.2938
2128.0106	-0.4819	-0.9336	-0.2778	-0.7207	-0.4101	-0.6789	-0.4135	-0.6604	-0.4349	-1.0955	-0.4919	-1.1667	-0.5907	-0.4948	-0.3325	-0.2883
2136.0106	0.5043	0.3428	0.7260	0.1894	0.6097	0.1468	0.7008	0.5715	1.3631	0.2880	0.6749	0.5671	0.3511	0.2614	0.2177	0.2579
2144.0107	0.9815	0.9509	1.2248	0.6223	1.2964	0.5460	1.1681	1.1212	-2.4015	0.9319	1.3274	1.4204	1.2024	0.6188	0.6918	0.5375
2152.0107	-0.0940	-0.2397	0.0808	-0.3664	0.1869	-0.3980	-0.1785	-0.3990	-4.2120	-0.4515	0.0561	-0.3619	0.2031	-0.3631	0.0665	-0.1062
2160.0108	-0.7719	-0.8711	-0.6418	-0.8833	-0.4211	-0.8628	-0.9976	-1.3659	-0.9364	-1.1638	-0.7954	-1.5593	-0.4330	-0.8409	-0.4301	-0.5576
2168.0108	-1.2257	-1.3090	-1.0916	-1.2953	-0.8640	-1.2513	-1.6062	-2.0984	1.3326	-1.7031	-1.3291	-2.4137	-0.8964	-1.2585	-0.7726	-0.8905
2176.0108	-0.4949	-0.4950	-0.4300	-0.5472	-0.3019	-0.6728	-0.7787	-1.0968	3.3166	-0.7359	-0.5611	-1.0434	-0.3670	-0.7143	-0.3664	-0.4523
2184.0109	0.5424	0.5911	0.6116	0.4690	0.7653	0.2173	0.5185	0.4039	2.4572	0.5791	0.6392	0.7668	0.7144	0.2094	0.3457	0.1961
2192.0109	0.0806	0.0443	0.1168	0.0385	0.2864	-0.1864	0.0078	-0.1858	0.5417	-0.0367	0.0900	0.0260	0.2804	-0.1928	0.0933	-0.0533
2200.0110	-0.5390	-0.5758	-0.5110	-0.5392	-0.2470	-0.7541	-0.8169	-1.1712	1.2917	-0.8047	-0.6618	-1.0464	-0.3125	-0.7574	-0.3649	-0.4618
2208.0110	-0.7257	-0.7470	-0.5837	-0.8205	-0.2232	-0.8915	-1.0968	-1.5105	1.5901	-1.0838	-0.7750	-1.5214	-0.3049	-0.8624	-0.4587	-0.5926
2216.0110	-0.7378	-0.8156	-0.6687	-0.7153	-0.3507	-0.8160	-1.1044	-1.4205	2.2054	-1.0617	-0.8192	-1.5138	-0.2713	-0.8173	-0.3651	-0.5862
2224.0111	-0.0424	-0.1446	-0.1031	0.2005	0.2151	-0.1798	-0.1614	-0.3444	4.7466	-0.0914	-0.1748	-0.2590	0.3346	-0.1698	0.0852	-0.1852
2232.0111	0.9280	1.0270	0.8470	1.1169	1.2060	0.8559	1.3040	1.3413	4.8208	1.2919	0.9426	1.5924	1.2454	0.8812	0.7051	0.5401
2240.0112	0.5357	0.6597	0.4746	0.6434	0.8510	0.5878	0.8528	0.8891	-0.2263	0.8119	0.5728	1.0319	0.9284	0.6100	0.5040	0.3872
2248.0112	-0.6409	-0.7433	-0.6322	-0.5186	-0.2416	-0.6273	-0.7962	-1.0697	-3.3306	-0.8531	-0.7503	-1.1928	-0.1584	-0.5656	-0.2782	-0.4472
2256.0112	-0.2829	-0.2100	-0.3147	-0.1574	0.0325	-0.2566	-0.3218	-0.5427	-0.5571	-0.2698	-0.3409	-0.5163	0.1316	-0.2900	-0.0652	-0.2389
2264.0113	0.6329	0.8196	0.4931	0.7983	0.7478	0.5789	0.7653	0.8495	1.2674	0.9823	0.6366	1.2625	0.8844	0.5023	0.5235	0.3725
2272.0113	0.8280	0.8090	0.7028	1.0449	0.9597	0.6841	0.8282	1.0893	0.7076	1.0896	0.7762	1.5637	1.0035	0.7824	0.5833	0.5088
2280.0114	1.0012	0.9667	0.9489	1.1914	1.2907	0.8735	1.0205	1.3216	-0.1018	1.2838	1.0351	1.7532	1.3427	1.0320	0.7363	0.6096
2288.0114	0.7107	0.7220	0.6661	0.8386	1.0076	0.5826	0.6394	0.8536	-1.5846	0.9136	0.7493	1.2893	1.0917	0.6829	0.5722	0.4302
2296.0114	0.0461	0.1202	0.0179	0.0749	0.2941	0.0054	-0.1428	-0.0816	-2.6377	0.0909	0.0322	0.2105	0.3248	0.0417	0.0874	0.0505
2304.0115	-0.1120	-0.0695	-0.1171	-0.1390	0.1184	-0.1704	-0.2259	-0.2964	-2.2773	-0.1729	-0.0675	-0.1590	0.2969	-0.2261	0.1239	-0.0760
2312.0115	0.4304	0.4253	0.2817	0.6103	0.5726	0.4451	0.5212	0.7094	0.6478	0.5958	0.4078	0.9137	0.8549	0.4262	0.5612	0.3305
2320.0116	1.0351	1.2096	0.8781	1.2705	1.2054	1.2660	1.3282	1.7999	1.4293	1.5859	1.0971	2.0496	1.4195	1.3047	0.8893	0.7885
2328.0116	0.4725	0.6389	0.4688	0.4428	0.7032	0.5944	0.4067	0.7123	-1.9910	0.6943	0.6815	0.9143	1.0302	0.5374	0.6164	0.3725
2336.0116	-0.2324	-0.1478	-0.3741	-0.1707	-0.1010	-0.1986	-0.6698	-0.4635	-1.2436	-0.2622	-0.2574	-0.1256	0.3072	-0.3245	0.1872	-0.0745
2344.0117	0.5316	0.7254	0.2103	0.8683	0.4991	0.6207	0.4759	0.8379	1.4929	0.9629	0.4022	1.3873	0.8167	0.5135	0.5587	0.4152
2352.0117	1.0725	1.2933	0.7483	1.4069	0.8301	1.1936	1.0772	1.7137	0.3461	1.7063	1.0453	2.3623	1.1526	1.1043	0.8559	0.7782
2360.0118	0.3691	0.5592	0.0936	0.6399	0.1148	0.5237	-0.1658	0.4941	0.1359	0.7538	0.2618	1.1355	0.3755	0.4610	0.2949	0.3276
2368.0118	0.3797	0.6599	0.1763	0.5603	0.2327	0.4293	-0.1745	0.3290	0.8009	0.7600	0.3059	1.0681	0.3462	0.3593	0.1891	0.2652
2376.0118	0.8005	1.2172	0.6009	0.8956	0.6028	0.8855	0.4164	1.0439	-1.8540	1.3724	0.8873	1.8892	0.8122	0.7454	0.5436	0.5779
2384.0119	0.2613	0.6708	0.0684	0.3349	0.0224	0.4090	-0.3717	0.1923	-4.3419	0.6806	0.3635	0.9377	0.4181	0.1765	0.3083	0.2181
2392.0119	0.2048	0.6479	-0.0583	0.3176	-0.1577	0.3316	-0.4856	0.0899	-1.5632	0.6411	0.2225	0.9271	0.2169	0.0516	0.2193	0.1800
2400.0120	0.6613	1.1277	0.3170	0.8938	0.2262	0.9115	0.0817	0.9557	2.3289	1.3267	0.6062	1.8576	0.4993	0.7262	0.4245	0.5593
2408.0120	0.3842	0.6961	0.0990	0.6364	0.0611	0.6538	-0.2915	0.5285	1.6568	0.8710	0.3128	1.2238	0.3646	0.5435	0.2951	0.3643
2416.0120	-0.0204	0.3436	-0.4149	0.2819	-0.4827	0.4247	-0.5511	0.2136	0.0932	0.4760	-0.1918	0.7533	-0.1215	0.2354	0.0768	0.2162
2424.0121	0.3031	0.7121	-0.2415	0.7941	-0.4464	0.9379	0.1415	1.0665	0.5965	1.1034	0.0259	1.5400	-0.1645	0.7659	0.1735	0.5147
2432.0121	1.0094	1.3201	0.4669	1.5603	0.1171	1.4971	0.8431	2.0097	0.6929	1.9487	0.7652	2.7111	0.2993	1.4374	0.5001	0.9114
2440.0122	0.3798	0.6578	-0.1514	0.9184	-0.5334	0.9918	-0.0990	1.0904	-0.2476	1.1458	0.0498	1.6655	-0.3761	0.9588	0.0423	0.5576
2448.0122	-0.6369	-0.4875	-1.1356	-0.0461	-1.5672	0.1426	-1.3089	-0.3563	0.6032	-0.1752	-1.0932	-0.2529	-1.3688	0.0939	-0.6084	-0.1159
2456.0122	-0.1663	0.0454	-0.7634	0.4956	-1.3115	0.5783	-0.7901	0.3516	3.1689	0.4966	-0.6213	0.6752	-1.0502	0.4669	-0.3091	0.1787
2464.0123	0.2923	0.6889	-0.4415	1.0258	-1.0688	1.1547	-0.0478	1.2830	2.7967	1.3048	-0.1832	1.7816	-0.8504	0.9929	-0.0821	0.5726
2472.0123	0.5393	0.9708	-0.1969	1.2914	-0.9476	1.4025	0.3358	1.6877	0.8653	1.6861	0.1091	2.2126	-0.7697	1.2338	0.0062	0.7066
2480.0124	0.2088	0.5660	-0.5188	0.9549	-1.4846	1.0522	-0.2786	1.1042	-0.3538	1.2231	-0.2638	1.6160	-1.3228	0.8783	-0.3052	0.4599
2488.0124	-0.9946	-0.8092	-1.7206	-0.2303	-2.8492	0.0015	-1.6242	-0.5021	-2.6948	-0.3532	-1.6780	-0.4653	-2.7999	-0.1466	-1.2076	-0.2607
2496.0124	-0.8911	-0.5673	-1.7481	-0.0669	-2.9736	0.1939	-1.4942	-0.2191	-2.8370	-0.0581	-1.6243	-0.0132	-2.8863	-0.0399	-1.1691	-0.1246
2504.0125	-0.4161	0.0083	-1.4696	0.6095	-2.8911	0.7078	-1.0135	0.5494	-0.5784	0.7459	-1.2275	1.0533	-2.7260	0.3881	-0.9268	0.1803
2512.0125	-0.6748	-0.3966	-1.8167	0.5912	-3.3686	0.5496	-1.1247	0.3450	0.0346	0.4975	-1.6925	0.5906	-3.3270	0.2991	-1.2592	-0.0102
2520.0126	-1.2092	-0.8411	-2.4246	0.1315	-3.9687	0.1941	-1.8976	-0.3934	-0.4157	-0.0383	-2.3496	-0.1633	-3.9239	-0.0914	-1.6595	-0.2980
2528.0126	-1.6734	-1.3166	-2.8852	-0.3455	-4.5675	-0.2195	-2.5711	-1.1105	-0.8275	-0.6217	-2.8629	-0.9717	-4.5239	-0.5443	-2.0202	-0.6077
2536.0126	-1.0997	-0.7605	-2.2894	0.2063	-4.2026	0.2974	-1.7138	-0.1721	-1.2333	0.1132	-2.2043	-0.0272	-4.2623	-0.0012	-1.7619	-0.2636
2544.0127	-1.2699	-0.9136	-2.5142	0.0103	-4.6811	0.1805	-2.0241	-0.3631	-2.0901	-0.0770	-2.3616	-0.2134	-4.6021	-0.2294	-1.8393	-0.3440
2552.0127	-1.8400	-1.5886	-3.1050	-0.5154	-5.4728	-0.3749	-2.8240	-1.2483	-1.2759	-0.8406	-3.0409	-1.2541	-5.3777	-0.8251	-2.2749	-0.7539
2560.0128	-1.4337	-1.0212	-2.7393	-0.0547	-5.1749	0.0547	-2.4614	-0.7033	0.9410	-0.1635	-2.6538	-0.4473	-5.2435	-0.3765	-2.2166	-0.5080
2568.0128	-2.0201	-1.6347	-3.3716	-0.5952	-5.8887	-0.4454	-3.2833	-1.5548	-0.0314	-0.8784	-3.3560	-1.3822	-5.9420	-0.9043	-2.6402	-0.8629
2576.0128	-2.4498	-2.2460	-3.8794	-0.8754	-6.4270	-0.8387	-3.5637	-2.0074	-1.6044	-1.4436	-3.9806	-2.0823	-6.5512	-1.2403	-2.9754	-1.1134
2584.0129	-2.5859	-2.3356	-4.1858	-0.8382	-6.9037	-0.8247	-3.5647	-1.9441	-2.6381	-1.4148	-4.3054	-2.0234	-7.1353	-1.2426	-3.2352	-1.1209
2592.0129	-3.2444	-3.0147	-4.8681	-1.5045	-7.8213	-1.3426	-4.4452	-2.8249	-4.3960	-2.2120	-5.0446	-3.0839	-8.0472	-1.8095	-3.7399	-1.5022
2600.0130	-3.2982	-3.0278	-4.8844	-1.6044	-7.8314	-1.4001	-4.6762	-3.0096	-4.4474	-2.2822	-5.0743	-3.1930	-8.0866	-1.8560	-3.8136	-1.5477
2608.0130	-4.2248	-4.0308	-5.9324	-2.3233	-9.0216	-2.1977	-5.9727	-4.3813	-4.9831	-3.3585	-6.2878	-4.6770	-9.3368	-2.6594	-4.5925	-2.1544
2616.0130	-4.5413	-4.4567	-6.3190	-2.4505	-9.5615	-2.3214	-6.3785	-4.6750	-4.0080	-3.6725	-6.7697	-5.1938	-9.9399	-2.7087	-4.9313	-2.3291
2624.0131	-3.2581	-3.0221	-5.0634	-1.1987	-8.3545	-1.0513	-4.9200	-2.7253	-1.4326	-1.9623	-5.2620	-2.8795	-8.6042	-1.4563	-4.0001	-1.4653
2632.0131	-2.9380	-2.7772	-4.8089	-0.8237	-8.2865	-0.8828	-4.8466	-2.4124	-2.2866	-1.6075	-4.9554	-2.2500	-8.4837	-1.2837	-3.8399	-1.3011
2640.0132	-2.8602	-2.9057	-4.7264	-0.5914	-8.2957	-0.8252	-4.9023	-2.3258	-1.7245	-1.5548	-5.0350	-2.1854	-8.7720	-0.9933	-4.0689	-1.2769
2648.0132	-3.1714	-3.2154	-4.9792	-0.9552	-8.7317	-1.0693	-5.2329	-2.7496	-1.3607	-1.9348	-5.3571	-2.8116	-9.3314	-1.2407	-4.4130	-1.4960
2656.0132	-3.4991	-3.4532	-5.1622	-1.5624	-9.1003	-1.5602	-5.7222	-3.4984	-3.6751	-2.4594	-5.5122	-3.5458	-9.6692	-1.8877	-4.6245	-1.8096
2664.0133	-2.5933	-2.5446	-4.2243	-0.7418	-8.2206	-0.8866	-4.7204	-2.3093	-2.6295	-1.4084	-4.4476	-2.0282	-8.7755	-1.2024	-4.0142	-1.2784
2672.0133	-2.3706	-2.4702	-3.9739	-0.5579	-8.1437	-0.9076	-4.5295	-2.1418	-2.3669	-1.2941	-4.2261	-1.7474	-8.7855	-1.1863	-3.9654	-1.2162
2680.0134	-2.6280	-2.9140	-3.9400	-1.0741	-8.1206	-1.4163	-4.9232	-2.8578	-3.6447	-1.9446	-4.3528	-2.6668	-8.9740	-1.5700	-4.2353	-1.5248
2688.0134	-2.8085	-3.2739	-4.0108	-1.2718	-8.1349	-1.5579	-4.9387	-3.0335	-3.7236	-2.3026	-4.4932	-3.2462	-8.9739	-1.6303	-4.2681	-1.6615
2696.0134	-2.9463	-3.4337	-4.0121	-1.5728	-8.0709	-1.8709	-4.9482	-3.4091	-4.7497	-2.6248	-4.5103	-3.7418	-8.9002	-1.9985	-4.2797	-1.8551
2704.0135	-2.2270	-2.6351	-3.0117	-1.2389	-7.0267	-1.4956	-4.0290	-2.6948	-3.5557	-1.9505	-3.4162	-2.9053	-7.9141	-1.6558	-3.7485	-1.5425
2712.0135	-1.8957	-2.2206	-2.6285	-1.0036	-6.6094	-1.2486	-3.6296	-2.3017	-2.0062	-1.5519	-2.9730	-2.3999	-7.4906	-1.4448	-3.5020	-1.3650
2720.0136	-1.6308	-1.9496	-2.1287	-0.9776	-5.7545	-1.3354	-3.5306	-2.4402	-0.7847	-1.4739	-2.5192	-2.3051	-6.7185	-1.4625	-3.2676	-1.3506
2728.0136	-1.0381	-1.6171	-1.3614	-0.5013	-4.9065	-1.0138	-2.7599	-1.7223	0.3295	-1.0511	-1.7414	-1.6830	-5.8276	-1.0190	-2.7334	-1.0702
2736.0136	-1.1986	-1.8379	-1.3702	-0.8481	-4.8630	-1.3943	-2.9610	-2.2055	-2.4040	-1.4468	-1.8022	-2.1771	-5.8516	-1.3874	-2.8336	-1.2634
2744.0137	-0.6034	-1.1479	-0.4369	-0.6666	-3.6388	-1.2758	-2.3335	-1.9496	-0.7995	-1.0009	-0.8265	-1.6708	-4.6896	-1.2887	-2.3395	-1.1096
2752.0137	0.2878	-0.3981	0.4216	0.3557	-2.7413	-0.4480	-0.9649	-0.4626	1.8851	0.0858	0.1122	-0.2343	-3.7526	-0.3728	-1.6730	-0.5527
2760.0138	-0.2512	-1.0868	0.1600	-0.4196	-2.5293	-1.1267	-1.5709	-1.4793	-1.5034	-0.8953	-0.3778	-1.4904	-3.7835	-0.8267	-2.0051	-0.9119
2768.0138	-0.1588	-1.0532	0.6607	-0.8158	-1.7378	-1.2482	-1.3342	-1.5937	-0.7424	-1.1761	0.1147	-1.9153	-2.9645	-0.9048	-1.6797	-0.9296
2776.0138	0.5898	-0.1575	1.5819	-0.3903	-0.8239	-0.7346	-0.4207	-0.7013	-0.8672	-0.3534	1.2118	-0.8018	-1.9884	-0.4824	-1.0718	-0.5185
2784.0139	0.5091	-0.3066	2.0141	-1.1404	0.1515	-1.5156	-0.8193	-1.7576	-2.2713	-1.1169	1.5746	-1.6679	-1.0047	-1.2504	-0.8281	-0.8239
2792.0139	1.6406	0.6634	3.2553	-0.1136	1.5673	-0.6213	0.8516	-0.0699	3.9586	0.0466	2.9571	-0.0606	0.5945	-0.3235	0.2306	-0.1541
2800.0140	2.5958	1.6666	4.5077	0.4906	3.1535	-0.0136	2.0345	1.0119	4.9213	1.0007	4.2143	1.2610	1.9006	0.4594	0.8223	0.3875
2808.0140	1.5318	0.1856	4.0150	-1.1542	3.1845	-1.6357	0.7273	-1.2790	2.5877	-1.1726	3.4532	-1.5748	1.9819	-1.0665	0.5082	-0.5499
2816.0140	2.6726	1.2921	5.1274	0.0970	4.4823	-0.6099	2.4507	0.4972	6.1022	0.2636	4.7256	0.2652	3.4172	-0.0237	1.4526	0.1291
2824.0141	4.3717	3.2082	7.2668	1.2743	7.3462	0.5427	4.4546	2.3638	5.2664	2.1048	7.0198	2.7147	6.1107	1.2955	2.7388	1.0690
2832.0141	3.3978	1.9323	6.6099	-0.0224	7.0987	-0.6190	3.5972	0.7431	2.6381	0.3713	6.2761	0.3867	6.2182	0.0724	2.6653	0.3353
2840.0141	3.7448	2.5048	7.1513	0.0333	8.0690	-0.5480	4.1049	0.8981	3.9899	0.7134	6.8066	0.8115	6.9820	0.1471	2.8922	0.4756
2848.0142	4.2031	2.9265	8.2104	-0.2429	9.9056	-0.7677	4.7288	0.8027	4.4378	0.6199	7.8170	0.7647	8.7156	0.0355	3.5358	0.5570
2856.0142	3.6261	2.1495	7.4853	-0.5793	9.4136	-1.0859	4.7267	0.4859	3.8480	-0.0900	7.1241	-0.2300	8.6541	-0.3879	3.6312	0.2812
2864.0143	4.6379	3.4059	8.6498	0.2187	11.1659	-0.3067	6.0489	1.7348	3.6246	1.1573	8.3757	1.4650	10.2376	0.4916	4.3617	0.9211
2872.0143	4.5491	2.9686	8.7194	0.0299	11.4956	-0.4653	6.4866	1.7892	4.7515	0.6826	8.4580	0.8347	10.9063	0.3415	4.8134	0.8391
2880.0143	4.4023	3.0389	8.2357	0.2983	11.1817	-0.2029	6.7209	2.0916	6.4857	0.9778	7.9767	1.1064	10.5479	0.5612	4.6377	0.9153
2888.0144	5.2390	4.1372	9.4091	0.6746	13.1080	0.1385	7.3967	2.5859	6.0327	1.7862	9.1442	2.3154	12.1759	1.0596	5.1966	1.3530
2896.0144	4.0442	2.5104	7.9109	-0.0307	11.6150	-0.5468	6.4726	1.5981	4.8472	0.3205	7.6492	0.3652	11.3831	0.2617	4.9967	0.7548
2904.0145	4.0859	2.9787	7.5522	0.4430	11.6264	-0.0384	6.6510	2.0991	6.9049	1.0047	7.3030	1.2470	11.2338	0.7776	4.8422	1.0383
2912.0145	5.1072	4.1813	8.6749	1.2855	13.1185	0.7566	8.0884	3.4786	9.2233	2.2530	8.5188	2.9600	12.5742	1.6246	5.5491	1.6820
2920.0145	4.1889	3.1580	7.3526	0.9239	11.6069	0.4108	7.4870	2.9171	6.7112	1.4909	7.1683	1.8419	11.2880	1.1916	5.0045	1.2842
2928.0146	4.2964	3.5027	7.5638	0.8770	12.3837	0.3983	7.2287	2.6920	5.3383	1.6348	7.2842	2.1608	11.7590	1.3471	4.9426	1.3965
2936.0146	4.5868	3.6811	7.8032	1.3124	12.8061	0.8853	7.9946	3.4930	5.2543	2.0226	7.6873	2.5690	12.6199	1.7829	5.5858	1.6391
2944.0147	4.1295	3.4776	7.0360	1.2089	12.2733	0.9651	7.7688	3.3818	1.9399	1.9428	6.9942	2.3510	12.2639	1.7671	5.4027	1.5741
2952.0147	4.5760	4.0867	7.5767	1.3606	13.1783	1.0568	7.9799	3.6112	2.4828	2.3269	7.5700	3.2084	13.0701	1.8780	5.7416	1.8679
2960.0147	4.1910	3.8647	6.8028	1.4230	12.1746	1.1452	7.7045	3.5601	4.1003	2.3294	6.8870	3.0474	12.2968	1.7692	5.4891	1.7475
2968.0148	3.1338	3.1903	5.6123	0.5276	11.2719	0.6055	6.4280	2.2319	2.4973	1.4628	5.5763	1.6446	11.2400	1.1977	4.6346	1.2376
2976.0148	2.9154	2.7890	5.2242	0.4974	10.6670	0.5822	6.4292	2.3356	3.1098	1.2129	5.2494	1.3886	10.9238	1.0912	4.6894	1.1918
2984.0149	3.1212	3.2940	4.9636	1.1553	10.2273	1.2165	6.6939	3.1378	3.2640	2.0600	5.1575	2.5439	10.6077	1.5837	4.7194	1.5318
2992.0149	3.2073	3.6049	4.9775	1.1976	10.5230	1.4120	6.6884	3.3357	3.1054	2.3013	5.2094	3.0472	10.8578	1.7941	4.7972	1.7514
3000.0149	3.0920	3.3560	4.5456	1.4762	9.5843	1.7392	6.8776	3.8993	2.8042	2.4403	4.8571	3.2171	10.1070	2.0630	4.7026	1.8499
3008.0150	2.9400	3.4950	4.3128	1.3774	9.4699	1.8022	6.2569	3.6236	0.0934	2.5367	4.5912	3.3655	9.7840	2.2010	4.3521	1.8782
3016.0150	2.4816	2.9397	3.6968	1.0942	8.9538	1.4532	5.6487	3.0582	0.3469	1.9658	4.0056	2.7147	9.6164	1.7585	4.3303	1.6391
3024.0151	2.8060	3.6121	3.5824	1.8888	8.5996	2.1572	6.0768	3.9140	2.0750	2.9984	4.0937	3.9180	9.4299	2.2473	4.4346	1.9411
3032.0151	3.3941	4.5845	4.1893	2.3682	9.4738	2.8878	6.4938	4.7279	2.7705	3.9682	4.8044	5.2038	10.1846	3.0255	4.7468	2.4417
3040.0151	2.5685	3.4795	3.0665	2.0021	8.1120	2.5064	5.8046	4.1481	3.4365	3.0910	3.6237	4.0005	9.1024	2.6109	4.3322	2.0511
3048.0152	2.2587	3.4745	2.6083	1.8467	7.7880	2.3100	5.1229	3.5537	3.4318	3.0255	3.0594	3.8663	8.4696	2.4389	3.7746	1.8930
3056.0152	2.3349	3.6829	2.6249	1.9424	7.8619	2.6440	5.4293	3.9959	4.5935	3.2834	3.1578	4.1666	8.6307	2.7285	3.9273	2.0776
3064.0153	2.1147	3.5294	1.9602	2.2167	6.7376	2.9514	5.5796	4.4505	2.8122	3.5102	2.6522	4.3693	7.7931	2.8327	3.7981	2.1150
3072.0153	2.1786	3.6990	1.9450	2.2535	6.6673	2.8210	4.9586	4.1395	0.0216	3.5964	2.6619	4.7712	7.6909	2.6923	3.6997	2.1465
3080.0153	1.2983	2.5429	0.7311	1.8315	4.8955	2.3568	3.8837	3.3649	2.6153	2.6589	1.3860	3.5228	6.1721	2.1504	3.0975	1.6881
3088.0154	1.0001	2.5657	0.1145	1.8585	3.9903	2.5057	3.3719	3.2733	3.2573	2.8440	0.7237	3.6819	4.9767	2.2843	2.4272	1.6741
3096.0154	1.0398	2.6482	-0.0199	2.0651	3.6439	2.8089	3.2359	3.6070	1.0556	3.1035	0.6590	4.1238	4.6960	2.6009	2.3856	1.8504
3104.0155	0.4206	2.0836	-1.1563	2.1219	1.8750	3.0308	2.7567	3.6542	0.4629	2.9977	-0.3653	3.7012	3.2495	2.6401	1.9107	1.6786
3112.0155	0.5107	2.5324	-1.1940	2.1801	1.6951	3.2362	2.3275	3.6922	-1.8065	3.3945	-0.3228	4.3763	2.9465	2.7905	1.7185	1.8551
3120.0155	-0.5698	1.1076	-2.5657	1.4370	-0.3334	2.4494	0.9323	2.5458	-3.8306	2.0849	-1.7905	2.8248	1.0940	1.9518	0.9234	1.2829
3128.0156	-1.4748	0.4198	-3.8733	0.9993	-2.0789	2.1372	-0.2541	1.7202	-4.3484	1.5571	-3.2279	2.0007	-0.9254	1.6143	-0.1956	0.9050
3136.0156	-1.4745	0.5177	-4.0137	1.1088	-2.4812	2.2910	-0.7842	1.7068	-6.1848	1.7367	-3.2942	2.3321	-1.2457	1.7414	-0.3073	0.9790
3144.0157	-1.9895	-0.1625	-5.0603	1.3380	-4.3484	2.3747	-1.4868	1.6186	-5.7641	1.5786	-4.2454	1.9444	-2.6956	1.6550	-0.7209	0.7428
3152.0157	-1.2947	1.0790	-4.7638	2.3505	-4.2192	3.3909	-1.0121	2.8617	-4.4115	3.1378	-3.8355	4.0856	-2.8956	2.6592	-0.7839	1.3993
3160.0157	-2.6818	-0.5438	-6.3759	1.2460	-6.5154	2.1689	-3.1732	0.8392	-7.4287	1.4550	-5.6090	1.9179	-5.1180	1.3506	-1.9466	0.4934
3168.0158	-4.2446	-2.1163	-8.2518	0.1196	-9.1980	1.0331	-5.6877	-1.3863	-6.6606	-0.1334	-7.6890	-0.4075	-7.8786	0.0986	-3.4839	-0.5188
3176.0158	-2.8457	-0.3503	-7.1105	1.6663	-8.3649	2.6660	-4.2638	0.9959	-2.3830	2.0777	-6.3455	2.6834	-7.2919	1.7872	-2.9458	0.5986
3184.0159	-3.7098	-1.4693	-8.2539	1.2096	-10.4326	2.0919	-5.3901	0.0696	-4.0705	1.1835	-7.5383	1.3646	-9.2211	1.0840	-3.7579	0.0180
3192.0159	-3.8164	-1.2153	-8.5636	1.1951	-11.2149	2.1239	-6.1545	-0.2217	-2.8963	1.4303	-7.8305	1.6991	-10.2331	1.0068	-4.3155	-0.0122
3200.0159	-3.0827	-0.4574	-8.0929	2.2333	-11.2896	3.0813	-5.1414	1.3272	-1.3175	2.6751	-7.2583	3.3540	-10.4379	1.9880	-4.1482	0.5633
3208.0160	-4.6845	-2.2805	-9.8106	0.9229	-13.6600	1.6488	-7.4841	-1.1388	-6.8422	0.7578	-9.2056	0.5812	-12.8386	0.4979	-5.5473	-0.5980
3216.0160	-4.6996	-2.1264	-9.9269	0.8143	-14.0362	1.7047	-8.3031	-1.3124	-6.0176	0.8066	-9.2180	0.9488	-13.0882	0.4720	-5.6080	-0.4859
3224.0161	-4.9434	-2.6205	-10.4120	0.9863	-15.3851	1.7565	-8.2231	-1.1137	-1.9038	0.7121	-9.7564	0.5617	-14.4765	0.4621	-6.0745	-0.6691
3232.0161	-4.6974	-2.2305	-10.2730	1.2626	-15.6119	1.8696	-8.2883	-0.9234	-2.2130	1.1726	-9.7006	1.3356	-15.1908	0.6475	-6.4949	-0.5111
3240.0161	-4.6610	-2.4277	-10.2931	1.2037	-15.9731	1.8524	-8.5804	-0.7461	-2.3740	0.9983	-9.7247	1.6220	-15.5392	0.7141	-6.5034	-0.3275
3248.0162	-6.2412	-4.3740	-11.7816	-0.2115	-18.2386	0.3432	-10.4149	-3.1497	-2.3832	-1.0669	-11.5601	-1.6407	-18.0398	-0.8188	-7.9814	-1.6197
3256.0162	-4.5018	-2.2061	-10.2353	1.4883	-16.9142	2.0230	-8.5854	-0.5038	-1.4236	1.4518	-9.7385	2.0328	-16.9769	0.8716	-7.1741	-0.3360
3264.0163	-5.4463	-3.4950	-11.2261	0.6716	-18.3677	1.2583	-9.4070	-1.5241	-4.9755	0.1813	-10.8348	0.2954	-18.3237	0.0757	-7.7887	-0.9286
3272.0163	-6.7800	-4.9859	-12.4188	-0.7237	-19.8569	-0.2869	-11.4099	-4.0325	-6.2267	-1.6821	-12.3246	-2.3681	-20.0393	-1.4945	-8.9857	-2.0397
3280.0163	-5.0319	-3.1760	-10.9432	1.0748	-18.6379	1.2846	-9.7086	-1.3190	-0.2655	0.5614	-10.6251	1.2880	-18.9099	0.1644	-7.9980	-0.7053
3288.0164	-7.3918	-5.9711	-12.8857	-1.3066	-20.9818	-1.0519	-12.2705	-5.1247	-0.9118	-2.6745	-13.1585	-3.8944	-21.7081	-2.0795	-10.0006	-2.6452
3296.0164	-5.2261	-3.3982	-10.7991	0.6906	-18.7801	1.1296	-9.8639	-1.7332	0.4668	0.2723	-10.7087	0.4165	-19.6034	0.2017	-8.6135	-0.9841
3304.0165	-4.8849	-3.3714	-10.2621	0.7215	-18.4672	1.1599	-9.2976	-1.2511	-2.0022	0.2628	-10.1254	0.6903	-19.2203	0.2732	-8.2310	-0.7938
3312.0165	0.7055	-1.2492	2.6504	-1.7668	-1.3026	-2.2843	-1.8778	-2.0198	-1.4072	-2.1957	1.9294	-1.9009	-3.0502	-1.6635	-1.4857	-0.8052
3320.0165	0.2174	-2.3609	3.5750	-3.6898	0.2394	-4.2654	-2.1309	-4.4898	-2.0376	-4.4829	2.5881	-5.3770	-1.4708	-3.6398	-1.1466	-1.9890
3328.0166	2.8103	-0.1695	6.1960	-1.3256	3.4134	-2.3250	1.2960	-0.5837	1.9000	-1.8588	5.5876	-0.9629	2.1576	-1.5317	1.3237	-0.1889
3336.0166	1.6535	-1.6346	6.0254	-3.2999	3.9044	-4.3535	0.0537	-3.6461	0.9154	-4.2548	4.9634	-4.7830	2.2811	-3.4301	0.6602	-1.5906
3344.0167	2.8476	-0.6603	7.3025	-2.1873	5.5410	-3.2775	2.0790	-1.5729	4.7307	-3.0163	6.4106	-2.9640	4.1695	-2.2588	1.9194	-0.7497
3352.0167	3.2755	-0.1815	7.8745	-1.9069	6.6643	-3.0913	2.6329	-1.2449	2.7082	-2.6313	7.0596	-2.4340	5.4320	-2.0546	2.5017	-0.5508
3360.0167	2.4460	-1.1496	7.5813	-3.2858	6.6699	-4.3439	1.8898	-3.0578	0.4356	-4.2056	6.5870	-4.8041	5.3779	-3.3450	2.1542	-1.3834
3368.0168	4.3377	0.7946	9.1348	-1.1876	8.6150	-2.0949	4.7496	0.7447	6.7870	-1.6288	8.5118	-0.8415	7.6553	-0.9916	3.8781	0.3227
3376.0168	3.3921	-0.0577	8.5967	-2.4387	8.7267	-3.2108	3.5718	-1.2862	5.1253	-3.0345	7.7826	-3.1592	7.7236	-2.1087	3.4250	-0.5338
3384.0169	3.2307	-0.3698	8.5370	-2.6940	8.8383	-3.4823	3.6772	-1.5195	4.4742	-3.4428	7.7102	-3.6959	7.9692	-2.3983	3.5601	-0.6816
3392.0169	4.3979	0.9600	9.4466	-1.2455	10.0933	-2.2114	5.1902	0.4639	6.3326	-1.7043	8.8314	-1.2413	9.3735	-1.0916	4.4850	0.2143
3400.0169	4.2855	0.8956	9.5873	-1.5202	10.6354	-2.5340	5.0205	-0.1673	3.6793	-1.9808	8.9212	-1.8830	9.9022	-1.3909	4.5163	-0.0580
3408.0170	5.3632	2.0925	10.4641	-0.2959	11.7768	-1.0930	6.7917	2.1581	4.0049	-0.3775	10.0628	0.4447	11.2720	0.0994	5.5340	0.9625
3416.0170	4.3152	1.3633	9.5129	-1.3980	11.1209	-2.0613	5.4377	0.2532	1.5148	-1.5095	9.0022	-1.4865	10.5623	-1.0157	4.7936	0.1497
3424.0171	3.0804	-0.0768	8.3659	-2.6931	10.1647	-3.5090	3.8727	-1.9283	-0.2465	-3.3465	7.6667	-3.9098	9.7331	-2.5383	4.1516	-0.7909
3432.0171	3.9788	0.8533	9.0071	-1.4387	11.3398	-2.3340	5.2673	-0.1122	3.7445	-1.9960	8.4910	-2.0205	11.2330	-1.2979	5.1342	-0.0044
3440.0171	4.3155	1.4286	9.4865	-1.1510	12.2292	-2.1188	5.8292	0.0630	5.9647	-1.4843	8.9759	-1.7360	12.0222	-1.1095	5.3607	0.0314
3448.0172	4.8140	1.9021	9.9416	-0.7391	12.9889	-1.7156	6.7266	0.9954	6.9743	-0.9752	9.5184	-0.7122	12.8671	-0.6843	5.9356	0.4940
3456.0172	4.5263	1.8983	9.7347	-1.1362	13.3210	-1.8035	6.5905	0.6158	6.5319	-1.2024	9.3526	-1.2166	13.3183	-0.8465	6.0035	0.3731
3464.0173	4.2658	1.6996	9.7325	-1.7023	13.5685	-2.1883	6.4997	0.0372	5.8172	-1.7024	9.3123	-2.0404	13.5359	-1.2709	5.9648	0.1161
3472.0173	4.7145	2.0409	10.0879	-1.1810	14.2391	-1.7377	7.2186	0.9247	6.2845	-1.2136	9.7584	-1.1143	14.4151	-0.7631	6.5654	0.5388
3480.0173	5.0751	2.6382	10.4946	-0.8167	15.0160	-1.4824	7.7447	1.2058	7.9504	-0.6404	10.1988	-0.5954	15.1331	-0.5480	6.8154	0.6528
3488.0174	6.0991	3.7612	11.5431	0.0617	16.3784	-0.5777	9.4196	2.9053	9.7839	0.6030	11.3867	1.2544	16.4543	0.3957	7.6470	1.4147
3496.0174	5.6646	3.3761	11.1345	-0.3736	16.4357	-0.8196	8.9490	2.3471	7.1771	0.0780	10.9972	0.5185	16.7631	0.1468	7.7001	1.2257
3504.0175	5.3445	3.0415	11.0078	-0.8552	16.6097	-1.2754	8.4929	1.5499	6.8965	-0.5008	10.8146	-0.3844	17.0087	-0.3165	7.6558	0.9004
3512.0175	5.7399	3.3757	11.2664	-0.3635	17.2039	-0.7214	9.4664	2.6453	7.7216	0.0125	11.1837	0.5416	17.8165	0.2679	8.2634	1.3749
3520.0175	5.1326	2.9327	10.5628	-0.8083	16.8775	-1.0574	9.0165	1.9421	5.4279	-0.5110	10.4586	-0.3472	17.5953	-0.1357	8.0098	1.0517
3528.0176	6.0512	3.9129	11.5644	-0.0545	18.1578	-0.3974	10.1947	3.1452	7.9593	0.5128	11.5607	1.1646	18.8522	0.5632	8.7312	1.6261
3536.0176	6.1022	4.0296	11.5351	0.0810	18.4565	-0.1844	10.3487	3.4041	8.1136	0.6683	11.5880	1.4258	19.3098	0.7836	8.9792	1.7788
3544.0177	5.2274	3.2046	10.7196	-0.7593	18.0519	-0.9950	9.4711	2.0155	5.6025	-0.3960	10.6078	-0.1945	18.8288	-0.0136	8.4382	1.1726
3552.0177	5.7983	3.6603	11.2605	-0.1654	19.0507	-0.5579	10.4530	2.9601	5.1608	0.1755	11.2498	0.8013	20.0509	0.4718	9.1916	1.6019
3560.0177	5.3265	3.3025	10.6247	-0.4548	18.6466	-0.7542	9.9213	2.4712	2.2523	-0.2026	10.6683	0.2779	19.9024	0.1877	9.0921	1.4139
3568.0178	5.4386	3.5647	10.7041	-0.3244	18.8827	-0.4852	10.3494	2.8561	6.1235	0.0791	10.7603	0.5502	20.0818	0.4344	9.1809	1.5595
3576.0178	5.5868	3.7756	10.6167	0.1552	18.9663	0.0378	10.8007	3.5497	9.5734	0.5529	10.7616	1.0841	20.3892	0.9278	9.4625	1.8037
3584.0179	4.8314	3.1501	9.7495	-0.4764	18.2909	-0.5155	9.7771	2.4875	5.5584	-0.2010	9.7933	0.0976	19.6307	0.3902	8.8749	1.4186
3592.0179	5.4243	3.9263	10.1230	0.2391	18.8018	0.2997	10.8324	3.8370	7.3487	0.7891	10.3526	1.5670	20.2882	1.1353	9.4314	2.0136
3600.0179	5.2697	4.0698	9.4682	0.6692	18.0337	0.7969	10.8709	4.3050	6.9566	1.3024	9.8547	2.0654	19.7581	1.4604	9.3202	2.1376
3608.0180	4.4592	3.2615	8.7059	-0.1805	17.5757	-0.0549	9.9856	3.0190	3.3238	0.2477	8.8369	0.7368	18.9222	0.7452	8.5717	1.6510
3616.0180	3.6691	2.4595	7.7685	-0.7585	16.9433	-0.4851	9.4410	2.2810	6.0874	-0.6080	7.8394	-0.4924	18.4986	0.2506	8.3125	1.2817
3624.0181	3.4153	2.4580	7.4102	-0.9013	16.6394	-0.4403	9.2078	2.1036	7.9472	-0.6194	7.4764	-0.6934	18.1301	0.2365	8.0469	1.2040
3632.0181	4.0927	2.8496	8.5101	-0.7703	18.1019	-0.3259	10.3651	2.8283	7.1764	-0.4227	8.5449	-0.1250	19.4673	0.5309	8.7410	1.5630
3640.0181	3.3083	1.8660	7.4595	-1.1368	17.0278	-0.7455	9.7788	2.1589	6.4870	-1.2621	7.5422	-1.3657	18.9283	-0.0494	8.6167	1.1229
3648.0182	3.8594	2.6219	8.1615	-0.7693	18.1273	-0.4038	10.4466	2.6859	8.2956	-0.5867	8.1764	-0.4809	19.6301	0.4320	8.7831	1.4402
3656.0182	4.6911	3.2403	9.3227	-0.3394	19.9146	0.1537	11.9936	3.9561	9.0982	-0.0362	9.4338	0.4548	21.6047	1.1215	9.8986	2.0103
3664.0183	3.0743	1.7182	6.9521	-1.0157	17.1726	-0.2867	10.2293	2.7600	3.4173	-1.1890	7.1691	-1.2752	19.5065	0.4141	9.0133	1.3581
3672.0183	2.8473	1.7878	6.5042	-1.0251	16.7895	-0.2560	9.8565	2.5923	-0.3187	-1.0509	6.6513	-1.0668	18.7877	0.5093	8.4853	1.3693
3680.0183	2.1933	1.0773	5.5302	-1.2851	15.8061	-0.5495	9.3666	2.1132	-1.8562	-1.6284	5.7439	-1.8588	18.2212	0.0508	8.3331	1.0698
3688.0184	1.4965	0.6653	4.1271	-1.2203	13.9310	-0.5211	8.2212	1.7290	-2.9534	-1.6757	4.4065	-1.9062	16.4829	-0.0969	7.5695	0.9023
3696.0184	2.2251	1.5177	4.9937	-0.6938	14.9592	-0.0662	8.6951	2.4021	-0.7345	-0.8526	5.2195	-0.6611	17.1169	0.5418	7.7659	1.3405
3704.0185	1.1313	0.3185	3.7059	-1.4781	13.4984	-0.8047	7.3834	1.0668	-0.4309	-2.0638	3.8521	-2.4191	15.8933	-0.3006	7.1181	0.6839
3712.0185	1.3077	0.7508	3.6054	-1.0219	13.3693	-0.2776	7.6740	1.7307	0.3714	-1.3968	3.7768	-1.5292	15.5821	0.2508	6.9837	0.9938
3720.0185	1.9966	1.5032	4.3042	-0.3048	14.4001	0.4759	8.6955	2.8829	1.0016	-0.4774	4.5986	-0.3428	16.7359	1.0570	7.6514	1.4944
3728.0186	0.8859	0.4355	2.9490	-1.1261	12.8855	-0.2773	7.1746	1.4313	0.8634	-1.6219	3.2060	-1.9589	15.4750	0.1364	6.9671	0.8476
3736.0186	1.4280	1.2005	3.5804	-0.8281	13.5726	-0.0108	7.5269	1.8492	5.6736	-0.9946	3.8380	-1.0010	15.8867	0.4057	7.1134	1.1462
3744.0187	1.9400	1.7400	4.0764	-0.3070	14.1331	0.4083	8.0679	2.5243	5.8327	-0.3538	4.4262	-0.0974	16.5224	0.8244	7.5177	1.4561
3752.0187	1.5490	1.2968	3.6100	-0.5927	13.6625	0.1664	7.6736	2.1326	2.1402	-0.7803	3.9377	-0.6352	16.1133	0.5914	7.2970	1.2778
3760.0187	1.4629	1.2245	3.2669	-0.3706	13.1988	0.4671	7.8941	2.5553	3.3602	-0.6151	3.7218	-0.5012	15.9725	0.7631	7.4369	1.3581
3768.0188	0.4133	0.4643	0.8945	0.0723	9.9258	0.8428	6.5483	2.5742	1.5679	-0.5010	1.5659	-0.3401	13.2443	0.7978	6.4997	1.2353
3776.0188	-2.3150	-1.7060	-4.2471	0.0674	2.9238	0.8446	2.7272	1.3249	-2.9264	-1.2434	-3.3817	-1.3091	6.9264	0.2603	3.8800	0.5278
3784.0189	-6.4613	-4.4364	-12.5022	0.6248	-8.5277	1.6039	-3.2120	-0.0710	-4.6931	-1.4284	-11.2731	-2.0306	-3.6643	0.0767	-0.6123	-0.3943
3792.0189	-8.7958	-4.2725	-18.9592	2.7847	-17.8849	3.9897	-7.6887	0.6304	-6.7942	1.3696	-17.4539	1.3045	-13.6910	1.8732	-5.2857	-0.0326
3800.0189	-9.5267	-3.2614	-21.7808	4.2048	-22.2169	5.6193	-10.0542	1.3276	-10.5486	3.6734	-20.2250	4.2851	-19.1073	3.3904	-8.1001	0.5263
3808.0190	-10.7269	-3.7814	-24.1537	4.2324	-25.8450	5.7539	-12.5308	0.5462	-11.8579	3.7749	-22.6593	4.4244	-23.1723	3.4059	-10.1596	0.2838
3816.0190	-10.5634	-3.2078	-24.2170	4.5349	-26.5390	6.0130	-13.1489	0.6160	-8.6644	4.4644	-22.9151	5.4406	-24.7850	3.8168	-11.1840	0.4750
3824.0191	-10.5653	-3.4724	-23.8848	4.2119	-26.6404	5.6480	-13.4178	0.1776	-7.9289	4.0592	-22.7431	4.8507	-25.2027	3.5804	-11.4842	0.2561
3832.0191	-10.5221	-3.6468	-23.7581	4.1694	-27.1559	5.4735	-13.5258	0.0956	-9.1625	3.9398	-22.6946	4.7308	-25.9555	3.4539	-11.8043	0.1569
3840.0191	-9.0098	-2.2568	-21.5080	4.7317	-24.9783	5.8246	-11.9902	1.1598	-9.1945	5.0056	-20.4896	6.3293	-24.3845	4.0057	-11.1020	0.7118
3848.0192	-9.0088	-2.8899	-20.8797	4.0661	-24.7212	5.1442	-12.2031	0.5035	-12.3191	4.0397	-19.8971	5.1285	-23.9133	3.3827	-10.7905	0.3693
3856.0192	-9.0368	-3.1904	-20.4334	3.4836	-24.6822	4.6167	-12.5009	-0.0947	-12.8804	3.4343	-19.6149	4.3598	-24.2256	2.9828	-11.0640	0.1196
3864.0193	-8.4730	-2.8996	-18.9721	3.0324	-23.2452	4.1485	-11.8591	-0.3910	-11.8849	3.1642	-18.2961	3.8718	-23.1882	2.6347	-10.7453	-0.0226
3872.0193	-9.0569	-4.0461	-19.1945	2.1303	-23.8060	3.1946	-12.6116	-1.6035	-13.6039	1.7630	-18.5836	1.9768	-23.4185	1.6397	-10.8027	-0.6624
3880.0193	-8.1686	-3.3254	-17.8064	2.3746	-22.4150	3.1911	-11.8536	-1.2195	-9.4785	2.1908	-17.2830	2.7357	-22.4038	1.7640	-10.3705	-0.4159
3888.0194	-7.4612	-2.9593	-16.5284	2.4882	-21.2105	3.1006	-10.9030	-0.9167	-6.4110	2.3259	-16.0377	2.8239	-21.2809	1.7176	-9.7845	-0.3727
3896.0194	-8.2283	-4.0791	-17.1054	1.6691	-22.1648	2.3385	-11.8022	-2.0844	-8.5361	1.1169	-16.7723	1.0002	-22.2317	1.0072	-10.3382	-1.0026
3904.0195	-7.3407	-3.3731	-15.4794	1.6812	-20.5387	2.2566	-11.1602	-1.9091	-6.8595	1.4014	-15.2649	1.4493	-21.0753	1.1233	-9.9417	-0.8299
3912.0195	-6.8318	-3.3012	-14.5974	1.7557	-20.0832	2.1913	-10.5950	-1.5893	-7.1413	1.3788	-14.2846	1.4977	-20.3549	1.0012	-9.3371	-0.7873
3920.0195	-6.9022	-3.4057	-14.4629	1.4371	-20.2493	1.9766	-10.7679	-1.9009	-7.1226	1.1311	-14.1971	1.0655	-20.6764	0.7806	-9.5447	-0.9475
3928.0196	-5.4849	-1.9818	-12.3365	2.0088	-18.0520	2.4972	-9.3930	-0.9064	-2.3010	2.2346	-12.0180	2.4129	-18.7486	1.3733	-8.6400	-0.4629
3936.0196	-5.1814	-1.9808	-11.8370	2.1558	-17.9502	2.4650	-9.2249	-0.8026	-3.6089	2.2602	-11.4351	2.3902	-18.3980	1.2861	-8.2976	-0.5096
3944.0197	-5.7520	-2.6599	-11.9250	1.0003	-18.0347	1.3293	-10.1941	-2.4282	-7.6267	1.0239	-11.7717	0.7764	-18.9149	0.2515	-8.9178	-1.1278
3952.0197	-5.4924	-2.7113	-11.1622	0.6578	-17.3881	0.9719	-9.7607	-2.5743	-6.6772	0.6541	-11.0265	0.2977	-18.2454	-0.1182	-8.5457	-1.2463
3960.0197	-4.8472	-2.2148	-10.5362	1.3393	-17.1679	1.5532	-8.8971	-1.4946	-5.2190	1.4107	-10.2925	1.3117	-17.9514	0.4515	-8.1432	-0.8746
3968.0198	-4.1431	-1.5409	-9.1854	1.2398	-15.5628	1.3926	-8.4151	-1.5182	-5.2347	1.6187	-9.0590	1.6860	-16.8201	0.4692	-7.8361	-0.7406
3976.0198	-4.4848	-2.3383	-9.1477	0.5085	-15.6799	0.5432	-8.7733	-2.4678	-5.2987	0.5207	-9.1242	0.2593	-16.8213	-0.3872	-7.8420	-1.2282
3984.0198	-4.8844	-2.9282	-9.3373	-0.0890	-15.9771	-0.0843	-9.2388	-3.2946	-4.0339	-0.2698	-9.5117	-0.8137	-17.3853	-0.9259	-8.2786	-1.6083
3992.0199	-4.3401	-2.4970	-8.1459	-0.2859	-14.4299	-0.2311	-8.6770	-3.3356	-4.0230	-0.2772	-8.3186	-0.8912	-15.8632	-1.0167	-7.6495	-1.5752
4000.0199	-3.3897	-1.7212	-6.9884	0.4645	-13.3851	0.4150	-7.4520	-2.1289	-5.5030	0.6268	-6.9418	0.2558	-14.4922	-0.4223	-6.7004	-1.1383
4008.0200	-2.4073	-0.9073	-5.4613	0.8325	-11.8040	0.6599	-6.5130	-1.4669	-4.2844	1.2432	-5.4947	1.1546	-13.3166	0.0434	-6.2141	-0.7856
4016.0200	-2.5305	-1.4132	-5.0706	0.1907	-11.3765	-0.0261	-6.7244	-2.2807	-3.2890	0.3650	-5.1956	-0.0660	-12.7927	-0.6108	-6.0291	-1.1749
4024.0200	-2.4925	-1.4133	-4.7817	-0.0758	-10.8982	-0.2532	-6.4869	-2.4612	-4.2103	0.1496	-4.9534	-0.3673	-12.4219	-0.8108	-5.9355	-1.2500
4032.0201	-2.4806	-1.6998	-4.1500	-0.7915	-9.8885	-0.8931	-6.3016	-3.0562	-4.4321	-0.6437	-4.4582	-1.3174	-11.5339	-1.3256	-5.6625	-1.4657
4040.0201	-2.5464	-2.1058	-4.1575	-0.8184	-10.1126	-1.0953	-6.3046	-3.2110	-2.1712	-0.9926	-4.4291	-1.8670	-11.4010	-1.6092	-5.4274	-1.6667
4048.0202	-0.6575	-0.0322	-1.8724	0.5717	-7.4594	0.0911	-4.1135	-1.1304	1.3174	1.0828	-2.0995	0.9548	-9.2921	-0.2072	-4.4288	-0.6600
4056.0202	-0.4323	-0.2283	-1.0130	0.0923	-6.2888	-0.3371	-3.6581	-1.3617	0.3737	0.4814	-1.2869	0.2498	-8.0110	-0.5310	-3.8261	-0.7609
4064.0202	-0.8144	-0.8277	-1.3121	-0.3133	-6.7181	-0.7748	-4.1926	-2.0259	-0.9730	-0.1865	-1.6052	-0.6974	-8.2309	-1.0026	-3.9209	-1.1016
4072.0203	0.6100	0.5708	0.7611	0.2878	-4.1291	-0.2722	-2.5581	-0.8527	0.1283	0.8910	0.4595	0.9229	-6.0388	-0.2836	-2.9471	-0.4528
4080.0203	0.1741	-0.3529	0.5071	-0.3685	-4.4105	-0.9145	-2.6887	-1.4179	-1.1927	-0.2088	0.2549	-0.3782	-5.7813	-1.0355	-2.6105	-0.8021
4088.0204	0.7065	0.3512	1.1184	0.0317	-3.5908	-0.5222	-1.9867	-0.7731	-1.0404	0.4815	0.8875	0.5462	-5.1731	-0.5924	-2.3587	-0.4746
4096.0204	0.9990	0.3833	2.0869	-0.4340	-2.0541	-0.9493	-1.4705	-1.0538	-1.9065	0.0291	1.7173	0.0321	-3.8387	-0.8223	-1.9130	-0.5281
4104.0204	-0.9354	-2.0838	0.0978	-2.2301	-4.2842	-2.7334	-3.7303	-3.7079	-3.9106	-2.7091	-0.4713	-3.5260	-5.6328	-2.7135	-2.8507	-1.7740
4112.0205	0.3473	-0.6236	1.6946	-1.3559	-2.3104	-1.9903	-2.2445	-2.3953	0.1348	-1.3338	1.1288	-1.6586	-4.0873	-1.8235	-2.1743	-1.1088
4120.0205	1.0388	-0.3172	2.7491	-0.9913	-1.0400	-1.6362	-0.8457	-1.4051	0.4200	-1.0137	2.2671	-1.2498	-2.5651	-1.3977	-1.2252	-0.7985
4128.0206	0.3332	-1.2387	1.9605	-1.5685	-1.9201	-2.1382	-1.6934	-2.1734	-2.0413	-1.9361	1.3768	-2.3466	-3.3781	-1.8319	-1.6525	-1.1310
4136.0206	1.6217	0.0440	3.8594	-1.0557	0.4977	-1.6735	-0.2747	-1.1447	0.6859	-0.9798	3.2618	-0.9122	-1.3098	-1.1677	-0.7467	-0.5394
4144.0206	1.0305	-1.0780	3.4838	-1.8040	0.0013	-2.4337	-0.6292	-1.9882	-0.6387	-2.2485	2.8755	-2.6149	-1.3313	-2.0057	-0.6167	-1.0580
4152.0207	0.4366	-1.9092	3.1116	-2.6330	-0.2265	-3.2446	-1.3772	-3.0870	-1.7462	-3.3632	2.2763	-3.9467	-1.7806	-2.6610	-1.0534	-1.4784
4160.0207	0.9879	-1.6441	4.1032	-2.5882	1.2151	-3.2595	-0.3685	-2.6535	2.1578	-3.3450	3.2380	-3.7953	-0.3073	-2.5812	-0.3043	-1.2929
4168.0208	0.8752	-1.8719	3.8330	-2.4444	0.9898	-3.1392	-0.1438	-2.4160	2.8032	-3.3832	3.0177	-3.9084	-0.2722	-2.5019	-0.1515	-1.2903
4176.0208	1.4155	-1.3552	4.7499	-2.2946	2.3159	-3.0282	0.4422	-2.1157	2.4100	-3.0444	3.7789	-3.4002	0.5636	-2.1142	0.0166	-1.0562
4184.0208	0.7912	-2.4082	4.3449	-3.1233	1.7947	-3.8858	-0.0365	-3.1219	1.8574	-4.3165	3.2982	-5.0754	0.2942	-3.0260	-0.0734	-1.6011
4192.0209	0.1453	-2.9834	3.4775	-3.5308	0.8693	-4.2736	-0.7721	-3.8484	0.7637	-4.8946	2.4469	-5.8899	-0.4342	-3.5566	-0.4299	-1.9442
4200.0209	1.2356	-1.8132	4.7664	-2.6497	2.6663	-3.5286	0.5472	-2.5999	2.1471	-3.6994	3.8130	-4.2646	1.2807	-2.6936	0.4133	-1.3343
4208.0210	1.5143	-1.6716	4.9941	-2.2380	2.8752	-3.1998	1.0502	-2.0167	0.9188	-3.3574	4.1380	-3.8416	1.7320	-2.3730	0.7996	-1.1571
4216.0210	0.7751	-2.2708	4.2679	-3.0032	2.2856	-3.9075	-0.0088	-3.2999	-1.2137	-4.2096	3.2957	-5.0462	1.0241	-3.1131	0.2006	-1.6530
4224.0210	0.3378	-2.7777	3.9004	-3.5155	2.1474	-4.5206	-0.5968	-4.2173	0.4030	-4.9464	2.8612	-6.0084	1.0016	-3.7842	0.0867	-2.0302
4232.0211	0.7727	-2.3322	4.1575	-2.8442	2.3679	-3.8475	-0.1614	-3.3044	-0.0370	-4.2087	3.2814	-5.0096	1.5028	-3.1218	0.5318	-1.6438
4240.0211	0.9722	-1.9254	4.3285	-2.6480	2.5296	-3.5071	-0.1785	-3.0323	-0.7161	-3.7796	3.5553	-4.5050	1.7327	-2.8238	0.6552	-1.4708
4248.0212	0.7756	-1.9543	3.8905	-2.6277	2.0014	-3.5692	-0.4077	-3.1988	2.7657	-3.7638	3.1372	-4.5055	1.2340	-3.0291	0.4392	-1.5587
4256.0212	1.0012	-1.5884	3.8701	-2.1040	2.1091	-3.1618	-0.0806	-2.6423	3.9687	-3.1753	3.1325	-3.6990	1.2660	-2.5912	0.4736	-1.3047
4264.0212	0.7110	-1.8744	3.5428	-2.3313	1.7916	-3.4081	-0.6087	-3.1414	2.0600	-3.5016	2.7983	-4.1477	1.0359	-2.8621	0.3101	-1.5003
4272.0213	0.6918	-1.8043	3.4281	-2.2672	1.6199	-3.3733	-0.6730	-3.1356	0.8796	-3.3925	2.7184	-4.0032	0.8777	-2.8776	0.2468	-1.4936
4280.0213	1.0213	-1.3909	3.6590	-1.8103	2.0421	-2.9182	-0.0431	-2.4154	-0.6011	-2.8131	3.0071	-3.2259	1.2915	-2.3806	0.4987	-1.1867
4288.0214	0.9277	-1.3899	3.4910	-1.8767	1.9042	-3.0148	-0.2205	-2.5919	-0.8554	-2.8584	2.8683	-3.2391	1.2014	-2.5511	0.4516	-1.2348
4296.0214	0.9599	-1.3325	3.5717	-1.9151	2.0464	-3.1098	-0.2526	-2.7130	0.1315	-2.8755	2.9013	-3.2342	1.2203	-2.6225	0.3924	-1.2570
4304.0214	0.5617	-1.9910	3.1741	-2.1719	1.6560	-3.4239	-0.4498	-3.0851	-0.4517	-3.4546	2.3537	-4.0520	0.7474	-2.8073	0.1021	-1.5000
4312.0215	0.1287	-2.4586	2.7792	-2.6683	1.2529	-3.9396	-0.8555	-3.7883	-1.3274	-4.0745	1.8743	-4.8726	0.2656	-3.3544	-0.2237	-1.8197
4320.0215	0.0531	-2.4543	2.7268	-2.8456	1.3797	-4.0579	-0.6922	-3.8817	-0.6391	-4.2039	1.8840	-5.0496	0.5407	-3.5990	-0.0569	-1.8726
4328.0216	0.3697	-2.1820	2.8962	-2.2915	1.6835	-3.5716	-0.0429	-3.0807	0.6971	-3.6720	2.0905	-4.3403	0.9071	-3.0520	0.2306	-1.5725
4336.0216	0.6326	-1.9132	3.3456	-2.1948	2.4429	-3.5906	0.0011	-3.1487	-0.3457	-3.5209	2.4771	-4.1158	1.5077	-2.9428	0.3633	-1.5129
4344.0216	0.0351	-2.5232	2.8233	-2.8576	2.0982	-4.2111	-0.8244	-4.2292	-1.5880	-4.3657	1.9331	-5.3241	1.3748	-3.6530	0.1864	-1.9668
4352.0217	0.5680	-1.8469	3.1605	-2.0818	2.4480	-3.4684	0.0008	-3.1341	-0.3636	-3.3955	2.3881	-4.1060	1.7673	-2.9292	0.5193	-1.5347
4360.0217	1.1091	-1.2531	3.7166	-1.5321	3.2049	-3.0270	0.6478	-2.4390	-1.9177	-2.7013	3.0242	-3.1794	2.5553	-2.4519	0.9449	-1.2152
4368.0218	0.1909	-2.2392	2.6296	-2.2367	2.1229	-3.7164	-0.4518	-3.5947	-3.1128	-3.7542	1.8550	-4.5560	1.6192	-3.1990	0.4123	-1.7250
4376.0218	0.7061	-1.4136	3.0107	-1.5904	2.5843	-3.0483	0.1962	-2.7171	0.5252	-2.7678	2.2741	-3.3462	1.8533	-2.5167	0.5139	-1.3213
4384.0218	1.5761	-0.2572	3.8606	-0.6408	3.7200	-2.1175	1.2413	-1.5017	0.9137	-1.4242	3.3134	-1.8001	3.1004	-1.6220	1.1878	-0.7972
4392.0219	1.2473	-0.5857	3.3268	-0.6685	3.2764	-2.0857	0.9901	-1.5883	-2.4584	-1.5892	2.8162	-2.0623	2.8565	-1.5958	1.1006	-0.8645
4400.0219	1.2203	-0.3858	3.1929	-0.6655	3.1701	-1.9583	0.9847	-1.4940	-2.8692	-1.4054	2.7465	-1.8146	2.7515	-1.5521	1.0537	-0.7889
4408.0220	1.8018	0.6565	3.5996	0.0059	3.6494	-1.2783	1.4892	-0.7157	-0.1118	-0.2903	3.3815	-0.4589	3.3858	-1.0869	1.4605	-0.4081
4416.0220	2.3736	1.4935	3.9307	0.8669	4.0781	-0.4310	2.1924	0.3988	1.7042	0.8488	3.8105	0.9840	3.7529	-0.2203	1.7074	0.0889
4424.0220	1.9823	1.2093	3.3583	0.7236	3.5218	-0.4112	1.8282	0.2076	0.6034	0.6698	3.2434	0.6256	3.2664	-0.2199	1.4448	-0.0159
4432.0221	2.0096	1.4724	3.0745	1.1230	3.3148	0.0521	1.8481	0.6276	0.8696	1.1699	3.0733	1.1940	3.2325	0.1727	1.4957	0.1680
4440.0221	3.1560	2.9986	3.9286	2.6330	4.3858	1.5193	3.2423	2.6408	2.3795	3.1683	4.1187	3.7580	4.2445	1.6940	2.1239	1.0697
4448.0222	3.4681	3.6016	4.0290	3.1965	4.4892	2.1173	3.4757	3.2513	1.6705	3.9800	4.3757	4.6787	4.4810	2.2034	2.3067	1.3407
4456.0222	3.4127	3.7842	3.6894	3.4315	4.0648	2.3646	3.2734	3.3912	1.7108	4.3168	4.1214	5.0829	4.1384	2.3500	2.1824	1.4174
4464.0222	3.3872	4.2461	3.2895	3.7746	3.6196	2.9102	3.3379	3.8631	3.0532	4.9945	3.8064	5.8033	3.5870	2.7903	1.9076	1.6286
4472.0223	3.2278	4.4452	2.7862	3.9974	3.0293	3.2884	3.0907	4.0398	3.7820	5.3957	3.4091	6.1400	3.0948	3.0388	1.6951	1.6972
4480.0223	4.1552	5.7121	3.2985	5.3973	3.5084	4.5715	4.0239	5.7330	4.8979	7.1613	4.1659	8.4452	3.7135	4.2636	2.2208	2.4471
4488.0224	5.3606	7.6909	4.0512	7.0552	4.2691	6.4575	5.4822	8.1012	5.5306	9.6862	5.2523	11.5270	4.4211	6.0505	2.7454	3.5015
4496.0224	5.0623	7.8083	3.4422	7.1479	3.7311	6.8979	4.9886	8.1715	3.1146	10.0036	4.7292	11.7009	3.9468	6.4596	2.4404	3.5737
4504.0224	4.1967	7.2104	2.1501	6.8189	2.3793	6.6070	3.4335	7.1247	2.1896	9.5185	3.4062	10.9386	2.6926	6.0953	1.6791	3.1860
4512.0225	5.2200	8.9802	2.7147	8.3150	2.7525	8.1716	4.4602	8.9714	7.5278	11.7640	4.2398	13.5750	2.9703	7.4891	1.9554	3.9881
4520.0225	7.0898	11.5854	4.1449	10.7065	4.2340	10.7280	6.7820	12.3522	8.4972	15.1311	6.1718	17.6452	4.6779	9.9200	3.1560	5.4156
4528.0226	6.8369	12.0088	3.3883	11.0064	3.5587	11.3015	6.1336	12.4264	2.8770	15.7987	5.6629	18.2399	4.2935	10.2809	2.9457	5.5185
4536.0226	5.8130	11.5160	1.9454	10.4298	1.9713	10.9742	4.5318	11.2067	3.7202	15.2954	4.2221	17.2640	2.7343	9.7393	1.9924	5.0330
4544.0226	6.2658	12.5987	1.8290	11.5931	1.7814	12.2471	4.8634	12.4357	7.8024	16.9074	4.3358	18.9975	2.6712	10.8637	2.0646	5.5467
4552.0227	7.3640	14.5819	2.3839	13.2787	2.4167	14.1334	6.0552	14.6107	9.1797	19.4562	5.2559	22.0011	3.3611	12.5883	2.5509	6.5229
4560.0227	8.3808	16.3441	2.8863	14.8692	2.9358	15.9519	7.3018	16.7828	10.0868	21.8026	6.1321	24.7471	4.0444	14.2414	3.1030	7.4509
4568.0228	9.2518	18.0900	3.1567	16.4221	3.1799	17.7647	8.0639	18.6978	9.7852	24.1523	6.7775	27.4519	4.4312	15.8868	3.4381	8.3176
4576.0228	9.6513	19.3554	3.1856	17.1287	3.1436	18.8083	8.2065	19.5612	10.6350	25.6202	7.0467	29.0562	4.3209	16.7276	3.3597	8.7763
4584.0228	9.6223	20.1180	2.6349	17.6413	2.4410	19.6707	7.8858	20.0365	10.0331	26.6760	6.7897	30.0216	3.8677	17.2906	3.1920	8.9995
4592.0229	10.0835	21.4013	2.5437	18.7313	2.3289	21.0767	8.0271	21.2572	10.0813	28.4224	7.0292	31.9188	3.9772	18.5035	3.3280	9.5824
4600.0229	12.1117	24.3895	4.0621	21.3035	3.9514	23.8864	10.5364	24.9339	15.4498	32.1797	9.0198	36.4845	5.5913	21.1972	4.4227	11.1800
4608.0230	13.6738	27.0975	4.9862	23.5506	4.9741	26.5456	12.5479	28.1663	13.6819	35.6673	10.4521	40.5871	6.6415	23.6862	5.1665	12.5893
4616.0230	13.2630	27.2790	4.1993	23.5758	4.2566	26.9058	11.5933	27.8968	9.0804	35.9982	9.7938	40.7461	6.0280	23.9464	4.7286	12.5737
4624.0230	13.6761	28.6069	3.9892	24.6700	4.0264	28.2206	11.6716	28.9805	12.3269	37.7613	9.8736	42.6519	5.9072	25.0239	4.7085	13.0992
4632.0231	14.5448	30.7040	4.2212	26.1455	4.3097	30.2833	12.7887	31.1913	12.5071	40.3976	10.5346	45.6101	6.1880	26.8304	4.9574	14.0965
4640.0231	14.8641	31.6730	4.0611	27.0066	4.2933	31.5727	13.1850	32.4553	12.5427	41.7863	10.6798	47.1178	6.4753	27.9670	5.2296	14.6610
4648.0232	16.2104	34.2069	4.6165	29.2504	4.9083	34.0937	14.5250	35.2357	16.6310	45.1227	11.7081	50.9744	7.2027	30.2661	5.7773	15.9027
4656.0232	16.9249	35.8792	4.9005	30.3724	5.1673	35.7340	15.3064	36.9539	17.7555	47.1965	12.2682	53.2994	7.2954	31.7853	5.8474	16.7059
4664.0232	17.6424	37.4646	5.0553	31.7238	5.3763	37.4793	16.0009	38.7424	18.4495	49.3239	12.8080	55.6698	7.7464	33.3375	6.2192	17.5074
4672.0233	18.5673	39.6732	5.2619	33.4093	5.7405	39.6750	16.9262	40.9646	16.7979	52.1609	13.4697	58.8648	8.1747	35.3084	6.5039	18.5493
4680.0233	18.2578	39.9690	4.5106	33.5485	4.9934	40.3793	16.5512	41.3346	15.9208	52.6950	12.9246	59.2857	7.6498	35.8464	6.2843	18.7411
4688.0234	19.9695	43.0692	5.4882	36.0320	5.9503	43.3419	18.1528	44.6031	20.4522	56.5869	14.5214	63.7752	8.8277	38.5036	7.1220	20.2224
4696.0234	21.1054	45.4148	6.2254	37.5096	6.7325	45.4851	19.2898	46.8776	21.4508	59.3548	15.6448	66.9031	9.4406	40.4985	7.4468	21.3120
4704.0234	28.2981	49.6092	12.5181	48.8941	11.7702	42.2339	19.9087	43.8068	20.8275	66.1524	20.7197	74.9539	12.9391	37.5448	8.1942	19.1590
4712.0235	27.6284	48.1641	12.8688	46.8338	12.4129	40.8543	20.0091	42.7059	20.0267	63.7936	20.7731	72.3813	13.3657	36.4326	8.3043	18.7306
4720.0235	25.8691	45.9907	11.0034	45.0312	10.5123	39.6564	18.5004	41.1032	18.9909	61.3433	18.8399	69.5304	12.0102	35.1393	7.7803	18.0166
4728.0236	25.7287	46.0950	11.4999	43.9938	11.1910	39.4260	18.8572	40.8515	20.2202	60.8652	19.1270	68.7593	11.9167	35.0833	7.3835	17.9843
4736.0236	23.3636	41.8603	10.4377	39.9964	10.1963	35.8775	17.2402	37.1591	20.1191	55.2973	17.4268	62.3293	11.0595	31.8526	6.8830	16.3005
4744.0236	22.3097	40.4954	9.5259	38.5495	9.2700	35.0097	16.3007	36.1192	18.7831	53.5445	16.4530	60.4716	10.3795	30.9807	6.6239	15.9226
4752.0237	21.4672	39.0466	9.4897	36.5553	9.4264	33.7154	16.0596	34.9402	17.7313	51.2947	16.1244	58.0014	10.2700	29.9247	6.4439	15.4779
4760.0237	19.6113	35.9874	8.0967	33.9862	8.1151	31.4818	14.9003	32.7188	17.0295	47.5559	14.3815	53.9176	9.2724	27.8308	6.0660	14.4654
4768.0238	18.7772	34.8423	7.9156	32.1520	8.1243	30.1527	14.3068	31.2678	16.6784	45.6057	13.8731	51.7803	8.7800	26.6931	5.5478	13.9679
4776.0238	16.8554	31.3526	7.2188	28.6185	7.5065	26.9253	12.7900	27.8973	16.3190	40.8030	12.5778	46.3970	8.0827	23.7718	5.0487	12.5286
4784.0238	15.9113	29.4219	6.8114	26.8825	7.2574	25.3566	12.4788	26.6440	14.2046	38.2931	11.8705	43.9009	7.8493	22.4299	4.9937	11.9977
4792.0239	14.7161	27.0539	6.7954	24.1832	7.6135	23.0777	11.9409	24.4670	10.0091	34.8303	11.3525	40.0658	7.8920	20.5510	4.7808	11.1073
4800.0239	11.8458	22.4989	4.8181	20.1425	5.7196	19.3287	9.2559	20.1018	7.1247	29.0562	8.8176	33.4052	6.4422	16.9729	3.9854	9.1962
4808.0240	10.1297	20.0179	3.8648	17.3732	4.9221	16.8606	7.7359	17.2007	7.3912	25.5554	7.3334	29.3198	5.2246	14.7149	3.0366	8.0035
4816.0240	8.5115	16.8065	3.5181	14.2462	4.6375	13.8746	6.7839	14.2081	9.7770	21.1752	6.3495	24.2015	4.7348	12.0705	2.6163	6.6125
4824.0240	7.6630	15.2023	3.1424	12.7165	4.2421	12.4751	6.4093	12.9274	9.4264	19.0309	5.8122	21.8355	4.5654	10.6803	2.6359	5.9996
4832.0241	6.5519	13.4290	2.9135	10.3359	4.2480	10.4253	5.7194	10.7818	5.8070	16.2155	5.2332	18.6786	4.2894	8.7609	2.2695	5.1414
4840.0241	5.2302	10.9181	2.1292	8.3879	3.4243	8.5281	4.7239	8.8265	5.1077	13.1602	4.2039	15.1789	3.9549	6.9533	2.2404	4.1919
4848.0242	4.9670	10.9768	1.8832	8.1238	3.1275	8.5031	4.2382	8.3863	3.6183	13.1337	3.9664	14.8203	3.5492	6.8639	1.8753	4.0141
4856.0242	2.9228	8.4452	0.4045	5.3779	1.5796	6.1420	1.9003	5.0104	2.4490	9.7168	2.1090	10.3613	1.9439	4.5025	0.7292	2.5556
4864.0242	3.5194	9.2667	0.5233	6.5824	1.4346	7.4491	2.6968	6.6426	7.3128	11.1310	2.5650	11.9672	2.3591	5.6045	1.3403	3.1363
4872.0243	5.8926	12.7198	2.6797	9.2282	3.6052	10.3248	5.4927	10.3612	7.3517	15.2576	5.1434	16.7822	4.1255	8.4586	2.3190	4.7516
4880.0243	4.5767	10.9043	1.5952	7.6924	2.4765	9.0972	4.1470	8.6440	3.3335	13.1278	3.8775	14.0745	3.2086	7.3064	1.7883	3.9699
4888.0244	4.2888	11.0749	0.9247	7.9452	1.7009	9.7469	3.5484	8.8211	4.0292	13.6165	3.3420	14.2714	2.6275	7.8658	1.4867	4.0349
4896.0244	4.3513	11.1719	1.3118	7.6885	1.9868	9.7945	3.4395	8.7037	4.5476	13.5621	3.6534	13.9804	2.6590	8.0348	1.3462	4.0055
4904.0244	3.8424	10.0886	0.7647	7.3452	1.2922	9.5052	3.0809	8.4724	6.3717	12.6336	3.0244	12.9167	2.2882	7.8667	1.3423	3.8085
4912.0245	4.7999	11.4244	1.6445	8.4617	2.3351	10.8333	4.5819	10.2931	8.7829	14.3206	3.9965	14.8429	3.0354	9.3036	1.7295	4.5605
4920.0245	4.3660	10.3335	1.7454	7.3346	2.3736	9.7966	4.3218	9.3760	6.8771	12.7724	3.9264	13.1956	3.0868	8.3955	1.7697	4.1630
4928.0246	3.8527	9.4987	1.2423	6.7912	1.7274	9.2833	3.7436	8.7888	5.3533	11.8814	3.3285	12.2666	2.5060	7.9520	1.5215	3.9112
4936.0246	3.2078	8.5058	0.9600	5.7691	1.6433	8.3991	3.4505	7.8170	6.1939	10.5569	2.7052	10.6183	1.9649	7.3179	0.9997	3.4792
4944.0246	2.5683	7.0443	0.5479	4.7786	1.1892	7.3136	3.0826	6.9682	7.5784	8.8241	2.1227	8.9562	1.7476	6.3296	1.0648	3.0865
4952.0247	3.3572	7.9670	1.3713	5.3519	1.9969	7.8747	4.1068	8.0726	6.4115	9.7662	3.0744	10.4432	2.4480	6.8699	1.5471	3.6246
4960.0247	2.2198	6.2485	0.6543	3.6683	1.4052	6.2537	3.1757	6.2007	3.8904	7.4781	2.0817	7.7469	1.8223	5.3272	1.0968	2.8032
4968.0248	1.3795	5.2157	-0.2399	2.8399	0.4632	5.3999	2.2781	5.0483	4.3806	6.2635	1.0851	6.2945	1.0012	4.4019	0.6712	2.2896
4976.0248	1.9382	5.9175	0.6138	2.9570	1.3485	5.4835	2.8413	5.3311	3.1553	6.7408	1.9227	6.9691	1.5202	4.5216	0.8159	2.4837
4984.0248	1.3003	4.5437	0.1872	2.0871	0.9330	4.4025	2.0724	4.2012	0.6751	5.1347	1.3626	5.3172	1.4294	3.5347	0.8536	1.9969
4992.0249	1.3256	4.7039	-0.0386	2.3485	0.6562	4.6283	2.1110	4.4913	2.0004	5.4442	1.1738	5.7985	1.1467	3.7155	0.7759	2.1355
5000.0249	1.0431	4.3610	-0.1000	1.6952	0.6134	4.1322	2.0510	4.0040	3.8812	4.7933	0.9859	5.0553	0.8553	3.2382	0.5396	1.9411
5008.0250	-0.1308	2.8704	-1.3440	0.6401	-0.5941	3.0588	0.5937	2.3842	4.5571	3.1280	-0.4226	2.9939	-0.1335	2.1603	-0.0264	1.2390
5016.0250	-0.4112	2.5825	-1.5925	0.3442	-0.8238	2.6959	0.1283	1.8006	5.3075	2.7402	-0.8077	2.4833	-0.5896	1.8619	-0.4085	1.0175
5024.0250	0.1791	2.6980	-0.7706	0.6451	-0.0277	2.9201	0.9212	2.6275	5.8121	2.8899	0.0244	3.0764	0.3070	2.2569	0.2461	1.3880
5032.0251	0.7536	3.2526	-0.2475	1.2518	0.5056	3.5851	1.5494	3.6689	3.5142	3.6477	0.6709	4.2518	0.9421	3.0008	0.7172	1.8837
5040.0251	-0.0505	2.1907	-0.8162	0.1083	-0.1519	2.5597	0.8236	2.4118	1.0386	2.2280	-0.0926	2.5341	0.1045	2.0191	0.1719	1.3357
5048.0252	-0.6420	1.1932	-1.3781	-0.5305	-0.7543	1.8241	0.1855	1.5861	2.2572	1.1044	-0.7862	1.3373	-0.3820	1.3295	-0.0358	0.9719
5056.0252	-0.9128	0.8743	-1.5674	-0.9324	-0.7207	1.3789	-0.2281	0.9823	1.1037	0.5913	-1.0835	0.8265	-0.4744	0.9545	-0.2234	0.7933
5064.0252	-1.5247	-0.1893	-1.9323	-1.8532	-1.0514	0.4861	-0.6311	0.0564	-1.0320	-0.7514	-1.5802	-0.7089	-0.7150	0.1135	-0.3435	0.3606
5072.0253	-0.8014	0.4379	-1.1842	-1.1475	-0.3856	1.1206	0.2510	1.1591	-0.7189	0.0726	-0.7192	0.4587	0.0445	0.7916	0.2189	0.8170
5080.0253	-0.7665	0.2139	-0.8390	-1.5372	0.0343	0.6993	0.2119	0.8343	-2.3249	-0.4205	-0.4618	0.0895	0.3621	0.4790	0.3274	0.7484
5088.0254	-1.0951	-0.4757	-1.0877	-1.9708	-0.2081	0.2599	0.0026	0.4713	-1.8003	-1.1934	-0.8081	-0.6743	0.1885	0.1229	0.2937	0.5826
5096.0254	-0.8120	-0.2325	-0.7117	-1.7578	0.1082	0.4228	0.2965	0.7702	-1.0770	-0.9129	-0.4862	-0.3172	0.2928	0.3877	0.3083	0.7124
5104.0254	-1.6138	-1.5780	-1.1829	-2.8934	-0.4552	-0.7923	-0.7029	-0.7643	-2.5442	-2.6115	-1.1600	-2.3978	-0.2009	-0.7542	-0.0254	0.0245
5112.0255	-0.9738	-0.9397	-0.6324	-2.1193	0.0655	-0.1546	0.2126	0.3041	0.8628	-1.7294	-0.5257	-1.2533	0.3569	-0.1150	0.4089	0.4312
5120.0255	-0.1531	-0.0719	0.2902	-1.4851	1.0200	0.3569	1.2730	1.3309	2.1193	-0.8181	0.4273	0.0844	1.0663	0.4632	0.8135	0.9045
5128.0255	-1.1325	-1.4777	-0.5575	-2.5867	0.1532	-0.7472	-0.0101	-0.2068	0.2502	-2.4823	-0.6062	-1.9035	0.3129	-0.5652	0.3455	0.2592
5136.0256	-0.7744	-0.9613	-0.2083	-2.1761	0.5944	-0.3548	0.3557	0.2589	2.6744	-1.8822	-0.2603	-1.2378	0.5888	-0.1245	0.4243	0.4736
5144.0256	-0.4466	-0.6823	0.2763	-2.1214	1.1078	-0.3485	0.8085	0.5185	1.2904	-1.7264	0.2702	-0.8756	1.0955	-0.1379	0.7295	0.6110
5152.0257	-0.8442	-1.1851	-0.2008	-2.4354	0.5652	-0.6429	0.2878	0.0598	-2.0096	-2.2340	-0.1850	-1.4585	0.7658	-0.4733	0.6130	0.4116
5160.0257	-0.3183	-0.5523	0.3566	-1.9077	1.1695	-0.2315	0.8400	0.6484	0.0777	-1.5175	0.3922	-0.6117	1.2308	-0.0300	0.8261	0.6663
5168.0257	-0.3868	-0.6918	0.3545	-2.0095	1.1590	-0.4567	0.5232	0.2548	0.8867	-1.7309	0.3831	-0.9428	1.3262	-0.2886	0.8463	0.4958
5176.0258	-0.6503	-0.9121	0.0166	-2.0936	0.8760	-0.5896	-0.0304	-0.1925	-0.1138	-1.9113	-0.0041	-1.2986	1.0347	-0.3865	0.5885	0.3188
5184.0258	-0.3055	-0.7875	0.4047	-1.7474	1.3149	-0.4214	0.4737	0.2964	-0.7414	-1.6718	0.3604	-0.8382	1.4457	-0.0984	0.8586	0.5159
5192.0259	-0.2534	-0.7780	0.3542	-1.5569	1.1638	-0.2154	0.5733	0.5892	-1.8242	-1.5142	0.3765	-0.6250	1.4463	0.0911	0.9685	0.6108
5200.0259	0.0462	-0.3127	0.6988	-1.2970	1.5622	0.0871	0.8976	0.9363	0.0869	-1.0382	0.7413	-0.1388	1.7279	0.3954	1.0624	0.7672
5208.0259	0.4614	-0.0808	1.2090	-0.9556	2.0802	0.2354	1.4406	1.3878	1.2716	-0.7518	1.2472	0.3229	2.2362	0.6054	1.3854	0.9373
5216.0260	-0.3782	-1.0062	0.2792	-1.6453	1.0729	-0.4514	0.4429	0.2715	-1.2895	-1.7426	0.1839	-1.0094	1.1877	-0.0720	0.7424	0.4353
5224.0260	-1.1476	-1.8097	-0.5024	-2.3786	0.3677	-1.1954	-0.4213	-0.9137	-0.5999	-2.7365	-0.6985	-2.4092	0.5427	-0.8945	0.2976	-0.1022
5232.0261	-0.4397	-0.9201	0.0717	-1.5011	0.9136	-0.4146	0.5608	0.2361	1.3314	-1.5944	0.0551	-1.0582	1.2212	-0.2194	0.8043	0.3282
5240.0261	-0.3896	-0.7594	0.0875	-1.4555	0.8224	-0.3253	0.7777	0.4210	0.4026	-1.4072	0.0509	-0.8255	0.9157	-0.1258	0.6317	0.3962
5248.0261	-0.6502	-1.1673	-0.1490	-1.7515	0.5393	-0.7130	0.3371	-0.0989	2.0117	-1.9109	-0.2431	-1.3927	0.6910	-0.5240	0.5126	0.1811
5256.0262	-0.2035	-0.4946	0.1976	-1.0790	0.9638	-0.0962	0.6413	0.4927	3.5899	-1.0324	0.2075	-0.5156	1.1947	0.0665	0.7608	0.4244
5264.0262	-0.8428	-1.1245	-0.4499	-1.6079	0.4649	-0.6116	0.0604	-0.3991	1.7785	-1.7429	-0.5618	-1.6554	0.6190	-0.4372	0.2940	-0.0077
5272.0263	-0.7628	-1.0237	-0.5350	-1.3488	0.2939	-0.3726	0.3910	0.0255	1.2293	-1.4730	-0.5754	-1.2955	0.5466	-0.2554	0.3848	0.1197
5280.0263	0.0151	-0.0054	0.1960	-0.5651	1.0267	0.5361	1.4019	1.3429	0.2836	-0.2605	0.3286	0.2579	1.2686	0.6414	0.8669	0.7004
5288.0263	-0.8022	-0.9835	-0.5217	-1.4191	0.4318	-0.3257	0.4165	-0.0027	-0.9166	-1.4600	-0.5507	-1.3908	0.6764	-0.1934	0.3875	0.1086
5296.0264	-0.7188	-0.7996	-0.5171	-1.1908	0.2636	-0.0980	0.5001	0.2166	0.2197	-1.1370	-0.5728	-1.1242	0.3322	0.0596	0.1883	0.1656
5304.0264	-0.2888	-0.2658	-0.0754	-0.8207	0.6629	0.4246	1.1637	1.0377	-1.4012	-0.5031	-0.0361	-0.2823	0.6948	0.5973	0.4556	0.5210
5312.0265	-1.2512	-1.3328	-1.1033	-1.6547	-0.2255	-0.4282	-0.0993	-0.4157	-4.4019	-1.7374	-1.1040	-1.9566	0.1415	-0.3559	0.0913	-0.1119
5320.0265	-1.3777	-1.2933	-1.2696	-1.6941	-0.5012	-0.4380	-0.4260	-0.6787	-2.3430	-1.6950	-1.2986	-2.1201	-0.2408	-0.4037	-0.1917	-0.2373
5328.0265	-0.7827	-0.6439	-0.6276	-1.1698	0.0327	0.1206	0.3718	0.2377	1.5274	-0.9373	-0.6150	-1.1576	0.1620	0.1839	0.0927	0.1364
5336.0266	-0.6781	-0.3901	-0.5946	-0.9542	0.1161	0.2590	0.2822	0.2536	0.9283	-0.6382	-0.5231	-0.8727	0.3137	0.2677	0.1413	0.1599
5344.0266	-0.8712	-0.5010	-0.7080	-1.2478	0.0290	0.0277	-0.2029	-0.2587	-1.3719	-0.8914	-0.6412	-1.2608	0.2269	0.0155	-0.0063	-0.0117
5352.0267	-0.5463	-0.2111	-0.4899	-0.8223	0.2645	0.5179	0.3155	0.5496	-0.6500	-0.4149	-0.3426	-0.5053	0.5727	0.5426	0.3192	0.3396
5360.0267	-0.2509	0.2822	-0.3789	-0.2944	0.3930	1.0696	0.7870	1.2714	-1.4406	0.3133	-0.1792	0.3755	0.5964	1.1190	0.3568	0.6407
5368.0267	-0.9785	-0.5074	-1.0150	-1.0933	-0.3302	0.2378	-0.2570	-0.0768	-3.2001	-0.7108	-0.9409	-1.0758	-0.1760	0.2489	-0.2014	0.0517
5376.0268	-0.7983	-0.2539	-0.9117	-0.8201	-0.3131	0.4724	-0.3567	0.1071	-0.8992	-0.3810	-0.7778	-0.6683	-0.0644	0.4459	-0.1022	0.1571
5384.0268	-0.1312	0.6445	-0.2922	-0.0824	0.3288	1.3367	0.3832	1.2171	0.2540	0.7203	-0.0264	0.6457	0.5677	1.3257	0.2809	0.6484
5392.0269	-0.0602	0.6674	-0.2303	0.0423	0.3870	1.4725	0.5910	1.4351	-0.3552	0.8237	0.0764	0.7213	0.7346	1.4543	0.4245	0.6979
5400.0269	0.3925	1.1751	0.0958	0.6143	0.6995	2.0147	1.1371	2.2834	-0.5175	1.5312	0.4822	1.7613	1.0497	2.0301	0.6930	1.0842
5408.0269	0.1430	0.9131	-0.1033	0.3022	0.5469	1.8186	0.7888	1.9233	-2.2168	1.1811	0.2580	1.3108	0.9120	1.8558	0.5679	0.9572
5416.0270	0.0407	0.9371	-0.2033	0.1851	0.4849	1.7679	0.6667	1.7438	-2.7622	1.1470	0.1717	1.1689	0.8394	1.7555	0.4796	0.8836
5424.0270	0.1011	1.1270	-0.1605	0.1803	0.4719	1.7934	0.7695	1.8220	-3.8555	1.2927	0.2282	1.4108	0.6988	1.7463	0.3971	0.9425
5432.0271	-0.5331	0.3037	-0.8095	-0.4083	-0.2954	1.0974	-0.0756	0.7975	-5.0749	0.3605	-0.4902	0.2057	0.0752	0.9941	0.0603	0.4686
5440.0271	0.3507	1.3629	-0.0684	0.6998	0.4521	2.0992	0.9932	2.2173	-2.2846	1.7609	0.3875	1.9167	0.8236	2.0042	0.5630	1.0477
5448.0271	0.9144	2.0749	0.5093	1.2526	1.0812	2.8046	1.8428	3.2456	-0.6980	2.6203	1.0309	2.9562	1.3380	2.7652	0.8672	1.4832
5456.0272	0.0783	1.2405	-0.3212	0.3919	0.2343	2.0822	0.8235	2.0377	-1.6886	1.5725	0.1021	1.5265	0.4984	1.9897	0.3154	0.9693
5464.0272	-0.0574	1.2506	-0.5398	0.2750	-0.0041	1.9599	0.6111	1.8173	-2.9602	1.5277	-0.1079	1.5110	0.2000	1.8027	0.1314	0.9083
5472.0273	0.2970	1.5245	-0.1859	0.6178	0.3082	2.1772	0.9893	2.2675	-3.4311	1.8781	0.3198	2.0732	0.6275	2.0086	0.4596	1.0990
5480.0273	0.8728	2.1510	0.4060	1.1894	0.9068	2.6781	1.5350	2.9959	-1.8826	2.6155	0.9958	3.0266	1.2576	2.5206	0.8445	1.4256
5488.0273	0.3377	1.5660	-0.0636	0.5819	0.3843	2.1821	0.8337	2.1807	-1.3579	1.8718	0.4113	2.0209	0.6428	2.0473	0.4203	1.0855
5496.0274	-0.0352	1.0149	-0.4210	0.2228	-0.0817	1.8173	0.4590	1.7111	-0.0674	1.2869	-0.0548	1.2819	0.1232	1.7286	0.1370	0.8503
5504.0274	0.5068	1.5919	0.1263	0.7390	0.5028	2.2808	1.2902	2.5657	1.0478	1.9768	0.5260	2.2393	0.5812	2.2384	0.4308	1.2098
5512.0275	-0.4110	0.4292	-0.7068	-0.2630	-0.3282	1.2917	0.1859	1.1312	0.0875	0.5577	-0.4487	0.4324	-0.1517	1.2348	-0.0373	0.5825
5520.0275	-0.1114	0.6887	-0.3417	-0.0304	-0.0104	1.5248	0.5956	1.5519	1.7217	0.8567	-0.0501	0.8050	0.1806	1.4753	0.1928	0.7394
5528.0275	0.4671	1.3149	0.3841	0.3616	0.6933	2.0368	1.4816	2.4305	0.8453	1.5310	0.7488	1.6451	0.7923	2.0275	0.5615	1.0990
5536.0276	-0.5362	-0.0202	-0.4593	-0.7737	-0.1992	0.9561	0.0169	0.7569	-1.3316	-0.0897	-0.2540	-0.4197	0.0417	0.9878	0.0540	0.3990
5544.0276	-0.0304	0.4533	0.0869	-0.3459	0.3392	1.2782	0.5666	1.3757	0.4073	0.4341	0.3431	0.3759	0.5772	1.3259	0.4075	0.6824
5552.0277	-0.2920	0.1269	-0.1771	-0.6525	0.0542	0.8454	0.5052	0.9516	0.2387	0.0001	0.0244	-0.1339	0.2427	0.8264	0.2325	0.4578
5560.0277	-0.9271	-0.6823	-0.8251	-1.2563	-0.6679	0.1237	-0.2894	-0.0675	2.0995	-0.9423	-0.7717	-1.3211	-0.5169	0.0985	-0.2270	0.0003
5568.0277	-0.1906	0.0877	-0.0485	-0.6125	-0.0703	0.7455	0.7026	1.0416	5.0221	-0.0385	0.0749	-0.1009	-0.0496	0.7349	0.1424	0.4521
5576.0278	-0.5858	-0.4546	-0.3690	-1.0782	-0.4887	0.1895	0.2011	0.2851	4.1722	-0.7164	-0.3213	-0.9902	-0.4565	0.1525	-0.1093	0.0983
5584.0278	-0.5712	-0.5690	-0.3755	-0.9621	-0.3478	0.2156	0.2054	0.3344	5.1714	-0.7569	-0.3639	-1.0082	-0.2567	0.2584	-0.0119	0.1197
5592.0279	-0.3297	-0.3859	-0.1906	-0.6681	-0.0536	0.5571	0.7706	0.9923	4.7703	-0.4431	-0.1294	-0.4812	0.1072	0.6463	0.2806	0.3921
5600.0279	-0.4722	-0.6063	-0.3621	-0.8001	-0.1655	0.2627	0.5302	0.6441	4.3290	-0.7253	-0.3274	-0.7238	0.0441	0.3315	0.2407	0.2633
5608.0279	-0.3395	-0.5243	-0.3013	-0.5540	-0.1078	0.3975	0.7204	0.9024	5.5620	-0.5310	-0.2843	-0.4288	0.0662	0.5071	0.2835	0.3609
5616.0280	-1.4361	-1.7183	-1.3503	-1.7011	-1.1790	-0.5629	-0.5470	-0.6311	2.6377	-1.9793	-1.4883	-2.3643	-1.0234	-0.4578	-0.4322	-0.3000
5624.0280	-1.6454	-1.8441	-1.4602	-2.0571	-1.1901	-0.8879	-0.9731	-1.2186	2.1818	-2.3114	-1.6131	-2.8424	-1.0270	-0.8361	-0.5421	-0.5079
5632.0281	-1.0729	-1.2118	-0.9577	-1.3904	-0.6241	-0.2567	-0.1034	-0.2029	2.8813	-1.4739	-1.0154	-1.7504	-0.4363	-0.1886	-0.1314	-0.0966
5640.0281	-1.3957	-1.6092	-1.1890	-1.7790	-0.7742	-0.5908	-0.4425	-0.7198	-0.0782	-1.9733	-1.2973	-2.4484	-0.5727	-0.4924	-0.2818	-0.3242
5648.0281	-1.1909	-1.4095	-0.8003	-1.7896	-0.4546	-0.6754	-0.4412	-0.8495	-0.0891	-1.9068	-0.8854	-2.4182	-0.2496	-0.6145	-0.1491	-0.3678
5656.0282	-1.1207	-1.4191	-0.6808	-1.7963	-0.3795	-0.7965	-0.5450	-0.9566	0.9207	-1.9689	-0.8082	-2.3819	-0.2429	-0.7007	-0.1609	-0.3780
5664.0282	-0.8932	-1.2477	-0.3761	-1.6529	0.1414	-0.7139	-0.3136	-0.7582	-0.1693	-1.8239	-0.4943	-2.0852	0.3034	-0.5540	0.1001	-0.2469
5672.0283	-0.5645	-0.9184	-0.0442	-1.3491	0.4092	-0.4172	0.1931	-0.2192	-2.4313	-1.4124	-0.0467	-1.5353	0.7037	-0.3082	0.4260	-0.0461
5680.0283	-0.7364	-1.1265	-0.1352	-1.6740	0.2215	-0.7279	-0.0627	-0.6053	-2.9727	-1.7629	-0.1817	-1.9201	0.4359	-0.6325	0.2570	-0.1929
5688.0283	-0.2006	-0.5684	0.4805	-1.2209	0.8753	-0.3616	0.6129	0.0342	0.2988	-1.1621	0.4641	-1.1659	1.0198	-0.2512	0.5873	0.0695
5696.0284	0.0257	-0.3302	0.6645	-0.9110	1.0793	-0.1298	0.8314	0.3598	0.0156	-0.8186	0.6739	-0.7239	1.2266	0.0075	0.7129	0.2095
5704.0284	-0.2230	-0.5966	0.5138	-1.2731	1.0397	-0.4136	0.3000	-0.1954	-2.8692	-1.2388	0.5406	-1.2700	1.3437	-0.2922	0.7083	0.0234
5712.0285	-0.2616	-0.5476	0.3937	-1.1931	0.8249	-0.2635	0.3972	-0.0794	-1.7158	-1.1132	0.5203	-1.3124	1.3424	-0.2800	0.7985	-0.0080
5720.0285	-0.1785	-0.3878	0.3609	-0.9788	0.8661	-0.2147	0.5364	0.0360	-0.1451	-0.8880	0.4298	-0.9762	1.1917	-0.2018	0.6724	0.0532
5728.0285	0.0035	-0.3032	0.5452	-0.8128	1.0771	-0.1964	0.6218	0.1778	-1.3945	-0.7787	0.6077	-0.6539	1.3886	-0.1260	0.7940	0.1557
5736.0286	-0.7544	-1.0668	-0.3040	-1.4398	0.0040	-0.6684	-0.3329	-0.7290	-3.1694	-1.5789	-0.3033	-1.8219	0.3522	-0.6425	0.2168	-0.2677
5744.0286	-1.3064	-1.6071	-0.8277	-1.9559	-0.3243	-1.1766	-1.0165	-1.6349	-2.0906	-2.2624	-0.9724	-2.8383	-0.0912	-1.1106	-0.2083	-0.6470
5752.0287	-0.8693	-1.3142	-0.5538	-1.2546	-0.0829	-0.6884	-0.2956	-0.7539	-0.6112	-1.6588	-0.6041	-2.0212	0.3693	-0.6293	0.2338	-0.3535
5760.0287	-0.6141	-1.0200	-0.3606	-0.9730	0.0389	-0.3534	0.0233	-0.2108	-1.2384	-1.2558	-0.3787	-1.3826	0.4140	-0.2478	0.3185	-0.0933
5768.0287	-0.8665	-1.2505	-0.4351	-1.4702	0.1182	-0.7648	-0.3294	-0.8328	-2.0676	-1.7477	-0.5161	-2.0218	0.4143	-0.6553	0.1802	-0.3109
5776.0288	-1.8117	-2.2524	-1.4814	-2.2555	-1.0723	-1.6129	-1.3478	-2.1620	-3.5221	-2.8556	-1.6856	-3.6115	-0.7757	-1.5953	-0.5226	-0.9593
5784.0288	-1.9910	-2.4209	-1.5937	-2.5169	-1.0132	-1.8763	-1.5180	-2.5282	-3.2663	-3.1506	-1.8960	-3.9725	-0.8856	-1.8022	-0.7071	-1.0832
5792.0289	-1.3964	-1.9722	-1.0046	-1.9009	-0.3824	-1.3382	-0.8137	-1.5986	-2.5908	-2.5299	-1.1493	-3.0442	0.0791	-1.2722	0.0005	-0.6971
5800.0289	-1.4382	-1.9839	-1.1193	-1.8471	-0.5791	-1.3611	-1.0482	-1.7183	-2.6593	-2.4997	-1.2720	-3.0078	-0.1374	-1.3015	-0.1233	-0.7356
5808.0289	-1.2230	-1.5584	-0.7972	-1.7663	-0.0835	-1.2398	-0.6945	-1.5921	0.0679	-2.1850	-0.9504	-2.7730	0.2092	-1.2204	-0.0496	-0.6808
5816.0290	-1.2074	-1.5972	-0.8712	-1.5972	-0.2601	-1.1160	-0.6815	-1.4473	-1.4971	-2.0855	-0.9578	-2.6903	0.2169	-1.1318	0.0475	-0.6642
5824.0290	-1.6399	-2.2952	-1.1213	-2.1869	-0.3517	-1.7633	-1.4969	-2.3812	-5.0895	-2.9749	-1.3997	-3.6575	-0.0307	-1.5704	-0.2735	-0.9702
5832.0291	-1.4524	-2.0960	-0.9689	-1.9325	-0.2517	-1.4143	-0.9014	-1.8028	-3.1606	-2.6453	-1.1676	-3.3701	0.1895	-1.2819	-0.0350	-0.8187
5840.0291	-1.5782	-2.0037	-1.2669	-1.8585	-0.7402	-1.2422	-0.8514	-1.6748	-3.2764	-2.4214	-1.4638	-3.2678	-0.4606	-1.1649	-0.3734	-0.8237
5848.0291	-2.1156	-2.7512	-1.6617	-2.5517	-0.9366	-1.9935	-1.5017	-2.6587	-3.0835	-3.4115	-2.0768	-4.3994	-0.8640	-1.7804	-0.7654	-1.1927
5856.0292	-1.6617	-2.2114	-1.4659	-1.8329	-0.9489	-1.3167	-0.7901	-1.6085	-1.7335	-2.5599	-1.6943	-3.2847	-0.6457	-1.2272	-0.3904	-0.8111
5864.0292	-1.4508	-1.7811	-1.0916	-1.8573	-0.5252	-1.3108	-0.9134	-1.7541	-5.1155	-2.2992	-1.3242	-2.9763	-0.4619	-1.1921	-0.4689	-0.7705
5872.0293	-2.2896	-2.9638	-1.8571	-2.7671	-1.3560	-2.3495	-2.0888	-3.2137	-3.7231	-3.7303	-2.2249	-4.7258	-1.1026	-2.2674	-0.8351	-1.4064
5880.0293	-1.5618	-1.9774	-1.5035	-1.6824	-1.2980	-1.3801	-1.1799	-1.7841	2.0789	-2.3502	-1.6971	-2.9136	-1.0173	-1.4282	-0.5348	-0.8346
5888.0293	-0.5346	-0.7365	-0.2184	-0.9445	0.2844	-0.5588	0.1055	-0.5388	2.0872	-1.1049	-0.3390	-1.3864	0.3168	-0.4945	0.0715	-0.2478
5896.0294	-1.2584	-1.6989	-1.0355	-1.4602	-0.6456	-1.0448	-0.7137	-1.3470	-0.9361	-2.0207	-1.1789	-2.6466	-0.3007	-1.0085	-0.1953	-0.6694
5904.0294	-1.3100	-1.6475	-1.0734	-1.5696	-0.6560	-1.2486	-1.0467	-1.6979	-2.5435	-2.0701	-1.3017	-2.6205	-0.5843	-1.1555	-0.4887	-0.7339
5912.0295	-1.1248	-1.6920	-0.7740	-1.4885	-0.3137	-1.2344	-0.4281	-1.3572	-3.2527	-2.0945	-0.9816	-2.6083	-0.1312	-1.1286	-0.1493	-0.6681
5920.0295	-1.3160	-1.9507	-1.2449	-1.3240	-1.0525	-1.0848	-0.5203	-1.1487	-4.5805	-2.0751	-1.4139	-2.5675	-0.7382	-1.0043	-0.3028	-0.6511
5928.0295	-1.1813	-1.8077	-0.7558	-1.5971	-0.2935	-1.3743	-0.6595	-1.5759	-3.5110	-2.2467	-1.0936	-2.7519	-0.3829	-1.1211	-0.4052	-0.7146
5936.0296	-1.0758	-1.7263	-0.8351	-1.2543	-0.6300	-0.9773	-0.1694	-0.9333	-0.7287	-1.9107	-1.0603	-2.4405	-0.4934	-0.8386	-0.2289	-0.5739
5944.0296	-0.6993	-1.0157	-0.5876	-0.8292	-0.3747	-0.4559	0.1904	-0.2727	-3.6568	-1.1023	-0.7363	-1.3213	-0.4474	-0.3076	-0.2250	-0.2061
5952.0297	-1.2995	-1.9651	-0.9011	-1.7426	-0.4276	-1.4107	-0.5779	-1.5304	-5.9126	-2.4188	-1.1598	-2.9004	-0.3098	-1.2281	-0.2632	-0.7143
5960.0297	-1.1667	-1.7296	-1.1241	-1.1875	-0.9962	-0.9152	-0.4196	-0.9221	-2.0720	-1.8414	-1.2659	-2.2383	-0.7004	-0.8612	-0.2488	-0.5351
5968.0297	-0.4263	-0.7222	-0.0448	-0.8492	0.4627	-0.5642	0.0996	-0.5072	-1.3028	-1.0425	-0.2670	-1.2271	0.2334	-0.3195	-0.0728	-0.1956
5976.0298	-1.4906	-2.2425	-1.1546	-1.7181	-0.6791	-1.4189	-1.0181	-1.7813	-1.6345	-2.5929	-1.4631	-3.2936	-0.4471	-1.1960	-0.3608	-0.8517
5984.0298	-0.6228	-0.9852	-0.5702	-0.6082	-0.2658	-0.2904	-0.1031	-0.2295	1.3325	-0.9855	-0.7586	-1.1523	-0.2927	-0.0536	-0.1758	-0.1322
5992.0299	-0.0144	-0.4651	0.3719	-0.4073	0.9380	-0.1556	0.7771	0.2770	1.4523	-0.6294	0.1717	-0.5961	0.7609	0.1727	0.3153	0.1143
6000.0299	-0.9577	-1.7142	-0.9754	-0.7711	-0.7565	-0.6273	-0.2264	-0.5072	1.0834	-1.6115	-1.1457	-1.9302	-0.3711	-0.4479	-0.0303	-0.3793
6008.0299	0.1669	-0.2405	0.3350	0.0893	0.8332	0.1556	0.5849	0.5285	2.8925	-0.1776	0.1696	0.0077	0.7314	0.5036	0.3383	0.2541
6016.0300	-0.5015	-1.2218	-0.2982	-0.5449	0.1831	-0.4975	0.1174	-0.2870	3.0023	-1.2337	-0.5598	-1.4065	0.2533	-0.1640	0.1141	-0.1990
6024.0300	-0.7838	-1.3029	-0.8941	-0.5001	-0.6386	-0.4020	-0.2227	-0.3210	4.7418	-1.1475	-1.1840	-1.3304	-0.7182	-0.1095	-0.3724	-0.2222
6032.0301	1.0868	0.6989	1.4495	0.7788	2.1425	0.8328	1.9810	1.7944	6.9795	0.8088	1.3127	1.3075	1.8412	1.2769	0.9409	0.7895
6040.0301	0.8918	0.3215	0.9591	1.0169	1.3605	1.0665	2.1746	2.1843	4.4418	0.7979	0.9991	1.1664	1.6117	1.3548	1.1519	0.7675
6048.0301	0.8632	0.6146	1.1737	0.6015	1.7004	0.7387	1.5820	1.4648	2.3170	0.7123	1.1082	1.0582	1.4884	1.0825	0.7538	0.6399
6056.0302	0.4105	-0.1146	0.9069	-0.0405	1.4876	0.1189	1.0149	0.6120	3.0283	-0.2452	0.8207	-0.1838	1.5937	0.4060	0.8218	0.2465
6064.0302	0.3276	0.0527	0.3403	0.4126	0.6981	0.6154	0.8900	1.0938	3.9717	0.2865	0.3390	0.4888	0.8553	0.8280	0.5727	0.4395
6072.0303	2.0013	1.9588	2.5655	1.2953	3.3355	1.3846	2.5743	2.5266	5.1686	1.8996	2.6259	2.8081	3.0077	1.7422	1.5241	1.2532
6080.0303	2.1433	1.8874	2.3719	1.8727	2.7237	1.8344	3.2215	3.4045	4.5452	2.2727	2.6590	3.2571	2.9643	1.9959	1.9480	1.4183
6088.0303	2.0745	2.2028	2.1931	1.8502	2.5739	1.9914	3.0000	3.4019	1.1771	2.5832	2.4106	3.6712	2.3427	2.2402	1.4322	1.5306
6096.0304	0.7058	0.4819	1.1642	0.0483	1.6830	0.3134	1.2903	0.9950	-2.1229	0.2446	1.1857	0.7262	1.6199	0.5254	0.8583	0.5333
6104.0304	-0.1251	-0.2574	-0.2265	-0.1172	-0.1236	0.1135	0.2247	0.3751	-0.8727	-0.2107	-0.1434	0.0104	0.1572	0.1031	0.2748	0.1729
6112.0305	2.0004	2.1631	2.2993	1.4583	2.8207	1.6062	2.6033	2.8358	2.6753	2.2243	2.4932	3.3388	2.5801	1.8147	1.4555	1.3935
6120.0305	1.4176	1.1757	1.4562	1.2171	1.6986	1.2933	2.4609	2.6537	0.7518	1.4627	1.7309	2.4264	2.0183	1.3595	1.5026	1.1285
6128.0305	0.5583	0.7937	0.3375	0.6058	0.5396	0.7220	1.0267	1.3085	-1.9191	0.9539	0.4483	1.6221	0.3997	0.7547	0.3331	0.6572
6136.0306	1.1300	1.2066	1.4100	0.6082	1.8529	0.6281	1.4736	1.3629	-0.4717	1.0545	1.4792	1.8072	1.6032	0.7650	0.8275	0.7491
6144.0306	0.4083	0.2579	0.0172	0.7349	-0.0751	0.6878	0.8753	1.3859	-0.3052	0.6603	0.1884	1.3276	0.2326	0.6731	0.5205	0.5819
6152.0307	0.7281	1.0287	0.4854	0.7939	0.7669	0.8870	0.9961	1.4680	-0.7253	1.2113	0.5706	2.0321	0.5098	0.9937	0.3336	0.7979
6160.0307	0.7553	0.8490	0.5501	0.8480	0.6754	0.9230	1.3639	1.6608	0.2494	1.1126	0.7566	1.7347	0.8379	0.8868	0.7141	0.7220
6168.0307	0.6406	1.0252	0.1119	1.1435	-0.0270	1.1503	0.9306	1.6361	1.2661	1.5171	0.3086	2.0859	-0.0403	1.0724	0.2184	0.7092
6176.0308	1.1815	1.6492	1.1479	1.0401	1.2733	1.1268	1.0278	1.5629	1.3395	1.7370	1.3150	2.4540	1.0200	1.1599	0.5379	0.8556
6184.0308	0.7655	1.1397	0.3530	1.0307	-0.0315	1.2021	0.5626	1.5922	-0.1410	1.5132	0.6835	2.2027	0.2081	1.0482	0.4470	0.7724
6192.0309	0.4469	1.0757	0.0745	0.6595	-0.1172	0.8619	0.0232	0.8829	0.0704	1.2625	0.2205	1.7849	-0.3641	0.7991	-0.1658	0.5562
6200.0309	0.0236	0.4541	-0.4084	0.3714	-0.7003	0.5475	-0.2681	0.4520	1.5791	0.6693	-0.2354	0.8976	-0.5941	0.3679	-0.1633	0.2540
6208.0309	0.4006	1.1948	-0.3642	1.0174	-0.9020	1.2331	-0.0980	1.2549	1.6092	1.6617	-0.0653	2.2724	-0.8952	0.9906	-0.2209	0.6685
6216.0310	0.5049	1.3119	0.1166	0.6947	-0.1409	1.0850	-0.0063	1.0413	0.1624	1.4979	0.3212	2.0161	-0.3938	0.9839	-0.1821	0.6506
6224.0310	-0.5045	0.1211	-1.3158	0.2829	-2.0986	0.7728	-0.9328	0.4041	-3.1672	0.6339	-1.0537	0.6956	-1.8823	0.5109	-0.7068	0.1824
6232.0310	-0.1255	0.6888	-0.7211	0.2656	-1.3321	0.6132	-1.0806	0.1807	-3.8666	0.8895	-0.5425	1.2902	-1.5479	0.4416	-0.7702	0.2981
6240.0311	-0.0137	0.4704	-0.7096	0.5686	-1.4397	0.7603	-0.6991	0.6150	-1.6578	0.8885	-0.4270	1.3283	-1.1925	0.5174	-0.3083	0.3581
6248.0311	0.0231	0.8368	-1.1572	1.2028	-2.2046	1.4221	-0.6729	1.2887	-2.8830	1.7214	-0.8666	2.2945	-2.2432	1.2192	-0.8182	0.6251
6256.0312	-0.5791	0.0413	-1.1173	-0.1828	-1.7547	0.0272	-1.8188	-0.6895	-4.1573	0.1471	-1.1203	0.3678	-2.1361	-0.0310	-1.2135	-0.0582
6264.0312	-1.5207	-1.1547	-2.7950	-0.1259	-4.1657	-0.0180	-2.7398	-0.9895	-2.4198	-0.4452	-2.5962	-0.6295	-3.6129	-0.4125	-1.4687	-0.4704
6272.0312	0.1135	1.0799	-1.0183	1.2332	-2.2636	1.3092	-1.2914	0.8661	-2.5358	1.8795	-0.8099	2.4819	-2.6208	1.1585	-1.1896	0.5491
6280.0313	-0.4701	-0.0922	-1.0258	0.0210	-2.1039	0.1824	-1.7421	-0.4199	-3.3286	0.1961	-0.9269	0.3445	-2.1576	0.0486	-0.9904	-0.0601
6288.0313	-1.6223	-1.0314	-3.1008	0.0437	-4.8204	0.2781	-2.9854	-0.8508	-1.6620	-0.1157	-2.9218	-0.4053	-4.4890	-0.1113	-1.9403	-0.4386
6296.0314	-0.7805	0.0418	-1.3569	-0.2940	-2.3063	-0.2198	-2.6533	-1.3856	-0.3084	0.1076	-1.5546	0.1388	-3.2169	-0.2128	-2.0159	-0.3081
6304.0314	-1.6310	-1.6550	-1.9477	-1.3237	-3.0139	-1.4295	-3.2762	-2.7167	1.3503	-1.8175	-2.1587	-2.3450	-3.1033	-1.5785	-1.7087	-1.0945
6312.0314	-0.4633	-0.0066	-1.1294	0.3062	-2.2509	0.2320	-1.9755	-0.6053	3.6668	0.4007	-1.0961	0.3096	-2.3650	0.0706	-1.1778	-0.1977
6320.0315	0.1105	0.3306	0.3118	-0.1413	-0.1826	-0.2077	-1.2423	-0.8322	2.8800	0.0996	0.2173	0.0202	-0.5705	-0.1735	-0.5436	-0.1882
6328.0315	-1.2303	-1.3622	-1.3951	-1.0102	-2.4286	-1.1729	-2.4149	-2.1738	2.8109	-1.4774	-1.4875	-2.1398	-2.2479	-1.4230	-1.1375	-1.0041
6336.0316	-0.0609	0.1987	0.0005	-0.1807	-0.8098	-0.3531	-1.3412	-0.9763	3.1131	0.0378	-0.1401	-0.0839	-1.3727	-0.3761	-0.9270	-0.3088
6344.0316	-0.5817	-0.8385	-0.3106	-0.8356	-1.1956	-0.8498	-1.5521	-1.4892	-0.2783	-1.0640	-0.4357	-1.5622	-1.2766	-0.8779	-0.7225	-0.6692
6352.0316	-0.8779	-0.8590	-1.1320	-0.4892	-2.3494	-0.4362	-1.7285	-1.1895	-0.3734	-0.6731	-1.1478	-1.2934	-2.2925	-0.6243	-1.0921	-0.6501
6360.0317	-0.3795	-0.3371	-0.2619	-0.4750	-1.0341	-0.5249	-1.2096	-1.1042	1.4145	-0.4683	-0.3940	-0.8773	-1.3618	-0.5639	-0.8409	-0.4904
6368.0317	-1.5210	-1.7213	-1.7568	-1.1582	-2.9353	-1.1580	-2.3861	-2.1487	1.9669	-1.7118	-1.8587	-2.5884	-2.7060	-1.4092	-1.3069	-1.0968
6376.0318	-0.4980	-0.1275	-0.7014	-0.2511	-1.8121	-0.1706	-1.4828	-0.9247	3.9546	-0.0511	-0.7614	-0.5281	-2.1628	-0.3396	-1.1918	-0.4407
6384.0318	-1.0680	-1.1794	-1.0224	-1.0243	-1.9644	-1.0154	-1.8973	-1.8756	0.7529	-1.3153	-1.2149	-2.0742	-2.1566	-1.0972	-1.2299	-0.9016
6392.0318	-2.2931	-2.5121	-2.6838	-1.6829	-3.8541	-1.7050	-3.3501	-3.1253	-2.1136	-2.4939	-2.9290	-3.6397	-3.7462	-1.8922	-1.9899	-1.5110
6400.0319	-1.1999	-1.1933	-1.3272	-0.9467	-2.2985	-0.9517	-2.1402	-1.9313	1.5751	-1.2319	-1.5434	-1.9956	-2.5660	-1.0319	-1.4706	-0.9121
6408.0319	-1.8284	-2.0976	-2.1703	-1.2242	-3.5228	-1.1834	-2.5112	-2.2471	2.2802	-1.9150	-2.3555	-3.0417	-3.3923	-1.3800	-1.6643	-1.2412
6416.0320	-1.4512	-1.3069	-1.7707	-0.9477	-3.0314	-0.8411	-2.5432	-2.0359	0.4591	-1.1939	-1.9379	-2.1239	-3.2351	-0.9977	-1.7711	-0.9997
6424.0320	-1.1848	-1.1935	-1.2167	-1.0575	-2.3374	-0.9558	-2.2636	-1.9922	-1.3075	-1.2812	-1.3676	-2.0888	-2.4956	-1.0700	-1.3989	-0.9346
6432.0320	-1.8221	-1.9835	-2.2699	-1.1569	-3.7375	-1.1303	-2.7579	-2.2494	-1.1869	-1.7596	-2.4401	-2.7143	-3.7058	-1.3114	-1.8396	-1.1723
6440.0321	-0.4334	-0.2856	-0.6556	-0.1025	-1.8932	-0.1051	-1.3074	-0.6759	0.7981	-0.0538	-0.7274	-0.4438	-2.2164	-0.1830	-1.1347	-0.3764
6448.0321	-1.2811	-1.3811	-1.5219	-0.8963	-2.9628	-0.8261	-2.2840	-1.7829	-2.0581	-1.2475	-1.5780	-2.0569	-2.8598	-1.0377	-1.3779	-0.9342
6456.0322	-2.2148	-2.2933	-2.5424	-1.7256	-4.0180	-1.7386	-3.6552	-3.3046	-1.6061	-2.3497	-2.8425	-3.4826	-4.2232	-1.9079	-2.3295	-1.5351
6464.0322	-1.0225	-1.1042	-1.1618	-0.7882	-2.5243	-0.9728	-2.1348	-1.8404	2.8601	-1.0936	-1.3958	-1.7259	-2.9069	-1.0663	-1.5694	-0.8898
6472.0322	-0.9453	-1.0367	-1.3395	-0.4059	-2.9146	-0.5326	-1.7937	-1.1852	1.2464	-0.7235	-1.4165	-1.2708	-2.9901	-0.7218	-1.3668	-0.6993
6480.0323	-0.6466	-0.6761	-0.8054	-0.3755	-2.0935	-0.4744	-1.5431	-1.0849	-0.1379	-0.5139	-0.9596	-0.9616	-2.4665	-0.5102	-1.2874	-0.5637
6488.0323	-0.6781	-0.9263	-0.8106	-0.3904	-2.2942	-0.5290	-1.4827	-1.0551	-0.6419	-0.6987	-0.9097	-1.2314	-2.4126	-0.6159	-1.1132	-0.6377
6496.0324	-0.8501	-0.8401	-1.0507	-0.5513	-2.5909	-0.5122	-1.8417	-1.2627	-1.9241	-0.6666	-1.1238	-1.2567	-2.7888	-0.6566	-1.3732	-0.6761
6504.0324	-0.4469	-0.3884	-0.4643	-0.3576	-1.7088	-0.2078	-1.0506	-0.6780	-0.8629	-0.2692	-0.5597	-0.7630	-2.0965	-0.2512	-1.0869	-0.4130
6512.0324	-0.3946	-0.5611	-0.6108	-0.0064	-2.0415	-0.0111	-0.6701	-0.1867	-2.2271	-0.1397	-0.6523	-0.5421	-2.2217	-0.0626	-0.9345	-0.3179
6520.0325	0.3563	0.2538	0.4473	0.2763	-0.8276	0.1604	-0.2663	0.1671	-3.9199	0.4388	0.4773	0.4285	-1.0920	0.1411	-0.4178	-0.0132
6528.0325	0.1346	-0.1034	0.3658	-0.1049	-0.8684	-0.2271	-0.6556	-0.4023	-3.8832	-0.0984	0.4173	-0.2781	-0.8818	-0.3182	-0.3030	-0.2599
6536.0326	-0.4783	-0.7328	-0.3682	-0.5116	-1.4099	-0.6841	-1.2910	-1.1553	-4.0451	-0.7415	-0.5084	-1.1190	-1.6518	-0.6651	-0.8810	-0.5688
6544.0326	0.0730	-0.2650	0.4391	-0.2630	-0.3518	-0.4138	-0.3861	-0.4797	-2.2023	-0.3474	0.2472	-0.5088	-0.8262	-0.2430	-0.5030	-0.2536
6552.0326	-0.0019	-0.5225	0.3526	-0.2973	-0.7631	-0.4168	-0.2992	-0.3854	-1.1070	-0.5151	0.2295	-0.8063	-0.9819	-0.3417	-0.3926	-0.3305
6560.0327	0.1738	-0.2860	0.7424	-0.4179	-0.0868	-0.6359	-0.2161	-0.6184	-0.3854	-0.5304	0.5271	-0.7360	-0.5760	-0.4917	-0.3719	-0.3372
6568.0327	0.4976	-0.0352	1.2432	-0.3513	0.6403	-0.5423	0.3732	-0.2546	1.7522	-0.4034	1.0669	-0.4711	0.2308	-0.4020	0.0849	-0.1692
6576.0328	0.5023	-0.0229	1.3256	-0.4550	0.8011	-0.4978	0.3332	-0.2453	1.9640	-0.4599	1.1805	-0.5400	0.4806	-0.3552	0.2127	-0.1357
6584.0328	0.9073	0.4610	2.0729	-0.4774	2.0928	-0.4260	0.9497	-0.0357	1.3953	-0.2524	1.9456	-0.2683	1.7205	-0.2330	0.7058	0.0290
6592.0328	0.9995	0.4873	2.2166	-0.4348	2.4065	-0.3543	1.4920	0.2323	0.6789	-0.2338	2.2042	-0.3198	2.3484	-0.2705	1.1470	0.0592
6600.0329	1.0767	0.3022	2.5785	-0.6419	3.1169	-0.6579	1.6255	0.0207	-0.4428	-0.6033	2.4456	-0.6370	2.9556	-0.3963	1.3363	0.0197
6608.0329	1.0524	0.0084	2.8868	-1.0235	3.8250	-1.0454	1.8375	-0.2717	0.8253	-1.1587	2.6454	-1.2575	3.6484	-0.6677	1.5939	-0.0901
6616.0330	1.6886	0.7974	3.7196	-0.6561	4.8527	-0.6149	2.6747	0.4124	3.5932	-0.4664	3.5876	-0.4513	4.7057	-0.2962	2.1474	0.2142
6624.0330	2.8904	1.9445	5.3391	0.0558	6.8761	0.0019	4.2226	1.6629	4.0760	0.5772	5.2867	1.0022	6.6404	0.4383	3.1343	0.8001
6632.0330	2.7979	1.6109	5.4353	-0.2585	7.1826	-0.3167	4.4781	1.4812	2.5042	0.0850	5.4091	0.4277	7.2008	0.0825	3.4829	0.6727
6640.0331	2.7783	1.5993	5.7268	-0.6514	7.9227	-0.6218	4.5513	1.0790	3.0236	-0.2606	5.6732	-0.0707	7.9672	-0.2219	3.7225	0.5449
6648.0331	3.1967	1.8998	6.4474	-0.5096	9.1776	-0.4310	5.4602	1.5746	5.1230	-0.0720	6.3704	0.1276	9.2193	0.0867	4.2965	0.7454
6656.0332	3.5813	2.2848	7.0067	-0.3410	10.1558	-0.2157	6.1179	2.0250	4.8958	0.2145	6.9878	0.5514	10.2883	0.3327	4.8301	0.9732
6664.0332	4.0918	2.6608	7.9272	-0.2889	11.6643	-0.1803	6.7966	2.2939	3.0239	0.3392	7.9292	0.8195	11.8721	0.4790	5.5459	1.1638
6672.0332	3.8358	2.0277	7.9304	-0.7524	11.9733	-0.6168	6.9221	1.9169	2.5658	-0.4511	7.8721	-0.2107	12.4050	0.1039	5.8189	0.9303
6680.0333	4.0975	2.2015	8.5609	-0.9476	13.1032	-0.8645	7.2914	1.7650	4.8013	-0.6225	8.4605	-0.3456	13.5222	-0.1010	6.2629	0.9317
6688.0333	4.8248	2.7652	9.6899	-0.6519	14.9453	-0.6874	8.3810	2.3645	7.3251	-0.2668	9.5629	0.2498	15.3351	0.2319	7.0945	1.2510
6696.0334	5.0246	2.7833	10.2194	-0.8066	16.0238	-0.7693	8.8222	2.4362	7.6073	-0.4707	10.0687	0.0733	16.5135	0.2622	7.6212	1.3278
6704.0334	5.4709	3.1788	11.1754	-1.0219	17.6342	-1.0221	9.3113	2.2922	8.0165	-0.5592	11.0503	0.0798	18.2151	0.0150	8.3468	1.3784
6712.0334	6.3326	3.9364	12.3791	-0.5792	19.4518	-0.6564	10.7812	3.2487	10.5972	0.0375	12.3539	0.9529	20.1967	0.3948	9.4111	1.7934
6720.0335	7.6231	5.1732	14.1778	0.0970	22.0801	0.1864	12.6738	4.8315	11.3265	1.1016	14.3263	2.4682	23.0198	1.3595	10.8913	2.5557
6728.0335	7.7804	5.1249	14.9183	-0.3848	23.7606	-0.1865	13.1881	4.5355	9.3569	0.5745	15.0423	1.8256	24.8851	1.0928	11.6542	2.4973
6736.0336	7.4622	4.6071	14.9998	-1.1235	24.6378	-0.9043	13.3131	3.7553	10.4199	-0.3783	14.9535	0.6011	25.7145	0.4796	11.8337	2.1810
6744.0336	8.5017	5.5444	16.5736	-0.7261	27.0139	-0.4837	14.9322	4.7918	11.6691	0.2806	16.6160	1.5771	28.1855	0.9972	13.0651	2.6874
6752.0336	9.2650	6.1223	17.7783	-0.4593	28.9235	-0.1853	16.3786	5.6394	10.2937	0.6571	17.9716	2.1127	30.4518	1.3070	14.2903	3.0366
6760.0337	10.2760	7.0292	19.2854	-0.0211	31.3457	0.3637	18.1884	6.8764	10.8054	1.3532	19.5750	3.1143	32.9990	1.9841	15.5754	3.6088
6768.0337	10.8596	7.4386	20.4165	-0.0895	33.3966	0.3731	19.4188	7.3391	9.4225	1.3890	20.7160	3.3155	35.1188	2.1257	16.5504	3.8715
6776.0338	10.2054	6.5568	20.2162	-1.2714	34.0367	-0.7866	18.9602	5.8575	7.8257	-0.1126	20.3709	1.4281	35.9024	0.9862	16.6804	3.2909
6784.0338	10.9491	7.1353	21.4149	-0.9828	36.2406	-0.5150	20.2665	6.5507	9.9999	0.2243	21.6573	1.8810	38.4383	1.3308	17.9331	3.6176
6792.0338	11.3510	7.3465	22.0940	-0.8603	37.6558	-0.3413	21.4637	7.1804	9.6011	0.3159	22.4185	2.0344	40.1678	1.5376	18.8662	3.8467
6800.0339	11.2207	7.1275	22.2768	-1.4055	38.6053	-0.7983	21.7240	6.7552	11.3391	-0.3116	22.5503	1.3284	41.2310	1.0953	19.2733	3.7204
6808.0339	12.5045	8.3806	23.8026	-0.3301	41.0152	0.1772	23.5218	8.4137	15.4228	0.9939	24.2358	3.0909	43.9010	2.1783	20.6930	4.4819
6816.0340	12.9236	8.8289	24.4160	-0.1442	42.3643	0.4170	24.2033	8.8679	13.7589	1.3010	24.9158	3.6031	45.3946	2.4926	21.3837	4.7687
6824.0340	12.5225	8.4360	24.2182	-0.8671	42.8696	-0.0804	23.9839	8.1875	13.0574	0.5084	24.7260	2.6786	46.1591	1.9498	21.6565	4.5633
6832.0340	12.2986	8.1432	23.7566	-0.7296	42.8659	0.0618	24.2710	8.4204	14.9223	0.3973	24.3411	2.4791	46.6009	2.0298	22.0016	4.5802
6840.0341	12.3814	8.3979	23.4975	-0.2792	43.0223	0.5517	24.6473	9.0804	15.1322	0.8794	24.1965	3.2187	46.9949	2.4885	22.2981	4.8952
6848.0341	12.1351	8.3854	22.7190	0.0549	42.4687	1.0466	24.5704	9.5673	12.8057	1.2065	23.5894	3.7197	46.8296	2.8880	22.3761	5.1207
6856.0342	9.6388	6.0376	19.2209	-1.2165	38.7066	-0.0705	21.6471	7.2228	7.7729	-0.8226	19.9568	0.9607	43.3923	1.5952	20.5845	4.0456
6864.0342	7.2258	4.1356	15.2056	-1.8697	33.9998	-0.5684	18.5739	5.5557	6.8264	-2.0430	15.9599	-0.6126	39.0867	0.7394	18.5790	3.2932
6872.0342	5.5385	3.3868	11.0404	-0.7774	28.4984	0.6000	16.4656	6.0817	7.7146	-1.1637	12.0797	0.4523	34.0375	1.4308	16.6022	3.3709
6880.0343	2.9830	1.8951	6.2040	-0.7761	22.2753	0.7951	12.9174	4.8995	6.8354	-1.4064	7.1857	-0.0390	27.5675	1.3195	13.4363	2.8268
6888.0343	1.5878	1.5574	3.1051	-0.3412	18.1723	1.5461	10.7832	4.8202	7.1105	-0.7594	4.0937	0.7088	23.0521	1.8968	11.2113	2.8476
6896.0344	0.4051	1.1598	0.6350	-0.0667	14.9895	2.0231	8.9448	4.5236	4.2097	-0.3862	1.6123	1.0402	19.5725	2.2757	9.4338	2.7556
6904.0344	-0.3328	0.8306	-0.6311	-0.2369	13.3713	1.9305	7.4747	3.7879	3.8857	-0.5222	0.2618	0.8278	17.6804	2.1610	8.3363	2.5359
6912.0344	1.0131	2.5499	0.4213	1.3310	14.2375	3.4756	9.1851	6.1595	5.9501	1.6691	1.5228	3.8123	18.3184	3.7170	8.8975	3.5806
6920.0345	0.5047	2.0755	0.0248	0.6766	13.9363	2.8415	8.5938	5.2127	0.0480	0.9639	1.0099	2.8852	17.8026	3.1157	8.4293	3.2097
6928.0345	-0.4648	0.7624	-0.4606	-0.7616	13.6489	1.4428	7.1873	3.0984	-2.0875	-0.9164	0.3233	0.3242	17.6134	1.7514	8.0530	2.3197
6936.0346	0.9260	2.0472	1.3490	0.1664	15.6903	2.3125	9.0143	4.7491	0.4239	0.3747	2.2291	2.0497	19.5600	2.7562	9.1246	3.0325
6944.0346	0.9394	1.8146	1.9512	-0.5195	16.6688	1.6376	9.1292	4.0645	-2.5277	-0.3676	2.7519	1.1475	20.5128	2.1430	9.4410	2.7794
6952.0346	1.0863	1.7047	2.5200	-0.8574	17.4679	1.3639	9.6106	3.9624	-1.8197	-0.7721	3.3556	0.5948	21.5510	1.8323	10.0037	2.6859
6960.0347	2.1989	2.8007	4.1020	-0.3548	19.4166	1.8505	11.2817	5.1160	0.4908	0.1127	5.0229	1.7976	23.4037	2.3516	10.9685	3.1934
6968.0347	1.3719	1.6469	3.6162	-1.5604	19.1974	0.6473	10.3833	3.4889	-0.4152	-1.5207	4.4082	-0.3156	23.3954	1.1090	10.8234	2.4845
6976.0348	1.5527	1.7238	3.6787	-1.1590	19.3419	1.1257	10.8305	4.2025	1.8963	-1.1898	4.5090	0.1058	23.6922	1.6629	11.0987	2.7440
6984.0348	1.8695	2.1063	3.8399	-0.6846	19.4403	1.5707	11.1341	4.8270	2.8679	-0.6268	4.7691	0.9011	23.9011	2.0788	11.3282	3.0212
6992.0348	0.0867	0.3411	1.0650	-1.3095	15.7657	0.8644	8.8042	3.2845	0.9218	-1.9252	2.0615	-0.8719	20.8332	1.0070	10.0591	2.2022
7000.0349	-0.9345	-0.0374	-1.5247	-0.5093	12.0656	1.7957	7.4216	3.7576	-0.4336	-1.1560	-0.3666	-0.0700	17.2535	1.6962	8.5850	2.2844
7008.0349	-2.4207	-0.7558	-4.5751	-0.2828	7.7430	2.1581	5.0086	3.2116	-1.6903	-0.9699	-3.3285	0.0360	12.9176	1.7495	6.5905	2.0222
7016.0350	-4.5243	-2.1437	-8.5342	-0.3038	2.1968	2.1940	1.7545	2.0698	-2.1885	-1.2975	-7.3322	-0.4943	7.2117	1.5106	3.8802	1.4795
7024.0350	12.2736	5.3021	24.8074	-1.4022	14.3991	-5.3492	7.4337	-1.4153	5.4086	-0.0869	23.2737	-1.3833	8.9446	-3.8259	3.9832	-1.5712
7032.0350	12.3535	5.2101	25.1059	-1.5116	15.5051	-5.4492	8.0602	-1.3562	6.8872	-0.3639	23.6465	-1.7721	10.5207	-3.9628	4.7984	-1.5769
7040.0351	12.4566	5.2621	25.2198	-1.3352	16.4336	-5.2231	8.6475	-0.9511	11.2618	-0.2968	23.7177	-1.6532	11.5630	-3.6067	5.2596	-1.3792
7048.0351	12.8985	5.5186	26.1445	-1.4553	18.2847	-5.3065	9.5688	-0.6927	13.9007	-0.4045	24.5538	-1.6016	13.3488	-3.4972	6.0023	-1.1743
7056.0352	14.0562	6.6730	27.6767	-0.7044	20.7279	-4.5769	11.1615	0.5814	16.3084	0.6153	26.2869	-0.2468	16.1645	-2.7429	7.4718	-0.5648
7064.0352	15.0605	7.5040	29.3180	-0.3994	23.7201	-4.2894	12.8823	1.4838	16.9113	1.0758	27.9164	0.5482	19.1693	-2.2044	8.8165	-0.0568
7072.0352	15.6980	7.8725	30.6372	-0.5662	26.2468	-4.3812	14.5496	1.9966	17.2402	0.9531	29.2671	0.5243	21.9238	-2.2079	10.1413	0.1833
7080.0353	16.3062	8.3616	31.7854	-0.5394	28.4944	-4.1886	15.7739	2.5301	18.6694	1.0883	30.5106	0.6799	24.5290	-1.9528	11.3913	0.4575
7088.0353	16.5007	8.1190	32.6385	-1.0204	30.7189	-4.5802	16.6143	2.4032	19.1636	0.3489	31.2897	-0.0968	27.0641	-2.1235	12.5046	0.4800
7096.0354	16.8801	8.4369	33.1444	-0.7576	32.2351	-4.1942	17.8796	3.2299	19.1038	0.6122	31.9611	0.2790	29.1020	-1.7573	13.6272	0.8161
7104.0354	16.8912	8.4528	33.1750	-0.7500	33.1313	-3.9829	18.5800	3.6552	16.7838	0.5948	32.0893	0.3006	30.3642	-1.5263	14.2823	1.0087
7112.0354	16.0805	7.5123	32.2417	-1.4526	32.9116	-4.5484	18.2959	2.9769	15.0943	-0.4919	31.1543	-0.9460	30.5850	-2.1518	14.4059	0.7139
7120.0355	15.9087	7.6944	31.6723	-1.2086	32.8957	-4.1856	18.3868	3.2772	16.6657	-0.1659	30.7036	-0.5365	30.8363	-1.9044	14.5540	0.8829
7128.0355	15.4557	7.3034	30.9688	-1.3590	32.9793	-4.2121	18.0404	3.0789	16.5896	-0.5239	29.9862	-0.8250	31.1754	-1.8552	14.6490	0.9035
7136.0356	14.4579	6.5700	29.3553	-1.7188	31.9368	-4.3450	17.3042	2.6186	16.6783	-1.1126	28.4149	-1.4693	30.5013	-2.1069	14.3293	0.7501
7144.0356	14.0079	6.5654	28.2552	-1.4438	31.1602	-3.8312	17.3790	3.0810	17.1679	-0.7481	27.4160	-1.1091	29.8825	-1.7151	14.0857	0.9118
7152.0356	13.4647	6.0299	27.1410	-1.2869	30.3194	-3.6166	17.0434	3.2391	15.1571	-0.9012	26.3876	-1.1763	29.4858	-1.5284	14.0476	0.9632
7160.0357	13.0020	6.0525	25.9733	-1.0131	29.4816	-3.2452	16.3790	3.2964	14.0703	-0.5764	25.3333	-0.6530	28.8621	-1.2640	13.7443	1.1003
7168.0357	12.3365	5.8304	24.7655	-1.0730	28.7860	-3.0807	15.8343	3.1143	12.2608	-0.6054	24.1398	-0.7240	28.2210	-1.1300	13.3102	1.0931
7176.0358	11.3156	5.0364	23.1238	-1.3932	27.4782	-3.1896	14.8316	2.5741	9.8510	-1.1707	22.5247	-1.3935	27.2223	-1.3080	12.8125	0.8997
7184.0358	10.6087	4.5929	21.9820	-1.6625	26.6165	-3.3855	13.9963	2.0060	9.1996	-1.5471	21.3597	-1.7821	26.4211	-1.5595	12.3301	0.7358
7192.0358	9.9458	3.9233	21.0576	-1.9922	26.1445	-3.6193	13.4191	1.5214	8.5077	-2.1638	20.4032	-2.4995	26.1914	-1.7724	12.1766	0.5603
7200.0359	10.1874	4.5702	21.1402	-1.6012	26.7908	-2.8334	13.9162	2.3657	11.4892	-1.4176	20.6116	-1.6208	26.9528	-0.9861	12.5391	1.0040
7208.0359	10.9002	5.6401	22.0200	-1.1133	28.4351	-2.0427	15.2127	3.4943	13.4345	-0.4244	21.6074	-0.4571	28.5656	-0.1622	13.2699	1.5514
7216.0360	10.7682	5.4577	22.0732	-1.4428	29.3062	-2.3298	15.2297	3.1108	8.3936	-0.8582	21.7029	-0.9304	29.7532	-0.4227	13.7540	1.4698
7224.0360	10.8366	5.4585	22.5179	-1.8725	30.5305	-2.6348	15.6184	2.8965	6.7965	-1.2641	22.1391	-1.3056	31.0848	-0.6757	14.2941	1.4713
7232.0360	11.4610	5.9368	23.5245	-1.7010	32.3741	-2.3583	17.2721	3.8238	9.4018	-0.9863	23.1797	-0.8674	33.0268	-0.3209	15.2952	1.8438
7240.0361	12.1064	6.5486	24.7164	-1.6992	34.6113	-2.3300	18.3039	4.1308	8.7869	-0.8033	24.4062	-0.5433	35.3629	-0.1983	16.3049	2.0881
7248.0361	12.3925	6.5353	25.9768	-2.5374	37.1198	-3.0555	18.9799	3.4903	8.3124	-1.6588	25.5850	-1.5769	37.9983	-0.7881	17.3316	1.9301
7256.0362	12.9978	6.8048	27.3405	-2.7359	39.6441	-3.1478	20.4147	3.8459	11.3186	-1.8807	26.9662	-1.8794	40.8360	-0.7750	18.6785	2.0829
7264.0362	14.6499	8.2532	29.8493	-2.0646	43.3025	-2.4476	23.0298	5.5206	14.2115	-0.8245	29.6296	-0.4354	44.7022	0.0497	20.6437	2.8409
7272.0362	15.2057	8.3211	31.2605	-2.4128	46.1929	-2.6413	24.7362	5.9231	11.6609	-1.2945	31.0698	-0.9356	48.0245	0.0346	22.2399	3.0190
7280.0363	14.8536	7.6347	31.5490	-3.4233	48.0202	-3.5085	24.8387	4.9097	9.5529	-2.6408	31.2393	-2.5699	50.1860	-0.6561	23.0168	2.6977
7288.0363	15.5965	8.1390	32.9411	-3.4555	50.5593	-3.5784	26.0933	5.2755	13.4433	-2.6470	32.6811	-2.3944	53.0344	-0.6641	24.3839	2.9449
7296.0364	15.7960	8.2445	33.5245	-3.6297	52.3317	-3.5208	27.1018	5.5588	14.0273	-2.8317	33.3359	-2.7147	55.2212	-0.5653	25.4131	3.0707
7304.0364	15.8054	8.1196	34.1988	-4.3663	54.4482	-4.0215	27.7799	5.1159	13.4280	-3.5946	33.9241	-3.6686	57.4590	-0.9153	26.2348	2.9829
7312.0364	17.2192	9.1534	36.3640	-3.8300	58.0262	-3.5970	30.3251	6.5827	18.0776	-2.9665	36.2107	-2.5692	61.4234	-0.3700	28.3031	3.6545
7320.0365	18.0619	9.8157	37.9108	-3.6896	61.1733	-3.3756	31.8932	7.2295	20.4027	-2.7448	37.7880	-2.2682	64.8609	0.0478	29.8459	4.0276
7328.0365	18.2123	9.5525	38.9608	-4.5276	63.7867	-4.0654	32.7496	6.7184	20.9473	-3.7778	38.7532	-3.4899	67.7844	-0.4675	31.0618	3.8988
7336.0366	18.9816	10.1401	40.1739	-4.2279	66.5549	-3.6282	34.7531	7.8571	22.3574	-3.4447	40.1387	-2.9700	71.1577	0.0186	32.8162	4.3950
