Time	Fz	Fpz	C3	C4	T5	T4	O1	O2	F7	F8	F3	F4	T3	T6	P3	P4
0.0000	-0.1057	0.1116	0.4390	-14.0053	0.2412	-8.0764	-52.3592	-3.4545	-0.9143	-39.0160	-1.9123	-2.4902	-0.6281	-2.4496	1.9202	14.3355
8.0001	-0.8361	-0.0098	-0.2372	-3.1276	-0.4554	4.7574	50.4188	1.7828	1.0061	20.8678	0.9143	-1.9477	0.4353	2.0767	-0.0770	5.2444
16.0001	0.5007	0.0822	0.0006	-9.8518	0.0859	0.3305	-11.9194	-0.6232	0.1246	20.8407	0.4591	-0.8052	0.7836	-0.2745	-0.4766	-1.2812
24.0002	-0.8810	0.1033	0.1557	-5.8838	-0.1895	-2.3178	1.0585	-1.0513	0.0938	-14.9233	-0.6971	-3.1019	-0.2226	-0.1737	1.3103	13.9512
32.0002	0.0140	0.0037	-0.2111	-5.0316	-0.2588	4.1349	29.9944	1.1693	0.7953	30.5304	1.1935	-1.3396	0.8633	1.3451	-0.6763	-0.5276
40.0003	-0.0626	0.0133	0.1384	-7.6802	0.0875	-2.7775	-12.7122	-1.3250	-0.1549	-11.8267	-0.4532	-2.1886	-0.0682	-0.7921	0.7727	7.5327
48.0003	-0.9543	-0.0680	-0.0986	-1.8163	-0.2592	1.5450	33.7894	0.6762	0.6042	0.1351	0.3988	-2.7730	-0.0420	1.0225	0.4416	8.0863
56.0004	0.1838	-0.1056	-0.0660	-5.7046	0.0523	0.3087	3.9569	-0.3384	0.2736	11.8501	0.8718	-2.2676	0.4956	-0.1966	-0.4531	-0.2924
64.0004	-0.4225	-0.0886	0.1334	-4.2442	0.1116	-3.3598	-2.8747	-1.2495	-0.1178	-24.1798	-0.4703	-3.2203	-0.4312	-0.7752	1.1052	10.3889
72.0005	-0.4135	-0.1815	-0.2897	-0.9079	-0.1576	4.5829	51.0672	2.1623	0.7579	10.4806	0.8684	-0.6113	0.0496	1.8925	-0.2209	0.5671
80.0005	-0.3971	-0.1370	-0.0532	-3.3592	-0.0416	0.1260	17.0793	0.3242	0.1432	-10.0865	-0.0379	-1.1616	-0.3430	0.3412	0.4493	4.2880
88.0006	-0.8347	-0.0037	-0.0270	0.2474	-0.2008	0.6035	24.8984	0.3440	0.4380	-4.8204	0.0644	-2.4119	-0.1141	0.7475	0.6568	8.7883
96.0006	0.1419	0.0237	-0.1271	-2.0758	-0.0141	2.6465	20.9652	0.8145	0.5222	17.7633	0.6783	-0.8538	0.5662	0.9533	-0.2753	0.6081
104.0007	-0.2916	-0.0086	0.0788	-2.6499	0.0014	-1.6150	4.9181	-0.5305	0.0361	-15.2283	-0.4250	-2.0733	-0.2458	-0.1159	0.9505	8.8321
112.0007	-0.2274	-0.0533	-0.0785	-0.2893	-0.1383	1.1697	19.2418	0.4438	0.3770	3.8562	0.4496	-1.5610	0.1443	0.5638	0.0528	2.9052
120.0008	0.0352	-0.0544	0.0521	-2.2558	0.1041	-1.5104	-4.9872	-0.6331	-0.0924	-8.1010	-0.0825	-1.2566	-0.0918	-0.4965	0.2927	2.7368
128.0009	-0.5393	0.0000	-0.0127	0.7612	-0.0986	0.3419	19.8748	0.3063	0.3089	-6.6998	-0.0726	-1.7296	-0.1413	0.6056	0.6530	7.3678
136.0009	0.1848	0.0384	-0.1249	-0.7078	-0.1015	2.7568	21.4475	0.9499	0.4929	16.3844	0.5664	-0.4004	0.5058	1.0377	-0.2231	0.3452
144.0010	-0.1253	-0.0443	0.0621	-1.7395	-0.0000	-1.5547	1.8579	-0.4780	-0.0427	-14.2691	-0.3256	-1.5195	-0.2574	-0.2483	0.7036	5.9911
152.0010	-0.3323	-0.1202	-0.1427	0.9844	-0.1871	2.0125	30.3439	0.9487	0.4946	3.3019	0.6209	-1.5416	0.0480	0.9161	-0.0055	2.4290
160.0011	-0.0132	-0.0844	-0.0458	-1.2831	-0.1408	0.2712	10.1054	0.1217	0.1703	-0.6930	0.2854	-1.1664	0.0316	0.1468	0.0584	1.6257
168.0011	-0.4694	-0.1204	0.0254	-0.1841	-0.2124	-1.3318	9.5863	-0.2787	0.0431	-16.6912	-0.1406	-2.0202	-0.4205	-0.1373	0.6476	6.1956
176.0012	0.0628	-0.1705	-0.1114	-0.8760	-0.0716	0.9411	16.5829	0.4769	0.2319	0.7180	0.5646	-1.0610	0.0153	0.2909	-0.1809	-0.5150
184.0012	-0.1942	-0.1788	0.0403	-1.8327	0.0343	-2.0977	0.5139	-0.5147	-0.1917	-21.1332	-0.2718	-1.3614	-0.5534	-0.5582	0.5674	3.8074
192.0013	-0.2733	-0.1860	-0.0133	0.2457	-0.0587	-1.0974	6.6615	-0.2067	-0.0168	-13.2937	0.1367	-1.5427	-0.3731	-0.3101	0.2164	2.1069
200.0013	0.3422	-0.1219	0.0533	-1.2244	0.1922	-2.1203	-13.2848	-0.9460	-0.2206	-7.5428	0.1740	-1.2686	-0.0321	-0.9946	-0.0620	-0.6893
208.0014	-0.5197	-0.0852	-0.0432	1.7726	-0.0044	0.2871	15.7254	0.2910	0.2101	-5.4458	0.1908	-1.3318	-0.2008	0.3196	0.2049	3.1925
216.0014	-0.4446	-0.0079	-0.2040	2.3865	-0.1778	4.0974	34.2890	1.6361	0.6602	19.0640	0.8138	-0.1072	0.3306	1.5431	-0.4957	-1.0769
224.0015	-0.0672	0.0439	0.1269	-1.0546	0.0867	-2.2632	-16.6654	-1.0088	-0.2536	-8.8543	-0.3972	-0.6845	-0.1230	-0.7703	0.3522	2.7484
232.0015	-0.3248	-0.0802	0.0525	0.8608	-0.0685	-1.6112	-3.3668	-0.4863	-0.1494	-13.0513	-0.1859	-0.8879	-0.3707	-0.4769	0.2985	2.2776
240.0016	-0.1458	-0.0353	-0.0617	0.9999	-0.1924	1.0622	12.7171	0.6039	0.1461	-0.0955	0.0705	0.1762	-0.0964	0.5057	0.0389	0.3214
248.0017	-0.3774	0.0789	0.0765	0.6283	-0.1017	-0.8427	-1.1892	-0.2021	-0.0710	-9.1183	-0.5565	-0.1123	-0.2608	0.0282	0.5863	4.5728
256.0017	-0.0220	0.0505	0.0723	0.2014	-0.0021	-1.0980	-11.4072	-0.5408	-0.1520	-2.2760	-0.1984	-0.0560	-0.0150	-0.4282	0.0748	0.4760
264.0018	0.1698	0.0879	0.1777	-0.8215	0.0742	-2.9852	-25.8962	-1.3721	-0.3793	-9.6399	-0.5408	-0.5064	-0.0608	-1.0816	0.3935	2.4993
272.0018	-0.2471	-0.0083	0.0127	0.8550	-0.0239	-0.2908	2.9105	-0.0655	0.0368	-3.7009	-0.0399	-0.5832	-0.1039	0.0111	0.1726	1.9866
280.0019	-0.0265	-0.1566	-0.1035	0.4019	0.0070	0.9788	16.0195	0.7140	0.1080	-4.2042	0.2273	0.0545	-0.2320	0.4017	-0.0520	-1.0900
288.0019	-0.2375	-0.0278	0.0062	0.9207	0.0456	-0.2340	6.0009	0.1789	-0.0260	-9.3517	-0.2904	0.0039	-0.3132	0.1603	0.3817	2.4049
296.0020	-0.2534	0.0865	-0.0869	1.6899	0.0325	2.4495	15.4263	0.9749	0.3132	12.1435	0.1879	0.7881	0.2012	0.9777	-0.2018	-0.6166
304.0020	0.0368	0.0073	-0.0415	0.1123	0.0735	0.9889	10.6141	0.6642	0.0595	-2.6424	-0.2422	0.8718	-0.1425	0.5772	0.2537	0.8512
312.0021	-0.2512	-0.0952	-0.0125	0.5864	0.0776	-0.3339	5.7838	0.2677	-0.1164	-12.7846	-0.3130	0.4119	-0.4902	0.0714	0.3084	0.8847
320.0021	-0.2502	-0.1270	-0.0307	0.5296	0.1722	-0.2538	1.7372	0.2087	-0.1573	-8.8936	-0.0953	0.6394	-0.4365	-0.1120	-0.0541	-1.9874
328.0022	-0.2299	-0.1106	-0.0106	0.7113	0.1406	-0.4561	7.4671	0.3449	-0.1517	-16.9175	-0.4525	0.5531	-0.6093	0.1140	0.4684	1.5401
336.0022	-0.4712	-0.0901	-0.0781	1.5999	-0.0080	1.0354	14.5237	0.7631	0.0791	-4.5713	-0.0034	0.5548	-0.3671	0.5137	0.0075	-0.4825
344.0023	-0.5257	-0.0430	-0.0122	1.1527	-0.1166	0.0608	6.8359	0.3012	-0.0198	-7.7996	-0.2304	0.2666	-0.3984	0.2137	0.2104	1.2596
352.0024	-0.0859	-0.0036	-0.0045	0.1621	-0.0710	0.2128	9.6594	0.4580	-0.0104	-10.0282	-0.4750	0.5369	-0.3333	0.4362	0.5582	3.0512
360.0024	0.1956	0.0013	0.0279	-0.8676	0.2151	-0.5196	-5.4753	-0.0499	-0.1957	-6.0738	-0.3686	0.8979	-0.1791	-0.1408	0.1863	-0.4195
368.0025	-0.3183	-0.0169	0.0388	0.8782	0.1301	-0.8053	-2.0658	-0.0540	-0.1804	-11.2179	-0.4480	0.4929	-0.4183	-0.1149	0.3251	1.2836
376.0025	-0.3616	-0.0035	-0.0909	1.4169	-0.0748	1.9562	18.6975	1.0810	0.1983	1.1442	-0.0628	0.9755	-0.1850	0.9348	0.0688	0.2062
384.0026	-0.1309	0.0604	0.0285	0.4817	0.0390	-0.0340	-2.1323	0.1299	-0.1078	-3.6172	-0.4189	1.0094	-0.1846	0.1276	0.2140	0.5156
392.0026	-0.2587	0.0265	0.0410	1.7469	-0.0515	-0.4940	-0.5263	0.0755	-0.1402	-9.7187	-0.5086	0.7127	-0.3634	0.0553	0.3858	1.6994
400.0027	-0.0378	0.0169	0.0272	0.5835	-0.0576	-0.3398	-3.2318	0.0309	-0.1465	-5.5649	-0.3564	0.8334	-0.2213	-0.0340	0.1795	0.0039
408.0027	0.0340	0.1305	0.1959	0.4484	0.1266	-2.9851	-31.4851	-1.3207	-0.5063	-9.6654	-0.7488	0.5764	-0.1765	-1.1181	0.2983	0.7453
416.0028	-0.1811	0.1365	0.0830	1.9886	0.0342	-0.6276	-14.6317	-0.3647	-0.1897	1.6007	-0.3495	1.0133	-0.0108	-0.2719	-0.0491	-0.9544
424.0028	-0.2201	0.1224	-0.0012	1.0254	-0.1182	1.0473	3.1134	0.4870	0.0426	3.6994	-0.3230	1.3115	-0.0255	0.5386	0.1002	0.3093
432.0029	-0.2833	0.1550	-0.0046	1.6437	-0.1989	1.4133	7.8543	0.7162	0.0996	2.8377	-0.4555	1.4744	-0.0620	0.8150	0.2790	1.6670
440.0029	-0.3770	0.1404	-0.0235	1.7217	-0.2430	1.6764	7.4771	0.7718	0.1123	5.8954	-0.3136	1.6130	-0.0392	0.8066	0.0598	0.1560
448.0030	-0.1492	0.1674	0.1248	0.0286	-0.1616	-1.1979	-15.9148	-0.5532	-0.2363	-3.4586	-0.6742	0.8220	-0.0921	-0.3020	0.3475	1.9682
456.0030	0.0702	0.1013	0.0882	0.0268	-0.0356	-1.0029	-13.9839	-0.4667	-0.2155	-2.2673	-0.4261	0.6875	-0.0318	-0.3510	0.1574	0.2836
464.0031	-0.2529	-0.0491	-0.0073	0.3868	-0.0515	-0.1135	2.0840	0.2132	-0.1083	-7.3525	-0.2536	0.6679	-0.3555	0.0550	0.1289	-0.2087
472.0032	-0.2656	-0.0288	0.0433	0.3177	-0.1296	-0.9727	-4.4703	-0.1445	-0.2200	-11.2286	-0.4466	0.5578	-0.4275	-0.2277	0.2788	0.7315
480.0032	-0.1036	0.0493	0.0396	0.2158	-0.0977	-0.3743	-8.6731	-0.1266	-0.1750	-1.3464	-0.3024	1.0123	-0.1319	-0.1640	-0.0151	-1.2061
488.0033	-0.2810	0.0326	0.0104	0.4160	-0.1135	0.1289	-1.5363	0.1630	-0.0879	-1.8667	-0.2820	0.9601	-0.2030	0.1089	0.0430	-0.4746
496.0033	-0.1618	-0.0153	-0.0006	0.5023	-0.1196	-0.0166	-1.9211	0.1514	-0.1276	-3.4624	-0.2142	0.9661	-0.2434	-0.0036	-0.0216	-1.4341
504.0034	-0.3356	-0.0110	0.0620	1.2334	-0.0950	-1.2604	-13.3479	-0.4121	-0.3055	-7.2255	-0.3270	0.8140	-0.3573	-0.5389	-0.0538	-1.7664
512.0034	-0.3505	0.0191	0.0879	1.8542	-0.1485	-1.5307	-13.7228	-0.4835	-0.3196	-9.8443	-0.4838	0.7307	-0.3962	-0.5322	0.1419	-0.2923
520.0035	0.1233	0.0169	0.0475	0.5897	-0.0338	-0.7589	-8.9739	-0.1331	-0.2590	-6.9391	-0.4411	1.1703	-0.2425	-0.2495	0.1512	-1.0031
528.0035	-0.1369	0.0710	0.0839	1.1120	0.0430	-1.1196	-16.1245	-0.4503	-0.2939	-3.7536	-0.4238	1.0691	-0.1814	-0.4641	0.0046	-1.3380
536.0036	-0.3153	0.1266	0.0816	2.5367	-0.1119	-0.6493	-15.7050	-0.3639	-0.2164	1.5707	-0.3365	1.1740	-0.0760	-0.3197	-0.1399	-1.7194
544.0036	-0.1176	0.1101	0.0584	2.4315	-0.1470	-0.2557	-7.0021	-0.0196	-0.1480	-2.2772	-0.4586	1.1913	-0.1339	0.0121	0.1615	0.0594
552.0037	0.0081	0.1072	0.0436	2.1536	-0.1090	0.0169	-3.1924	0.1171	-0.0898	-2.0308	-0.4346	1.0831	-0.0848	0.1612	0.2361	0.6608
560.0037	0.2304	0.0734	-0.0321	1.1773	-0.1164	1.3002	5.2636	0.7092	0.0124	2.5118	-0.2791	1.7429	-0.0110	0.5870	0.0710	-1.2279
568.0038	-0.0316	0.0861	-0.0681	1.9433	-0.0190	2.1391	12.1138	1.0517	0.1429	6.1471	-0.1629	1.7929	0.0105	0.9293	-0.0199	-1.2140
576.0038	-0.1689	0.1163	-0.0647	2.6809	0.0741	2.2120	9.1100	0.8389	0.2230	13.1832	0.1366	1.2395	0.2289	0.8077	-0.3107	-2.0004
584.0039	0.1697	0.0063	-0.0687	0.8876	0.0498	1.4504	8.5680	0.6543	0.1248	5.8944	0.1423	0.8127	0.1087	0.5094	-0.1806	-1.9084
592.0040	0.2969	0.0445	-0.0352	0.3715	0.1401	0.9815	0.7518	0.2635	0.0883	9.3842	0.2202	0.5250	0.2916	0.2195	-0.2977	-2.3208
600.0040	0.2695	0.1140	0.0036	-0.2452	0.2333	0.6409	-9.0150	-0.1420	0.0507	15.4495	0.2873	0.4457	0.4957	-0.0556	-0.5050	-3.1620
608.0041	0.1081	-0.1118	-0.0396	-0.7461	0.0505	-0.0382	2.0736	0.1171	-0.0568	-3.3831	0.1246	0.0993	-0.1421	-0.1062	-0.1235	-1.8149
616.0041	0.0725	-0.1592	-0.0899	0.4285	-0.0284	0.6483	11.1437	0.4962	0.0602	-3.0298	0.3012	-0.0312	-0.1680	0.1768	-0.1714	-2.0142
624.0042	0.1883	0.0110	-0.0967	0.2800	0.0773	2.0170	14.6131	0.8058	0.2798	9.8623	0.3311	0.2989	0.2653	0.7399	-0.1975	-1.0272
632.0042	0.2137	-0.0072	-0.1206	-0.1894	0.0814	2.3808	19.1944	1.0211	0.3240	9.4634	0.3341	0.3763	0.2391	0.9204	-0.1493	-0.7974
640.0043	0.2625	-0.0577	-0.0886	-0.6688	0.0816	1.2835	10.3534	0.4526	0.2153	7.8193	0.4865	-0.3193	0.2530	0.3485	-0.2980	-1.6320
648.0043	0.3055	-0.1703	-0.0466	-2.0656	0.0878	-0.4427	3.8335	-0.1942	0.0480	-2.5376	0.4682	-1.3974	0.0473	-0.3163	-0.1393	-0.5606
656.0044	0.2958	-0.3200	-0.0302	-2.0839	0.1542	-1.9226	-3.3715	-0.6945	-0.1621	-11.7720	0.5711	-1.9647	-0.2212	-1.0188	-0.2479	-2.1230
664.0044	0.0749	-0.2568	0.0226	-1.3646	0.1723	-2.5632	-12.5261	-1.1711	-0.2047	-8.7559	0.5983	-2.3229	-0.1209	-1.3425	-0.3706	-2.0484
672.0045	0.0273	-0.2494	0.0408	-2.1860	0.0572	-2.8543	-13.1785	-1.2824	-0.2214	-10.9154	0.4847	-2.5033	-0.1671	-1.3825	-0.2225	-0.7918
680.0045	0.2217	-0.2937	0.0563	-2.7146	0.1652	-3.5250	-18.4474	-1.5165	-0.3501	-14.6002	0.4476	-2.4621	-0.2338	-1.7014	-0.2318	-1.6872
688.0046	0.1075	-0.1809	0.0465	-1.6939	0.2147	-2.5366	-15.5552	-1.3699	-0.1381	-3.2679	0.6612	-2.6768	0.1147	-1.3554	-0.4018	-1.2442
696.0046	0.0205	-0.1712	0.0455	-1.6296	-0.0131	-2.4296	-14.1438	-1.3717	-0.0844	-1.9276	0.7106	-2.9204	0.1478	-1.3020	-0.4030	-0.6936
704.0047	-0.0346	-0.2097	0.1036	-1.8312	-0.0531	-3.8138	-20.3391	-1.7043	-0.3247	-14.7608	0.2689	-2.7386	-0.2253	-1.6774	-0.0345	0.6972
712.0048	-0.1254	-0.1326	0.0316	-1.1748	-0.0180	-1.6918	-5.8183	-0.7157	-0.1123	-8.1883	0.1802	-1.5425	-0.1654	-0.7206	0.0080	0.7856
720.0048	-0.0420	-0.0527	-0.0406	-1.3087	-0.1176	0.4323	7.3985	0.2079	0.1069	0.2080	0.1455	-0.4180	-0.0085	0.1896	0.0131	0.6102
728.0049	0.0327	0.0742	0.0255	-1.7464	-0.0690	0.0190	-0.8973	-0.1381	0.0658	3.0223	-0.0856	-0.3234	0.1647	0.0845	0.1579	2.0701
736.0049	0.1964	0.1658	0.1053	-1.9725	0.0879	-1.0028	-18.1728	-0.8341	-0.0978	6.9353	-0.1576	-0.2137	0.3705	-0.4719	0.0009	0.9258
744.0050	0.2665	0.1047	0.1076	-1.7210	0.1031	-1.4787	-17.9016	-0.8656	-0.1836	0.3809	-0.2497	-0.2233	0.1886	-0.6070	0.1258	1.0396
752.0050	0.2983	-0.0244	-0.0368	-1.7457	0.1506	0.5090	5.2593	0.1856	0.0976	2.4652	0.1491	-0.2366	0.1502	0.1818	0.0048	0.1571
760.0051	0.2616	-0.1275	-0.1339	-1.6320	0.2085	1.7089	16.4850	0.8031	0.2153	4.9377	0.4748	0.0433	0.0957	0.5363	-0.2811	-2.2854
768.0051	-0.0262	-0.0766	-0.1216	0.1075	0.0620	1.9028	18.2482	0.9044	0.2549	5.1062	0.3680	0.1709	0.0397	0.7069	-0.2053	-1.3032
776.0052	-0.0197	0.0019	-0.0846	0.0128	0.0247	1.7021	11.2401	0.6259	0.2386	9.7750	0.3533	0.1811	0.2112	0.5666	-0.2889	-1.4009
784.0052	-0.0326	-0.0354	-0.0281	-0.9125	0.0164	0.2966	2.7539	0.1264	0.0346	1.0736	0.1073	-0.0230	-0.0071	0.0700	-0.0914	-0.5991
792.0053	-0.0295	-0.0202	-0.0790	-0.5928	-0.1007	1.5002	14.1889	0.7317	0.1905	3.1613	0.0963	0.3515	0.0077	0.6524	0.0084	0.1204
800.0053	0.1874	-0.0110	-0.0804	-1.3892	0.0479	1.5494	10.0742	0.6751	0.1464	6.2039	0.1446	0.6900	0.1182	0.5549	-0.1426	-1.4566
808.0054	-0.0782	-0.0700	-0.0448	-0.8077	0.0619	0.4121	4.8232	0.3007	-0.0019	-1.5892	0.0449	0.3414	-0.1464	0.1334	-0.0780	-1.1673
816.0054	-0.2379	-0.0164	-0.1071	0.0984	-0.2027	2.1286	17.5073	0.9891	0.2502	6.3165	0.1803	0.6636	-0.0066	0.8566	-0.1465	-0.8367
824.0055	0.0256	0.0982	-0.0058	-1.2871	-0.0990	0.8670	1.2899	0.2423	0.0849	6.9477	-0.0983	0.6060	0.1766	0.3603	0.0026	0.2672
832.0056	0.1708	0.0909	0.1268	-2.4005	0.1568	-1.9644	-24.2938	-1.0556	-0.3190	-1.5467	-0.3542	0.1550	0.0697	-0.8608	0.0490	-0.1397
840.0056	0.0015	-0.0356	0.0677	-2.0506	0.0788	-1.6599	-16.7655	-0.7135	-0.3155	-5.9574	-0.2168	0.2353	-0.1873	-0.7708	-0.0554	-1.5081
848.0057	-0.2123	-0.0703	-0.0325	-0.7703	-0.0785	0.1602	4.7933	0.1496	0.0273	-2.0637	0.0841	-0.1747	-0.1455	0.0623	-0.0376	-0.1358
856.0057	0.0161	0.0273	-0.0422	-1.0491	-0.0457	0.9906	5.0535	0.1838	0.2064	10.0585	0.3475	-0.4142	0.3073	0.2756	-0.2396	-0.3451
864.0058	-0.0498	0.0289	0.0152	-1.1785	-0.0532	-0.1592	-3.9771	-0.2989	0.0476	5.1597	0.1714	-0.5829	0.1920	-0.1598	-0.1436	0.1345
872.0058	-0.2670	-0.0429	-0.0220	0.0814	-0.1659	0.1133	4.2854	-0.0152	0.1085	1.3409	0.2519	-0.8062	0.0063	0.0133	-0.1072	0.4741
880.0059	-0.1684	-0.0505	-0.0784	-0.1278	-0.2146	1.2328	12.9769	0.5359	0.2134	4.1048	0.2973	-0.2495	0.0315	0.4673	-0.1378	-0.1828
888.0059	-0.2553	-0.0274	-0.0474	-0.2460	-0.2073	0.8143	11.1718	0.4193	0.1570	0.3239	0.0761	-0.2193	-0.0706	0.4179	0.0698	1.2210
896.0060	0.0600	-0.0659	0.0171	-1.3408	-0.0463	-0.8829	-3.4800	-0.3986	-0.0566	-3.6753	0.0934	-0.8263	-0.0346	-0.3833	0.0236	0.4935
904.0060	0.0819	-0.1421	0.0367	-1.3409	0.0130	-1.8434	-7.4293	-0.6715	-0.2019	-11.2240	0.0234	-1.0371	-0.2406	-0.7574	0.0945	0.2961
912.0061	-0.3708	-0.0683	-0.0392	1.1378	-0.1600	0.3004	8.5971	0.1549	0.1425	-0.4258	0.2771	-0.8528	-0.0786	0.1311	-0.0793	0.6765
920.0061	-0.1410	-0.0130	-0.0091	0.0478	-0.1422	0.0484	1.1669	-0.1201	0.0961	3.4693	0.2598	-0.7501	0.1102	-0.0529	-0.1486	0.1661
928.0062	-0.1368	-0.1160	0.0205	-0.4191	-0.1093	-1.2466	-0.8124	-0.3265	-0.1232	-11.5924	-0.0857	-0.7671	-0.3253	-0.3949	0.2212	1.3749
936.0062	-0.1749	-0.0664	-0.0413	0.5704	-0.1485	0.4063	10.0105	0.3559	0.0817	-3.9980	0.0325	-0.1963	-0.1803	0.2688	0.1164	0.9129
944.0063	-0.0891	-0.0130	0.0363	-0.3120	-0.1028	-0.7970	-4.0607	-0.2628	-0.1092	-5.6735	-0.1912	-0.1154	-0.1619	-0.2391	0.1678	0.9609
952.0064	-0.4143	-0.0837	0.0399	0.8098	-0.1311	-1.3702	-3.8805	-0.4015	-0.1587	-11.1457	-0.1479	-0.5590	-0.3877	-0.4507	0.1568	1.0792
960.0064	-0.0823	0.0223	-0.0208	0.6483	-0.0695	0.6190	5.4218	0.2838	0.0912	1.8307	0.0052	0.1441	0.0188	0.2986	0.0293	0.4607
968.0065	0.2205	0.0620	-0.0165	-0.3761	0.0089	0.8275	5.4076	0.3878	0.0815	2.3730	-0.1495	0.5696	0.0999	0.4347	0.1712	0.8716
976.0065	-0.1682	-0.0846	-0.0613	0.7227	-0.0300	0.6125	8.2858	0.3179	0.1071	0.8734	0.2985	-0.2822	-0.0586	0.1721	-0.1965	-1.0748
984.0066	-0.3266	-0.0358	0.0359	0.9654	-0.0165	-1.0213	-7.3775	-0.5054	-0.0892	-2.2803	0.1145	-0.6748	-0.0961	-0.4923	-0.1527	-0.4187
992.0066	-0.1094	0.0731	0.1337	0.6439	0.0352	-2.1547	-20.2977	-0.9552	-0.3183	-7.3667	-0.4500	0.0175	-0.1493	-0.7948	0.2074	1.0292
1000.0067	0.0653	-0.0402	0.0374	-0.5065	0.0713	-0.9884	-7.2343	-0.1675	-0.2716	-10.1755	-0.4146	0.8453	-0.3422	-0.3212	0.1990	-0.6098
1008.0067	-0.3882	-0.1410	-0.0575	0.1472	-0.1258	0.3198	11.6012	0.7098	-0.1187	-14.2703	-0.3793	1.1567	-0.6843	0.3415	0.2748	-0.2223
1016.0068	-0.4531	-0.0304	-0.0506	1.3602	-0.2256	0.9696	11.1753	0.7264	0.0282	-4.4247	-0.2258	1.0394	-0.3734	0.5411	0.1137	-0.0665
1024.0068	0.1019	0.0833	0.0374	-0.5388	0.0389	-0.0830	-4.9659	0.0160	-0.1129	-1.2082	-0.3999	0.9960	-0.0444	0.0625	0.1943	0.3430
1032.0069	-0.0814	0.0263	0.0050	-0.4038	-0.0110	0.2006	0.5529	0.2845	-0.1016	-4.1908	-0.4023	1.1631	-0.2291	0.2104	0.2036	0.0947
1040.0069	-0.1136	-0.0710	-0.0892	-0.1314	-0.1767	1.3709	13.6100	0.8013	0.1053	-0.1586	0.0545	0.7499	-0.1756	0.5687	-0.0559	-1.1846
1048.0070	0.1106	-0.0220	-0.0859	-0.7405	-0.0741	1.6081	13.9226	0.7626	0.1905	4.2951	0.1349	0.4576	0.0623	0.6566	-0.0373	-0.4430
1056.0071	-0.0742	0.1354	-0.0725	0.5219	-0.0247	2.4721	9.8727	0.7996	0.3049	17.6137	0.2400	0.9085	0.4048	0.8757	-0.3390	-1.4599
1064.0071	0.1560	0.2154	0.0263	-0.3849	0.1258	0.9903	-8.0211	-0.0255	0.0983	17.2873	0.0373	0.7995	0.5394	0.2281	-0.2966	-1.3051
1072.0072	0.2847	0.2071	0.0711	-0.7890	0.2317	0.0223	-15.8907	-0.3617	-0.0814	11.6156	-0.1893	0.9921	0.4169	-0.1300	-0.1676	-1.3149
1080.0072	-0.0444	0.1421	-0.0398	0.5631	0.0860	1.8647	0.7840	0.5683	0.1221	15.4771	0.0704	1.5575	0.3052	0.5656	-0.4102	-3.0720
1088.0073	-0.1710	0.0576	-0.0799	0.7479	0.0230	2.1046	11.7223	0.8950	0.1986	9.3300	0.0803	1.1668	0.0954	0.8098	-0.2040	-1.5361
1096.0073	-0.1615	0.0239	-0.1021	0.6615	-0.0007	2.3227	16.1050	1.0723	0.2286	7.7154	0.0973	1.1512	0.0337	0.9316	-0.1567	-1.3531
1104.0074	-0.0973	-0.0778	-0.1612	-0.1728	-0.0270	2.8186	26.2474	1.5454	0.2531	2.3064	0.0791	1.3927	-0.1837	1.2062	-0.0368	-1.4273
1112.0074	-0.1463	-0.0701	-0.1000	0.6968	0.0245	1.6073	15.7771	0.9756	0.1079	-0.8879	0.0145	1.0380	-0.2252	0.6912	-0.0416	-1.4126
1120.0075	-0.2841	0.0914	-0.0135	1.6257	-0.0441	0.9790	-1.5262	0.2676	0.0508	9.3709	0.0555	0.9632	0.1151	0.2570	-0.3408	-2.2958
1128.0075	-0.2333	-0.0446	-0.1083	-0.1489	-0.1613	1.9981	19.2045	1.1220	0.1775	0.6478	-0.0327	1.0611	-0.2048	0.9075	0.0371	-0.4340
1136.0076	-0.2027	-0.1880	-0.1342	0.1779	-0.1113	1.4618	22.3806	1.1178	0.1066	-7.7131	0.0672	0.6547	-0.4579	0.6908	0.0579	-1.0052
1144.0076	-0.1739	-0.0650	-0.0102	1.1540	-0.0163	-0.2537	-0.7803	-0.0032	-0.0745	-3.3008	0.0516	0.1223	-0.1856	-0.1604	-0.1291	-1.4378
1152.0077	-0.0448	-0.0638	-0.0131	0.4274	0.0760	-0.1810	-0.0554	0.0794	-0.0932	-4.4081	-0.0422	0.3624	-0.1996	-0.0941	-0.0401	-1.2613
1160.0077	-0.1838	-0.0934	0.0284	0.7700	0.1322	-1.2673	-11.8781	-0.4201	-0.2910	-6.9413	-0.0531	0.4267	-0.3198	-0.6687	-0.2402	-3.1776
1168.0078	-0.3743	-0.1015	0.0195	1.1824	0.0055	-1.0956	-5.9661	-0.2604	-0.2231	-9.4142	-0.1047	0.1746	-0.4180	-0.4724	-0.0747	-1.5353
1176.0079	-0.2075	-0.1685	-0.1037	0.9967	-0.0529	0.9725	17.1695	0.8730	0.0424	-8.3927	0.0297	0.5921	-0.4503	0.4775	0.0434	-1.1263
1184.0079	-0.1712	-0.1313	-0.0553	1.8589	-0.0678	0.2214	7.2564	0.4026	-0.0437	-6.7899	0.0630	0.3785	-0.3478	0.0804	-0.0807	-1.7812
1192.0080	-0.1795	-0.0590	-0.0987	2.7155	-0.1859	1.6090	16.6768	0.7917	0.2431	3.8593	0.3592	0.0179	-0.0086	0.6161	-0.2029	-1.0370
1200.0080	0.1430	0.0607	-0.0456	1.8244	0.0162	1.2889	3.3424	0.2670	0.2144	13.8714	0.4624	-0.0388	0.4258	0.2950	-0.4403	-2.1332
1208.0081	0.1278	0.1262	0.1131	1.5316	0.1762	-1.4734	-23.6776	-1.0037	-0.2007	5.7886	-0.0001	-0.0964	0.2933	-0.8112	-0.2856	-1.7074
1216.0081	-0.2002	0.0084	-0.1356	2.5353	-0.1142	2.9342	23.2418	1.4456	0.3048	7.3943	0.1438	1.3490	-0.0209	1.2195	-0.1498	-1.4954
1224.0082	-0.1024	0.0091	-0.2289	1.7713	-0.1470	4.9014	40.6750	2.4394	0.5189	10.8947	0.1377	2.1625	-0.0030	2.1137	-0.0514	-1.2285
1232.0082	0.1832	0.1085	-0.0333	0.4458	0.1124	1.5173	4.5283	0.6251	0.0904	7.8861	-0.1273	1.4043	0.1742	0.6089	-0.0507	-1.1401
1240.0083	0.1222	0.0833	-0.0620	0.5393	0.1132	1.8599	4.8957	0.6459	0.1520	13.0276	0.1724	1.2026	0.2862	0.5784	-0.3613	-2.8571
1248.0083	0.0381	0.0433	-0.1214	0.9585	0.0139	2.7908	17.6326	1.1155	0.3411	14.0304	0.3549	0.8436	0.2887	1.0169	-0.3251	-1.9393
1256.0084	0.1359	0.1022	-0.0596	0.8726	0.0739	1.8944	6.8917	0.5077	0.2824	16.5116	0.3888	0.2712	0.4841	0.5891	-0.3743	-1.5368
1264.0084	0.0560	0.1468	0.0268	0.3937	0.1154	0.4350	-7.1367	-0.2557	0.1179	14.2546	0.2385	-0.1793	0.4925	-0.0075	-0.3214	-0.7451
1272.0085	0.2609	0.0978	-0.0048	-0.2436	0.1019	0.7531	1.8617	0.0878	0.1671	9.2105	0.1422	-0.1951	0.3879	0.2744	-0.0408	0.7077
1280.0085	0.5800	0.1214	-0.0342	-1.0945	0.2162	1.4653	2.2950	0.2711	0.2252	16.0852	0.2969	0.1894	0.6221	0.4249	-0.2390	-0.9773
1288.0086	0.2361	0.1605	0.0212	-0.7982	0.1995	0.6102	-7.3161	-0.2600	0.1497	17.0064	0.2926	-0.2292	0.6254	0.0267	-0.3456	-0.8045
1296.0087	0.0176	0.1325	-0.0291	-0.0227	-0.0419	1.5034	5.3018	0.2664	0.3008	15.9278	0.3198	-0.2619	0.5103	0.5123	-0.2272	0.4042
1304.0087	0.1304	0.1463	-0.0051	-0.5746	-0.1456	1.1537	4.0876	0.1904	0.2458	12.2073	0.1079	-0.1774	0.4478	0.4808	0.0012	1.6408
1312.0088	0.2101	0.0843	0.0220	-0.9790	-0.0704	0.1281	0.0099	-0.1528	0.1240	5.2060	0.0423	-0.6196	0.3054	0.1022	0.1258	2.1439
1320.0088	0.2849	0.0202	-0.0126	-0.9338	0.0440	0.3336	2.4443	0.0015	0.1194	4.6855	0.1808	-0.5121	0.2597	0.1041	-0.0103	0.6531
1328.0089	0.0422	-0.0016	0.0373	-0.6396	0.0611	-0.8197	-4.3556	-0.4310	-0.0260	-1.8787	0.0220	-0.8211	0.0538	-0.3045	0.0962	1.4031
1336.0089	0.0790	-0.1032	-0.0493	-0.5987	0.0596	0.1799	9.4528	0.1190	0.1410	-1.5917	0.3229	-1.1077	0.0234	0.0791	0.0143	0.9314
1344.0090	0.1073	-0.1390	-0.0952	-0.5520	0.0570	0.8108	15.2030	0.3425	0.2596	2.1431	0.5965	-1.3728	0.1224	0.2486	-0.1571	0.1599
1352.0090	-0.4023	-0.1392	-0.0327	0.8758	-0.1546	-0.4198	8.2372	-0.1962	0.1624	-3.0837	0.5025	-2.0700	-0.0745	-0.1822	-0.0898	1.5587
1360.0091	-0.1286	-0.0818	-0.0185	-0.2532	-0.1662	-0.2599	7.0300	-0.1068	0.1290	-2.8676	0.2594	-1.4649	-0.0182	-0.0430	0.0916	2.1264
1368.0091	0.3360	0.0175	0.0831	-2.3573	0.0785	-1.6082	-10.3940	-0.7296	-0.1529	-6.3670	-0.2533	-0.7458	0.0317	-0.5317	0.3602	2.5974
1376.0092	-0.0884	0.0221	0.1276	-0.3607	0.0851	-2.4760	-20.1837	-1.1692	-0.2818	-7.2717	-0.2330	-0.8289	-0.0881	-0.9817	0.1401	1.3097
1384.0092	-0.1530	0.1070	0.1401	0.1333	0.0267	-2.0840	-19.3508	-1.0972	-0.2030	-3.3034	-0.2974	-0.7386	0.0395	-0.7667	0.2006	2.3760
1392.0093	0.1528	0.0452	0.0739	-1.3054	-0.0698	-1.1239	-2.7817	-0.3845	-0.0756	-8.7587	-0.4344	-0.5591	-0.0839	-0.1460	0.6106	4.5178
1400.0093	-0.0121	-0.0973	-0.0879	-0.0394	-0.2065	1.1605	21.6750	0.8296	0.2077	-5.8831	0.0143	-0.2387	-0.2065	0.7118	0.3437	2.4087
1408.0094	0.0635	0.0666	0.0300	-0.1884	-0.0452	-0.1275	0.2180	-0.1513	0.0746	1.1638	-0.0646	-0.5404	0.1476	0.0638	0.2105	2.4753
1416.0095	0.3585	0.0585	0.1087	-1.9156	0.1549	-1.8722	-15.7911	-0.9922	-0.1621	-3.0948	-0.1794	-0.9533	0.1738	-0.7104	0.2501	2.2861
1424.0095	0.0259	-0.1178	-0.0246	-1.1943	0.1250	-0.3973	4.6416	-0.0263	-0.0047	-6.4200	0.1041	-0.7138	-0.1570	-0.1210	0.0984	0.6835
1432.0096	-0.1891	-0.1218	-0.0455	-0.4091	0.0373	0.0088	9.1035	0.1237	0.0904	-4.4387	0.2323	-0.9456	-0.1501	0.0403	0.0271	0.8817
1440.0096	-0.0126	-0.1140	-0.0596	-0.2533	-0.0357	0.3088	10.0872	0.1415	0.1673	-0.1042	0.4251	-1.1910	0.0327	0.0814	-0.0940	0.4085
1448.0097	-0.1297	0.0319	-0.0415	0.7327	-0.0632	1.0305	10.4856	0.2517	0.2998	8.1122	0.3720	-0.9850	0.2821	0.4182	-0.0831	1.5779
1456.0097	-0.0160	0.1683	0.0588	0.0342	0.0164	-0.0439	-6.6851	-0.4719	0.1483	11.3743	0.1387	-0.8879	0.4880	-0.0525	-0.0591	2.0094
1464.0098	0.1786	0.1273	0.1103	-1.3293	0.1010	-1.4218	-17.9678	-1.0178	-0.0832	4.9718	-0.0268	-0.9183	0.3657	-0.6417	0.0044	1.4687
1472.0098	-0.0148	0.0989	0.0928	-0.9796	0.0604	-1.2498	-14.1956	-0.8808	-0.0513	3.6738	0.0032	-0.9924	0.2660	-0.5449	0.0039	1.6410
1480.0099	-0.0833	0.0607	0.0501	-0.9734	0.0328	-0.6721	-10.0963	-0.6394	0.0109	6.4162	0.1932	-0.8919	0.2740	-0.4064	-0.1938	0.2633
1488.0099	-0.1297	0.0707	0.0571	-1.0255	0.0370	-0.7259	-10.1699	-0.6443	0.0022	5.5683	0.1247	-0.8509	0.2433	-0.3892	-0.1330	0.7049
1496.0100	-0.2813	0.0165	0.0329	-0.5970	-0.0986	-0.5980	-4.2851	-0.4738	0.0455	2.4414	0.1681	-1.0958	0.1065	-0.2795	-0.0745	1.2586
1504.0100	-0.3012	-0.0813	0.0173	-0.9782	-0.1884	-0.9704	-0.9186	-0.4301	-0.0095	-4.9839	0.1315	-1.2958	-0.1328	-0.3661	0.0501	1.5686
1512.0101	-0.0835	-0.0425	0.0763	-1.8833	-0.1125	-1.8960	-9.9095	-0.8468	-0.1517	-8.0874	-0.1088	-1.2440	-0.1216	-0.6911	0.2262	2.3348
1520.0101	-0.0233	-0.1649	0.0721	-2.3354	-0.0798	-2.7289	-13.2604	-1.0510	-0.3082	-15.1780	-0.0655	-1.3581	-0.3501	-1.1022	0.1561	0.8014
1528.0102	-0.2947	-0.2844	0.0599	-1.5611	-0.0558	-3.3235	-10.8262	-1.0604	-0.3988	-24.4375	-0.0822	-1.6002	-0.7086	-1.2914	0.2104	0.6757
1536.0103	-0.1971	-0.2150	0.0654	-1.3791	0.0058	-2.9390	-12.0928	-1.0076	-0.3577	-19.4956	-0.0887	-1.3154	-0.5395	-1.1641	0.1603	0.4689
1544.0103	-0.1762	-0.2795	0.0369	-1.5675	-0.0512	-2.8249	-9.3715	-0.8589	-0.3744	-21.5495	-0.0278	-1.1937	-0.6453	-1.1531	0.1024	-0.4861
1552.0104	-0.3672	-0.3011	0.0682	-0.8938	-0.0866	-3.5836	-14.0990	-1.0934	-0.5014	-26.9013	-0.1735	-1.1544	-0.8459	-1.4237	0.1591	-0.4565
1560.0104	-0.2577	-0.2460	0.1236	-1.2149	-0.0864	-4.2982	-25.1434	-1.4555	-0.6660	-27.4740	-0.3973	-0.6587	-0.8384	-1.7427	0.1707	-1.0851
1568.0105	-0.3654	-0.3153	0.0950	-0.8193	-0.2295	-4.1538	-17.5961	-1.1570	-0.6584	-33.7488	-0.4813	-0.5990	-1.0836	-1.5631	0.3422	-0.3618
1576.0105	-0.1537	-0.3231	0.0485	-0.5151	-0.1989	-3.2798	-9.9578	-0.7607	-0.5363	-30.7246	-0.3450	-0.4835	-0.9711	-1.2202	0.3124	-0.6670
1584.0106	0.1261	-0.3377	0.0177	-1.8247	-0.0290	-2.7925	-7.6494	-0.5375	-0.5196	-28.8256	-0.3063	-0.1012	-0.8953	-1.0750	0.2657	-1.6512
1592.0106	-0.2524	-0.4771	-0.0486	-1.5175	-0.0461	-2.3963	3.9239	-0.0491	-0.5000	-36.3367	-0.2726	-0.0124	-1.2952	-0.8416	0.2985	-1.9558
1600.0107	-0.1994	-0.4947	-0.0189	-1.4108	-0.0054	-3.1314	-3.2988	-0.3227	-0.6521	-39.7644	-0.3773	0.2074	-1.3951	-1.1783	0.2765	-2.8984
1608.0107	0.0279	-0.3472	0.0479	-1.9099	0.0866	-3.4272	-12.5981	-0.6618	-0.6876	-35.0094	-0.5946	0.4301	-1.1296	-1.2654	0.3927	-1.7807
1616.0108	-0.0406	-0.3060	-0.0024	-1.3806	0.1221	-2.1215	-4.1643	-0.2246	-0.4738	-26.5660	-0.3588	0.4427	-0.9167	-0.7850	0.2311	-1.9850
1624.0108	-0.0527	-0.3552	0.0141	-1.1131	0.1343	-2.8415	-7.6092	-0.5040	-0.5484	-30.2752	-0.3130	0.0203	-0.9987	-1.1005	0.2171	-2.1317
1632.0109	-0.0582	-0.3025	0.0380	-0.7414	0.0191	-2.9297	-7.7522	-0.6093	-0.4982	-29.3443	-0.3641	-0.3125	-0.9087	-1.0562	0.3494	-0.4847
1640.0109	0.1336	-0.2839	-0.0229	-1.2493	0.0074	-1.5915	0.5608	-0.1451	-0.3037	-20.9568	-0.1102	-0.1859	-0.6562	-0.5993	0.1836	-1.2453
1648.0110	0.0594	-0.2860	-0.0291	-1.1479	0.0255	-1.4832	2.6764	-0.1028	-0.2618	-20.7242	-0.0726	-0.3740	-0.6530	-0.5344	0.1983	-0.7824
1656.0111	-0.0578	-0.2343	-0.0054	-0.6561	-0.0937	-1.5637	0.0982	-0.2097	-0.2597	-19.1107	-0.1356	-0.3553	-0.6136	-0.5479	0.2109	-0.2900
1664.0111	0.0348	-0.3612	0.0302	-2.2019	-0.1154	-3.2089	-7.6788	-0.6787	-0.5370	-32.1535	-0.3457	-0.4999	-0.9796	-1.1820	0.3772	-0.5751
1672.0112	-0.2815	-0.5145	0.0021	-1.9723	-0.1673	-3.7167	-1.2050	-0.5985	-0.5872	-43.0883	-0.3335	-1.0020	-1.3928	-1.2915	0.5006	-0.0008
1680.0112	-0.2533	-0.4478	-0.0135	-1.6603	-0.2001	-2.9217	0.7153	-0.4045	-0.4738	-35.6605	-0.2297	-0.7851	-1.1812	-1.0270	0.3703	-0.4087
1688.0113	0.0267	-0.3841	0.0521	-2.8437	-0.1233	-3.8031	-8.7063	-0.8394	-0.6017	-37.6837	-0.4976	-0.7346	-1.1089	-1.3190	0.5841	0.7435
1696.0113	-0.0560	-0.4614	0.0258	-2.4478	-0.1535	-3.8241	-4.3624	-0.7192	-0.5975	-41.4503	-0.4172	-0.9404	-1.2587	-1.3165	0.5816	0.5402
1704.0114	0.0112	-0.5255	0.0152	-2.5457	-0.1114	-4.0986	-5.9030	-0.7707	-0.6707	-43.8757	-0.3511	-0.8857	-1.3483	-1.5030	0.4803	-0.8261
1712.0114	0.0182	-0.4073	-0.0164	-1.8752	0.0008	-2.6127	0.3160	-0.3532	-0.4365	-31.8960	-0.1921	-0.6436	-0.9946	-0.9364	0.3445	-0.6711
1720.0115	0.0039	-0.2724	0.0077	-1.3385	0.0209	-2.1722	-5.5480	-0.5318	-0.3360	-19.6882	-0.0267	-0.6727	-0.5989	-0.9005	0.0795	-1.2598
1728.0115	0.0504	-0.3997	0.2422	-3.6348	0.0554	-7.9131	-45.7784	-2.8277	-1.1268	-47.3607	-0.6733	-1.8871	-1.2076	-3.1570	0.5005	-0.0003
1736.0116	-0.1225	-0.5714	0.2521	-3.9854	0.0540	-9.3142	-45.5241	-3.0266	-1.3419	-64.5098	-0.8878	-2.2292	-1.7589	-3.5759	0.7854	0.7794
1744.0116	-0.1486	-0.5466	0.1581	-2.3999	0.0082	-7.1583	-27.9258	-2.0058	-1.0812	-58.2787	-0.7719	-1.4777	-1.6826	-2.6505	0.7467	0.4857
1752.0117	-0.0813	-0.4941	0.1833	-1.4041	-0.0200	-7.3147	-30.3541	-2.2058	-1.0352	-55.3868	-0.7041	-1.9027	-1.5107	-2.7171	0.7455	1.2357
1760.0118	-0.1058	-0.4375	0.0807	-0.6245	-0.0431	-4.8468	-11.3139	-1.3366	-0.5958	-41.0563	-0.2419	-2.1657	-1.1086	-1.7571	0.5463	1.6961
1768.0118	-0.0633	-0.2257	0.0616	-0.4761	-0.0068	-2.8886	-3.4419	-0.7804	-0.2897	-25.8704	-0.2535	-1.6500	-0.6336	-0.8937	0.5806	3.4210
1776.0119	-0.0428	0.0191	0.0565	0.4481	0.0671	-1.0471	-3.4873	-0.5197	0.0040	-3.5194	-0.0173	-1.2260	0.0486	-0.3021	0.2332	2.9397
1784.0119	-0.1220	0.1056	-0.1160	1.9857	0.0283	3.0877	25.6863	1.0467	0.6233	18.4889	0.5943	-0.7784	0.5655	1.2781	-0.1527	2.1089
1792.0120	-0.1092	0.1407	-0.2275	2.5725	-0.0553	5.6894	46.9478	2.2596	0.9417	26.1308	0.6888	0.0990	0.6769	2.4161	-0.1378	2.2631
1800.0120	-0.0066	0.2739	-0.2226	2.7256	0.0079	6.5677	40.4986	2.4214	0.9320	37.2255	0.6323	1.4526	0.9327	2.6036	-0.4360	-0.4034
1808.0121	-0.0004	0.4003	-0.1152	2.9055	0.0191	5.3113	22.5158	1.6943	0.7308	37.9939	0.3243	1.7260	1.0218	2.0823	-0.3934	-0.1657
1816.0121	0.2558	0.4622	-0.0685	2.4817	0.0021	4.7636	14.9022	1.2830	0.7004	40.6011	0.3137	1.3931	1.2366	1.8299	-0.3695	0.3940
1824.0122	0.5645	0.5835	-0.0627	1.9402	0.2146	5.4387	9.5004	1.2250	0.7861	53.6158	0.4901	1.6887	1.7019	1.9157	-0.6539	-1.0819
1832.0122	0.3050	0.6849	0.0401	2.9864	0.2841	4.1341	-5.5248	0.5968	0.5788	50.6844	0.1158	1.9480	1.6134	1.4537	-0.5355	-0.2798
1840.0123	0.0472	0.6881	0.0353	3.8848	0.1296	4.3696	-0.1760	0.9054	0.5713	45.7131	-0.1468	2.4274	1.3670	1.7256	-0.3040	0.9312
1848.0123	0.2783	0.7453	0.0435	3.0641	0.1578	4.6286	2.5092	0.9984	0.6377	46.6228	-0.2762	2.4000	1.4946	1.9513	-0.0653	2.8163
1856.0124	0.5191	0.7487	0.1098	2.5709	0.2681	3.2193	-11.3790	0.2540	0.4709	45.1678	-0.2659	1.8930	1.5900	1.2787	-0.1240	2.3309
1864.0124	0.3508	0.6673	0.0225	3.1142	0.2739	4.4203	1.0433	0.9090	0.5986	46.3319	-0.0477	2.1969	1.4784	1.7182	-0.2958	0.8766
1872.0125	0.1032	0.7446	0.0204	3.9148	0.2062	5.0544	4.1569	1.0572	0.7308	51.8560	-0.0113	2.1439	1.6024	2.0075	-0.3217	1.8138
1880.0126	0.1357	0.8185	0.1008	4.0451	0.0896	3.9236	-9.9727	0.3478	0.6140	53.6838	-0.0677	1.7832	1.7482	1.4818	-0.3745	1.9798
1888.0126	0.2647	0.8002	0.0353	3.2920	0.0659	5.1718	4.4847	1.0547	0.7725	53.3437	-0.1130	2.1224	1.7189	2.1297	-0.1648	3.1656
1896.0127	0.3836	0.7978	-0.0016	2.3071	0.2074	5.8694	8.5613	1.3088	0.8549	57.4023	0.0108	2.2786	1.8342	2.3535	-0.2639	2.4883
1904.0127	0.2220	0.6789	-0.0126	2.0750	0.2819	5.2032	6.8833	1.1482	0.7430	51.4647	0.1075	2.0260	1.5906	2.0103	-0.3821	1.1576
1912.0128	0.0742	0.6529	-0.0724	2.6057	0.1991	6.2799	20.9396	1.7403	0.9248	51.4218	0.1734	1.9654	1.5288	2.5655	-0.2677	2.3929
1920.0128	0.3586	0.7521	0.0016	1.6590	0.1794	5.4330	5.9366	1.0858	0.8194	56.4813	0.1271	1.8697	1.8149	2.1062	-0.3577	2.0143
1928.0129	0.3732	0.5831	0.0409	0.1119	0.2133	3.4209	0.0092	0.5858	0.5115	38.0066	-0.1615	1.4663	1.2934	1.4178	-0.0331	2.7612
1936.0129	0.0454	0.4000	-0.0545	0.2582	0.1521	4.0646	15.6992	1.1842	0.5967	31.1512	0.0438	1.2402	0.9223	1.7153	-0.0636	2.2359
1944.0130	-0.1423	0.4659	-0.0123	0.6177	0.0151	3.6551	5.8809	0.7468	0.5654	37.0279	0.1437	1.0501	1.0804	1.4070	-0.3139	1.3530
1952.0130	0.0462	0.4825	0.0160	-0.0068	-0.0348	3.2293	6.2157	0.6454	0.5413	32.3537	-0.0753	0.8318	1.0503	1.4031	0.0266	3.6460
1960.0131	0.1789	0.3770	-0.0527	-0.4530	0.0010	3.8353	16.3246	1.0590	0.6230	30.3925	0.1184	0.7081	0.9739	1.6327	-0.0045	3.0083
1968.0131	-0.1892	0.2687	-0.0255	-0.3000	-0.1150	2.5088	12.2129	0.6321	0.4737	20.6661	0.0904	0.0251	0.6290	1.1252	0.0417	3.3708
1976.0132	0.0093	0.1744	-0.0212	-1.5983	-0.1284	1.7232	12.4374	0.4705	0.3786	12.1743	0.0136	-0.3821	0.4506	0.8819	0.2507	4.1767
1984.0132	0.3223	0.1222	-0.0140	-2.6972	0.0492	1.1231	6.0834	0.2057	0.2550	10.6432	0.0779	-0.3666	0.4682	0.5131	0.1340	2.4847
1992.0133	-0.0473	0.1181	0.0265	-1.5792	0.0313	0.2516	0.0277	-0.2596	0.2090	9.3250	0.1565	-1.0981	0.4116	0.1316	0.0486	2.9052
2000.0134	-0.1243	0.0305	-0.0321	-1.3801	-0.0331	0.7671	9.8603	-0.0073	0.3607	9.8218	0.4904	-1.8390	0.4124	0.3074	-0.0512	2.9666
2008.0134	-0.1736	-0.0762	-0.0871	-1.0751	-0.1166	1.1538	22.1985	0.4354	0.4296	3.1160	0.5154	-2.0373	0.1733	0.5932	0.1298	3.8870
2016.0135	-0.0636	0.0627	-0.0835	-0.8760	-0.1431	2.1168	22.6879	0.6775	0.5370	11.9960	0.4338	-1.3814	0.4483	0.9895	0.1161	4.1145
2024.0135	0.0956	0.1592	-0.1019	-1.8867	0.0257	3.1852	20.8617	0.9783	0.5703	21.7022	0.4055	-0.2129	0.6793	1.2941	-0.1022	2.0469
2032.0136	-0.2639	0.0355	-0.1749	-0.7001	-0.0735	3.8598	34.9866	1.6176	0.6262	14.5591	0.4170	0.0151	0.2873	1.6768	-0.0289	1.9700
2040.0136	0.0117	0.1450	-0.1638	-0.7464	-0.0714	4.3769	30.1615	1.5540	0.6946	25.1532	0.5375	0.2764	0.6733	1.7448	-0.2389	0.9035
2048.0137	0.1772	0.2873	-0.0370	-2.1370	0.2388	2.7960	4.9075	0.6233	0.3837	26.9478	0.1553	0.9405	0.8126	1.0071	-0.2755	-0.0494
2056.0137	-0.2626	0.0824	-0.0337	-0.9906	0.1036	1.3071	4.9375	0.4209	0.1480	8.9003	0.0257	0.5885	0.1411	0.5004	-0.1371	-0.2568
2064.0138	-0.0968	-0.0193	-0.1063	-0.9711	-0.1117	2.0347	15.5279	0.8541	0.2583	8.4204	0.2818	0.4156	0.1099	0.7524	-0.2162	-1.1090
2072.0138	0.0569	0.1230	-0.1341	-1.5648	0.0085	3.6298	20.3549	1.3185	0.4590	20.9748	0.3143	1.0890	0.4890	1.3730	-0.2967	-1.0708
2080.0139	-0.1164	0.0967	-0.1811	-0.4170	-0.0147	4.3713	26.4916	1.5794	0.5950	25.5862	0.6196	0.8584	0.5575	1.5761	-0.5400	-2.0847
2088.0139	-0.2481	-0.0128	-0.1968	0.4224	-0.1567	3.9207	30.4524	1.5990	0.5536	17.6430	0.6501	0.4523	0.2877	1.4527	-0.4561	-1.8098
2096.0140	-0.0897	0.0636	-0.1395	-0.4902	-0.1318	3.3360	22.2086	1.3155	0.4311	16.3619	0.3336	0.8658	0.3137	1.2854	-0.2701	-1.0082
2104.0140	0.1726	0.0590	-0.1191	-1.1530	-0.0792	2.8221	16.3122	0.9971	0.3765	17.2144	0.4132	0.5855	0.4363	0.9902	-0.3397	-1.5761
2112.0141	0.0591	-0.0966	-0.1874	-0.1997	-0.1325	3.1128	29.2235	1.4540	0.4228	8.8913	0.5271	0.3269	0.1135	1.1914	-0.2514	-1.5235
2120.0142	0.1334	-0.0715	-0.1274	-1.0758	-0.1081	2.0953	18.3633	1.0396	0.2178	4.6474	0.2302	0.7152	0.0118	0.8013	-0.1392	-1.6106
2128.0142	0.0879	0.0402	-0.0371	-1.1085	-0.0655	1.0748	4.2395	0.4304	0.0746	5.4874	-0.0246	0.8026	0.0967	0.4012	-0.0725	-0.8943
2136.0143	0.0727	0.1068	-0.1220	-0.0937	-0.1003	3.3185	19.2289	1.3302	0.3717	16.3338	0.1709	1.4192	0.3330	1.2988	-0.2108	-1.3040
2144.0143	0.4505	0.1251	-0.0643	-2.2681	-0.0487	2.2231	7.0251	0.7636	0.2000	14.8041	0.0299	1.3733	0.4215	0.8032	-0.1520	-1.4827
2152.0144	0.2896	0.0126	0.0480	-2.1552	-0.0419	-0.9099	-11.3846	-0.4530	-0.1809	-1.5172	-0.1694	0.2466	0.0265	-0.4300	0.0218	-0.6848
2160.0144	0.2944	0.0043	-0.0014	-1.5447	-0.0576	0.0012	-5.0439	-0.1425	-0.0308	4.4640	0.1170	0.1461	0.1759	-0.1587	-0.1927	-1.6652
2168.0145	0.3547	0.0644	-0.0279	-2.7254	0.0248	0.9763	1.6105	0.1954	0.1268	9.9027	0.1260	0.2501	0.3548	0.2923	-0.1192	-0.5162
2176.0145	0.0791	0.0229	-0.0400	-1.4282	0.0777	0.9506	3.7970	0.2971	0.1074	6.8885	0.1355	0.3075	0.1727	0.2964	-0.1590	-0.9241
2184.0146	0.3361	0.0700	-0.0168	-1.7259	0.0858	0.7950	-3.3669	0.1198	0.0363	10.1550	0.1004	0.7147	0.3165	0.1370	-0.2621	-2.1705
2192.0146	0.2065	0.0735	-0.0257	-2.0629	0.0555	1.0466	1.1539	0.3092	0.0741	8.3625	-0.0121	0.7919	0.2281	0.3478	-0.1090	-0.9844
2200.0147	-0.1201	0.0329	-0.0473	-0.6231	0.0795	1.1864	2.2060	0.3722	0.0874	9.2556	0.1690	0.7438	0.1387	0.3084	-0.3507	-2.4378
2208.0147	-0.1006	0.1166	0.0220	-0.4800	-0.0068	0.3700	-7.8803	-0.1709	0.0290	11.1274	0.0866	0.3693	0.2896	-0.0247	-0.3128	-1.4521
2216.0148	-0.1834	0.1148	0.0232	-0.5653	-0.1769	0.3720	-4.7107	-0.1146	0.0617	8.9637	0.0133	0.1772	0.2259	0.0764	-0.1572	-0.0722
2224.0148	0.0914	0.0466	0.0591	-1.5722	-0.0196	-0.9299	-14.7488	-0.6527	-0.1354	3.6478	0.0113	-0.1150	0.1627	-0.5417	-0.1913	-1.1594
2232.0149	-0.0352	0.0453	0.0595	-0.4711	0.0636	-0.9908	-14.0717	-0.7719	-0.0631	5.6459	0.2096	-0.7680	0.2480	-0.6012	-0.2869	-0.8392
2240.0150	-0.2890	0.1171	0.0446	0.4402	-0.0258	-0.1498	-13.4446	-0.5798	0.0364	14.0930	0.3286	-0.3861	0.3926	-0.3595	-0.5414	-1.9476
2248.0150	-0.0017	0.0893	0.1280	-1.6346	0.0189	-1.9848	-25.4370	-1.0941	-0.3226	-0.5960	-0.2970	0.1517	0.0415	-0.9154	-0.0641	-0.7343
2256.0151	-0.3034	-0.1404	-0.0413	-0.0064	-0.1262	-0.0999	6.6230	0.3106	-0.0880	-10.1288	-0.1035	0.3202	-0.4699	0.0354	0.0809	-0.5817
2264.0151	-0.3823	-0.1346	-0.1057	0.4433	-0.1982	1.2440	14.4924	0.8016	0.0846	-2.0736	0.1698	0.5992	-0.3255	0.4622	-0.1957	-2.1115
2272.0152	0.0912	-0.0092	0.0332	-1.7505	0.0011	-0.6867	-7.0658	-0.1437	-0.2202	-6.3732	-0.3830	0.8500	-0.2250	-0.2257	0.1638	-0.4589
2280.0152	-0.1020	-0.0830	-0.0083	-0.9363	0.0563	-0.4208	-4.7051	-0.0363	-0.1880	-4.6672	-0.0839	0.6976	-0.2707	-0.2721	-0.1517	-2.5416
2288.0153	-0.4114	-0.0524	0.1083	-1.0777	0.0350	-2.6405	-25.5983	-1.2630	-0.3988	-6.3327	-0.0809	-0.4126	-0.2503	-1.2783	-0.2759	-2.1601
2296.0153	-0.2393	-0.1499	0.1608	-1.8450	0.0491	-4.3462	-29.5927	-1.5833	-0.6809	-24.8336	-0.5853	-0.3968	-0.7232	-1.7104	0.2726	-0.1317
2304.0154	-0.0515	-0.3909	0.0564	-2.6723	0.0105	-3.9822	-17.3870	-1.0227	-0.7171	-34.0534	-0.3837	-0.2022	-1.0941	-1.6220	0.1951	-2.5858
2312.0154	-0.1479	-0.3218	0.1117	-2.8177	-0.0441	-4.7040	-27.1652	-1.7194	-0.6714	-26.9737	-0.1271	-1.3859	-0.7730	-2.0440	-0.0026	-1.9327
2320.0155	-0.1366	-0.2307	0.0690	-0.7662	0.0439	-3.1341	-18.9119	-1.0855	-0.4935	-18.9017	-0.0842	-0.6009	-0.5893	-1.4001	-0.0870	-2.4312
2328.0155	0.0141	-0.3213	0.0455	-2.2079	0.1297	-3.2707	-15.8000	-0.8445	-0.6172	-27.4602	-0.3107	0.0240	-0.8861	-1.3718	0.1031	-2.8333
2336.0156	-0.1683	-0.4619	0.0365	-3.7387	-0.0222	-4.1273	-14.4591	-1.0767	-0.6804	-35.6591	-0.2212	-0.8494	-1.1512	-1.7009	0.1601	-2.2731
2344.0156	-0.2283	-0.4712	0.0001	-1.1479	-0.0493	-3.4082	-11.6665	-0.6610	-0.6885	-34.1363	-0.1824	0.0965	-1.2351	-1.4910	-0.0513	-4.8139
2352.0157	0.0871	-0.2372	0.1411	-0.0692	0.0766	-4.5745	-32.8411	-1.4588	-0.8661	-29.6634	-0.6016	0.5591	-0.9083	-1.9308	0.1019	-3.7411
2360.0158	0.1915	-0.1547	0.1377	-0.9912	0.0387	-3.9726	-32.8442	-1.5148	-0.6987	-19.1436	-0.3619	0.1012	-0.5194	-1.7835	-0.0568	-3.3816
2368.0158	0.0772	-0.2356	0.0736	-1.6229	-0.0431	-3.2063	-21.9986	-0.9736	-0.6375	-22.1824	-0.3527	0.4296	-0.7245	-1.4174	-0.0103	-3.6080
2376.0159	0.1422	-0.2355	0.1405	-1.9888	-0.0739	-4.5719	-30.6862	-1.5438	-0.7863	-28.4900	-0.5444	-0.0620	-0.8066	-1.8898	0.2034	-2.1439
2384.0159	0.1390	-0.2975	0.1264	-1.9019	-0.0545	-4.8195	-32.7271	-1.7540	-0.7762	-26.4688	-0.2168	-0.6719	-0.7363	-2.1614	-0.0758	-3.6538
2392.0160	-0.0253	-0.2819	0.0784	-0.7506	-0.0545	-3.6675	-21.5523	-1.1580	-0.6274	-24.8268	-0.2227	-0.3007	-0.7727	-1.5985	-0.0124	-3.0539
2400.0160	-0.0026	-0.1494	0.0445	0.6718	-0.0763	-2.0026	-14.1391	-0.6469	-0.3750	-12.4093	-0.0844	0.0867	-0.4131	-0.9418	-0.1325	-2.8766
2408.0161	-0.1540	-0.1247	0.0293	1.4035	-0.1394	-1.5171	-12.1465	-0.5379	-0.2853	-7.7052	0.0613	0.0242	-0.3181	-0.8016	-0.2837	-3.2741
2416.0161	-0.2067	-0.1305	-0.0132	2.0494	-0.2511	-0.6271	0.2285	0.0018	-0.1418	-9.1582	0.0070	0.1057	-0.3889	-0.2747	-0.0661	-1.6105
2424.0162	0.0531	-0.1208	-0.0381	1.9936	-0.1193	-0.1035	1.4061	0.1442	-0.0833	-4.2754	0.1696	0.2555	-0.2034	-0.1653	-0.2191	-2.8301
2432.0162	-0.1473	-0.1354	0.0068	3.0351	-0.0319	-1.1281	-7.2710	-0.2894	-0.2331	-8.1013	0.1099	0.1142	-0.3394	-0.6160	-0.2791	-3.3917
2440.0163	-0.0405	-0.0432	-0.0149	4.8518	-0.1157	0.0353	-1.4717	0.1792	-0.0989	-2.0515	0.0784	0.7680	-0.1691	-0.1039	-0.2685	-3.3298
2448.0163	0.3984	0.1123	-0.0215	4.2389	0.0385	1.2850	-0.9822	0.5046	0.0236	9.3887	0.0201	1.6510	0.2516	0.3689	-0.2974	-3.6169
2456.0164	0.0869	0.0184	-0.0540	4.3530	0.0271	1.3237	6.6844	0.7831	0.0136	1.8180	-0.0545	1.6431	-0.0875	0.5011	-0.1608	-3.0065
2464.0165	-0.0716	-0.1015	-0.0631	5.3609	-0.1097	0.6709	8.5155	0.7461	-0.0835	-7.4541	-0.0632	1.3939	-0.4195	0.2789	-0.1016	-3.2465
2472.0165	0.2507	0.0884	0.0482	5.2152	0.0450	-0.2836	-9.0868	-0.0572	-0.1583	-0.2241	-0.2070	1.1554	0.0167	-0.1493	-0.0685	-2.1402
2480.0166	0.3360	0.0913	-0.0027	5.6777	0.0594	0.7579	0.8901	0.3709	0.0308	4.1040	-0.0134	0.9900	0.1618	0.2844	-0.0923	-1.7394
2488.0166	0.2186	-0.1422	-0.0488	5.6205	-0.0018	0.0316	9.2155	0.5260	-0.0842	-12.0987	-0.0170	0.5623	-0.3908	0.0962	0.0932	-1.7140
2496.0167	0.1358	-0.1800	0.0449	5.0839	0.1051	-2.1824	-6.9778	-0.4092	-0.3722	-21.4298	-0.2150	-0.0303	-0.5958	-0.7954	0.1969	-1.2746
2504.0167	0.2926	-0.1988	0.0539	4.6658	0.1363	-2.5402	-10.7589	-0.5928	-0.4277	-21.7582	-0.1691	-0.1221	-0.5621	-1.0056	0.1362	-1.9746
2512.0168	0.3334	-0.1939	0.0189	4.1786	0.1758	-1.7693	-4.2816	-0.2077	-0.3490	-20.2670	-0.1876	0.2392	-0.5511	-0.6540	0.1791	-1.8642
2520.0168	0.0425	-0.1454	-0.0362	4.8738	0.1740	-0.3106	2.1436	0.2205	-0.1395	-8.8018	0.1250	0.4414	-0.3405	-0.2064	-0.1843	-3.2926
2528.0169	0.0145	-0.1272	0.0002	4.8899	0.0339	-0.9604	-4.5360	-0.2257	-0.1618	-7.0291	0.2305	-0.1805	-0.2287	-0.5390	-0.2738	-3.1148
2536.0169	0.2293	0.0236	0.1017	4.0141	0.0681	-1.9654	-19.8688	-0.9546	-0.2554	-2.9959	0.0249	-0.3966	0.0642	-0.9412	-0.1676	-1.6846
2544.0170	-0.0904	-0.0389	0.0664	4.4523	0.0869	-1.6925	-16.0929	-0.7726	-0.2351	-3.5951	0.1606	-0.3764	-0.0849	-0.8880	-0.3363	-2.8024
2552.0170	-0.4343	-0.2031	0.0037	4.6540	-0.0951	-1.5192	-0.9373	-0.2716	-0.2004	-15.7399	0.1068	-0.6497	-0.5749	-0.6130	-0.0666	-1.3437
2560.0171	0.0121	0.0104	0.0285	3.3477	0.0044	-0.4585	-4.2784	-0.0760	-0.1165	-3.8533	-0.1303	0.4400	-0.1232	-0.1667	0.0109	-0.8641
2568.0171	0.1571	0.0953	0.0911	2.6562	0.1286	-1.1589	-17.9244	-0.5891	-0.2444	-0.1224	-0.2276	0.6693	0.0526	-0.5563	-0.0963	-1.7134
2576.0172	-0.0889	-0.0551	0.0371	3.0522	-0.0802	-1.1543	-6.8567	-0.4005	-0.1515	-6.3595	0.0250	-0.3189	-0.1807	-0.5045	-0.0651	-0.9126
2584.0173	-0.0073	-0.0805	-0.0580	2.3562	-0.1598	0.6105	8.7473	0.4095	0.0791	-1.0462	0.2244	0.0087	-0.0912	0.2073	-0.1298	-1.2821
2592.0173	-0.1176	-0.1696	-0.0336	0.7394	-0.1656	-0.4815	5.9590	0.2036	-0.1209	-13.0771	-0.0853	0.0719	-0.4852	-0.1048	0.1420	-0.4465
2600.0174	-0.0370	-0.2684	-0.0005	-0.5163	-0.1422	-1.8749	-0.9959	-0.2025	-0.3564	-23.8579	-0.2744	-0.0290	-0.7827	-0.6388	0.2871	-0.6380
2608.0174	0.1067	-0.2453	0.0438	-0.4675	0.0055	-2.6321	-10.6735	-0.5647	-0.5056	-25.1004	-0.3926	0.2106	-0.7732	-0.9970	0.2605	-1.4708
2616.0175	-0.0421	-0.1491	0.0145	0.5349	-0.0274	-1.3055	-3.5742	-0.1233	-0.3034	-16.4096	-0.3161	0.5041	-0.5682	-0.4422	0.1915	-1.0033
2624.0175	0.1058	-0.0853	-0.0961	0.3034	-0.0315	1.4185	15.7226	0.9611	0.0727	-3.4410	-0.0579	1.0711	-0.2346	0.6536	0.0797	-1.1056
2632.0176	0.0536	-0.2572	-0.1099	0.1580	0.0069	0.4280	20.2996	0.8111	0.0068	-15.9397	0.0094	0.0451	-0.5681	0.3511	0.2751	0.0577
2640.0176	-0.0063	-0.2973	-0.0838	0.3383	-0.0106	-0.4761	13.9077	0.2836	-0.0290	-15.9765	0.2496	-0.9424	-0.5078	-0.1318	0.1068	-0.2637
2648.0177	0.1016	-0.0776	-0.0442	-0.6007	0.0915	0.2890	7.7756	0.1899	0.0957	-1.3211	0.2013	-0.5653	-0.0008	0.1246	0.0178	0.3970
2656.0177	-0.1391	-0.1108	-0.1026	-0.7000	-0.0120	1.3343	23.8256	0.8822	0.2502	-4.9789	0.0885	-0.4211	-0.2052	0.7719	0.3025	2.5381
2664.0178	-0.1987	-0.1801	-0.1553	-0.5384	-0.1379	1.9353	32.4344	1.2937	0.3108	-6.8484	0.1645	-0.2709	-0.3394	1.0333	0.2923	2.0969
2672.0178	-0.1849	-0.0811	-0.0094	-1.2517	-0.0260	-0.3681	9.0757	0.0457	0.0577	-9.1414	-0.0887	-0.9717	-0.2354	0.0945	0.4031	3.5460
2680.0179	-0.1428	-0.1143	0.0261	-2.0968	-0.0100	-1.3423	3.3683	-0.3210	-0.0712	-14.6732	-0.2071	-1.2418	-0.3519	-0.2685	0.5190	4.0452
2688.0179	-0.1430	-0.1002	-0.0402	-2.2691	-0.0442	0.1787	14.6158	0.4490	0.0525	-11.5289	-0.2617	-0.2645	-0.3740	0.3947	0.5321	3.5128
2696.0180	-0.4106	-0.0304	-0.0505	-1.5557	-0.0702	0.9000	18.5268	0.5954	0.2177	-4.7008	-0.1319	-0.5062	-0.2082	0.6883	0.4465	4.3308
2704.0181	-0.2936	-0.0177	-0.0346	-1.6341	-0.0617	0.6371	14.5431	0.4053	0.1896	-3.4161	-0.0928	-0.6156	-0.1224	0.5279	0.3897	3.9644
2712.0181	-0.3238	0.1417	0.0079	-1.3650	-0.1030	1.0026	12.0952	0.4530	0.2233	0.9613	-0.4023	-0.0160	0.0254	0.8044	0.5840	5.6763
2720.0182	-0.4136	0.2189	-0.0610	-1.5224	-0.2303	2.9995	26.6549	1.1968	0.5400	11.2967	-0.2422	0.1757	0.2763	1.6574	0.5535	6.6887
2728.0182	-0.0005	0.1464	-0.0620	-3.1671	-0.0573	2.4835	26.5320	1.1975	0.4088	3.2249	-0.4382	0.4161	0.1206	1.5266	0.7961	6.8437
2736.0183	-0.0146	0.1417	0.0149	-2.3211	0.1382	0.8418	12.2392	0.4572	0.1876	-1.8081	-0.5358	0.0727	0.0403	0.8148	0.7785	6.4481
2744.0183	-0.2621	0.1444	-0.0210	-0.8028	0.0634	1.5392	13.1246	0.5413	0.3117	7.4948	-0.1087	-0.1229	0.2206	0.8653	0.2979	4.0846
2752.0184	-0.2220	0.3407	0.0204	-1.0486	0.0348	2.2026	11.7748	0.6827	0.3832	13.8647	-0.4691	0.6342	0.4451	1.2911	0.5458	6.2567
2760.0184	0.0362	0.5233	0.0555	-1.4837	0.1100	2.8017	6.8472	0.6403	0.4672	24.7299	-0.5632	1.0807	0.8669	1.5160	0.5416	6.8530
2768.0185	0.1209	0.3211	0.0242	-1.1755	0.2172	1.8867	6.2490	0.4421	0.3355	16.2450	-0.2806	0.4752	0.6086	1.0016	0.3469	4.5246
2776.0185	-0.2102	0.2482	0.0448	0.1596	0.1590	0.9476	5.4869	0.1461	0.2784	8.9502	-0.2513	-0.3385	0.3737	0.6845	0.4191	5.5286
2784.0186	-0.0410	0.3452	0.0867	-0.8392	0.0307	0.7849	-1.6683	-0.1382	0.2699	14.1723	-0.3214	-0.2961	0.6090	0.5852	0.4178	5.9443
2792.0186	0.0530	0.2626	0.1127	-1.7287	0.0563	-0.2808	-3.3847	-0.2594	0.0589	0.5169	-0.7066	-0.0574	0.2192	0.3353	0.7976	7.0237
2800.0187	-0.3804	0.2952	0.0333	0.0485	-0.0066	1.6298	12.1910	0.5513	0.3415	8.1091	-0.5022	0.2162	0.2729	1.1343	0.6542	7.1088
2808.0187	-0.2476	0.4158	0.0809	-0.3317	-0.0244	1.5180	3.3223	0.2524	0.3249	14.9043	-0.5679	0.4200	0.5414	1.0254	0.5852	7.0405
2816.0188	-0.0900	0.4540	0.2531	-0.6364	0.0765	-1.6989	-22.6796	-1.0803	-0.1332	0.9728	-1.1649	0.1505	0.3143	-0.1451	0.9886	8.8166
2824.0189	-0.2133	0.4891	0.2173	0.2147	-0.0015	-0.6946	-17.2809	-0.7120	-0.0057	6.9577	-1.0437	0.4696	0.4139	0.2176	0.8382	8.1454
2832.0189	-0.0214	0.4998	0.1598	-0.0218	-0.0437	0.5810	-4.1492	-0.0903	0.1883	9.4524	-1.0079	0.6194	0.5119	0.8416	0.9916	9.3407
2840.0190	0.2110	0.5849	0.1523	0.2420	0.1245	1.2474	-4.6165	-0.1266	0.3583	21.0352	-0.6899	0.2105	0.9671	0.9699	0.7565	8.9514
2848.0190	0.0638	0.5671	0.0978	0.1007	0.1989	2.1518	-2.0926	0.0625	0.4869	30.5538	-0.2608	0.1441	1.1543	1.0906	0.2809	6.3580
2856.0191	-0.2400	0.3859	0.0657	0.2701	0.0775	1.5792	7.9429	0.3034	0.4020	13.9471	-0.4390	-0.1470	0.5606	1.0870	0.6313	7.8946
2864.0191	-0.0768	0.4096	0.0398	0.4977	0.0707	2.2808	12.4036	0.5920	0.4880	17.2822	-0.3921	0.1075	0.6750	1.3691	0.6197	7.7247
2872.0192	0.0259	0.4440	0.0424	0.0661	0.1857	2.4604	9.3742	0.5981	0.4651	20.5129	-0.4079	0.5290	0.7666	1.3735	0.5216	6.7142
2880.0192	-0.1633	0.3862	0.0845	0.3638	0.2160	1.1478	0.6166	0.0280	0.3154	15.4567	-0.3681	-0.0840	0.6200	0.7815	0.4445	6.3120
2888.0193	-0.0921	0.4786	0.1476	0.0376	0.2450	0.4901	-12.4225	-0.5147	0.2283	20.4609	-0.3984	-0.0956	0.8341	0.4032	0.3083	5.7454
2896.0193	-0.2597	0.4972	0.1031	0.8271	0.1606	1.6258	-0.5295	0.1243	0.3630	20.4897	-0.5082	0.4021	0.7427	1.0155	0.4721	6.8686
2904.0194	-0.3188	0.4580	0.0404	1.3196	0.0618	2.5918	10.0755	0.5158	0.5594	24.5090	-0.1919	-0.0227	0.8341	1.3672	0.3415	6.7777
2912.0194	-0.0548	0.4768	0.1311	-0.2907	0.1482	0.7933	-6.7853	-0.4353	0.3608	22.1072	-0.2649	-0.7330	0.9439	0.5726	0.3801	7.1948
2920.0195	-0.2323	0.4147	0.0859	0.3536	0.0917	1.2766	-0.2544	-0.1366	0.4199	21.5750	-0.1205	-0.7257	0.8338	0.7407	0.2720	6.4144
2928.0195	-0.1570	0.4790	0.0234	0.5205	0.0752	3.0214	7.6520	0.4962	0.6102	32.3387	0.0451	0.0402	1.0782	1.3522	0.0456	4.9465
2936.0196	0.2131	0.6266	0.0652	-0.0811	0.2603	3.2179	-1.0416	0.3588	0.5788	40.1010	-0.1135	0.7871	1.4040	1.3749	0.0154	4.4249
2944.0197	-0.0186	0.6397	-0.0637	1.6481	0.2144	5.9184	13.8711	1.3536	0.9077	56.4537	0.4484	1.4844	1.6694	2.2068	-0.6075	0.7610
2952.0197	-0.2498	0.6207	-0.1144	1.4560	0.0940	6.8740	21.6991	1.8567	0.9817	57.7697	0.4506	2.0611	1.5565	2.6033	-0.6692	0.0994
2960.0198	-0.0755	0.4829	-0.0750	0.3565	0.0324	5.0486	14.6890	1.2963	0.7346	44.0938	0.3168	1.4550	1.2371	1.9123	-0.4622	0.4555
2968.0198	0.0460	0.4173	-0.1011	0.5917	-0.0839	5.0348	14.3491	1.2158	0.7583	46.4766	0.6462	1.0368	1.3229	1.7318	-0.7374	-1.3605
2976.0199	0.1640	0.5770	-0.0440	0.2305	0.0156	5.0866	5.7953	1.1285	0.6737	50.4147	0.2553	2.1135	1.4575	1.8082	-0.6156	-1.0504
2984.0199	0.1418	0.5367	-0.0229	0.6368	0.1582	4.3264	-3.0856	0.7988	0.5097	48.5209	0.2897	2.2881	1.3676	1.3583	-0.8264	-3.2701
2992.0200	-0.0640	0.5400	-0.0021	1.2967	0.1060	3.9119	-7.3891	0.5302	0.4862	49.3577	0.3749	1.9438	1.3708	1.1308	-0.9495	-3.5473
3000.0200	0.0622	0.7029	0.0143	0.8193	0.1278	4.8104	-6.6345	0.7697	0.5879	56.8826	0.1510	2.6453	1.6299	1.5883	-0.8028	-2.1795
3008.0201	0.0059	0.3871	-0.1045	0.9113	0.0900	4.8827	8.2017	1.2107	0.5989	45.7904	0.6040	1.9451	1.1874	1.5237	-0.9833	-4.4834
3016.0201	-0.4321	-0.0322	-0.1933	1.4484	-0.1538	3.7294	26.3054	1.5597	0.4514	16.6936	0.6303	0.9447	0.1519	1.2890	-0.6329	-3.7134
3024.0202	-0.5803	-0.1178	-0.2501	1.4897	-0.3371	4.3719	40.0499	2.1894	0.5008	8.9531	0.4713	1.2993	-0.1870	1.7464	-0.3591	-2.5706
3032.0202	-0.7052	-0.2784	-0.2357	1.2530	-0.4133	2.9007	37.8229	1.7933	0.3324	-3.9264	0.4666	0.4792	-0.5644	1.1943	-0.2395	-2.2139
3040.0203	-0.6241	-0.5140	-0.1136	-0.0059	-0.3820	-1.3115	16.9451	0.4178	-0.2670	-32.7826	0.0385	-0.5154	-1.2989	-0.3998	0.1693	-1.5571
3048.0203	-0.3928	-0.7616	-0.1323	-0.7461	-0.3361	-2.7730	13.5497	0.1649	-0.5537	-48.0870	0.0808	-0.6623	-1.7653	-1.0809	0.1326	-4.1298
3056.0204	-0.5402	-0.9182	-0.2070	0.0769	-0.3865	-2.4030	23.9098	0.5284	-0.4933	-52.2766	0.3736	-1.0116	-1.9867	-0.9825	-0.0113	-5.3951
3064.0205	-0.5064	-0.9165	-0.1450	-0.3506	-0.3341	-3.6915	11.1519	-0.1031	-0.6762	-54.9185	0.2950	-1.2264	-2.0114	-1.5736	-0.0544	-5.9149
3072.0205	-0.6808	-1.0640	-0.1255	0.2270	-0.2886	-5.2065	4.1282	-0.6232	-0.8764	-64.2562	0.4128	-1.8964	-2.3155	-2.2824	-0.1839	-7.3193
3080.0206	-1.1085	-1.0297	-0.1896	2.5427	-0.3941	-3.6082	16.9270	0.0167	-0.6175	-56.7948	0.6514	-1.8217	-2.2409	-1.6348	-0.3606	-7.3265
3088.0206	-0.8900	-0.8235	-0.1930	2.0666	-0.4495	-1.9968	17.9449	0.4509	-0.4599	-42.7114	0.5159	-0.6299	-1.8200	-0.9925	-0.4011	-7.3633
3096.0207	-0.5923	-0.9146	-0.1920	1.4941	-0.4061	-2.6902	15.8978	0.3534	-0.6112	-50.5223	0.4204	-0.4993	-2.0048	-1.2645	-0.2981	-8.0937
3104.0207	-0.5222	-0.9038	-0.2286	2.3365	-0.3823	-1.9284	18.6506	0.5197	-0.4802	-42.6172	0.7529	-0.6272	-1.7711	-1.1135	-0.5976	-9.6098
3112.0208	-0.5224	-0.9088	-0.3294	2.1027	-0.5061	0.0925	34.5254	1.3538	-0.1978	-33.8522	1.0553	-0.3606	-1.6002	-0.3484	-0.7774	-10.3307
3120.0208	-0.5596	-1.0444	-0.4552	2.5011	-0.5510	1.6879	53.7739	2.2947	-0.0166	-34.4675	1.3369	-0.0780	-1.7598	0.2801	-0.8967	-11.7607
3128.0209	-0.4110	-0.8138	-0.4408	3.6750	-0.4650	2.9731	43.9157	2.2123	0.1497	-10.2559	1.6874	0.5210	-1.0204	0.4454	-1.5333	-14.8575
3136.0209	-0.3160	-0.7354	-0.4776	4.0783	-0.5635	4.2845	46.5053	2.5853	0.2889	1.0257	1.8640	1.1632	-0.7351	0.8332	-1.8182	-16.6456
3144.0210	-0.2022	-0.9238	-0.5945	3.7137	-0.5621	5.3227	62.8481	3.4361	0.3306	-5.5493	1.9944	1.7323	-1.0639	1.2550	-1.8440	-18.5867
3152.0210	-0.1712	-0.8110	-0.5822	4.5856	-0.4700	5.8414	56.4129	3.3468	0.3845	6.1279	2.1619	2.0929	-0.7221	1.2710	-2.1953	-20.4753
3160.0211	-0.1947	-0.6083	-0.5893	5.9542	-0.5296	7.4377	54.1796	3.5755	0.5941	26.1002	2.3902	2.7743	-0.1695	1.7097	-2.6315	-22.2522
3168.0212	0.1427	-0.4708	-0.5072	4.4511	-0.4182	6.6829	33.9708	2.8588	0.4401	35.0535	2.3323	3.1762	0.2068	1.1824	-2.8828	-24.1063
3176.0212	0.3224	-0.4022	-0.3245	3.2376	-0.3254	3.3863	1.2589	1.2039	0.0057	28.8919	1.9939	2.5567	0.2349	-0.2249	-2.7997	-23.7275
3184.0213	0.4206	-0.3373	-0.2589	2.9233	-0.3535	2.5108	-7.9190	0.7076	-0.0781	28.5024	1.8471	2.2761	0.3302	-0.5467	-2.6819	-22.5701
3192.0213	0.6667	-0.2505	-0.1403	1.3263	-0.2858	0.6673	-27.4732	-0.3168	-0.2869	27.3449	1.6233	1.7620	0.4933	-1.3050	-2.5509	-21.3499
3200.0214	0.6412	-0.3507	-0.1091	1.2679	-0.2783	-0.6928	-32.2677	-0.7021	-0.4762	16.3363	1.4950	1.3752	0.1901	-1.7980	-2.3971	-21.0334
3208.0214	0.7865	-0.3138	-0.2325	0.9990	-0.1729	2.1113	-11.1116	0.5260	-0.1303	26.8178	1.6873	2.2276	0.4163	-0.6429	-2.4687	-21.4249
3216.0215	0.8582	-0.2497	-0.2257	0.3655	-0.0697	2.4129	-11.0033	0.5180	-0.0515	31.4060	1.7063	2.1034	0.6085	-0.5113	-2.4473	-20.5958
3224.0215	0.3485	-0.4782	-0.2029	1.4938	-0.2415	0.3728	-8.9570	0.1638	-0.2822	7.7325	1.4930	1.0611	-0.1657	-1.0901	-2.0459	-18.4387
3232.0216	0.3764	-0.5010	-0.1807	0.0430	-0.2944	-0.1875	-4.7111	0.1249	-0.3036	-1.6358	1.1814	0.6152	-0.3612	-1.0351	-1.5277	-14.7714
3240.0216	0.9389	-0.4530	-0.0699	-2.1523	-0.1112	-2.1589	-22.7714	-0.8088	-0.5667	-7.1378	0.8531	0.3027	-0.2629	-1.7904	-1.2407	-13.4613
3248.0217	0.7518	-0.5016	-0.0298	-0.6882	-0.0138	-3.3005	-27.4421	-1.1281	-0.7256	-16.2788	0.6866	0.0903	-0.5422	-2.1678	-1.0996	-12.9365
3256.0217	0.4995	-0.3171	-0.0654	0.0716	-0.0481	-1.1767	-12.8777	-0.4330	-0.3293	-3.2240	0.7217	0.1129	-0.1722	-1.1391	-0.9691	-9.7212
3264.0218	0.7606	-0.2727	-0.0515	-1.0069	-0.0441	-1.1243	-10.1335	-0.3937	-0.2790	-4.3448	0.5540	-0.0544	-0.0814	-0.9598	-0.6507	-7.3126
3272.0218	0.5936	-0.3980	-0.0047	-0.6474	-0.0143	-2.9367	-11.9548	-0.8082	-0.4888	-22.5260	0.2521	-0.7913	-0.5794	-1.4520	-0.2013	-4.8104
3280.0219	0.3996	-0.3339	0.0344	-0.7174	-0.0090	-3.2594	-14.6978	-1.0600	-0.4625	-21.5154	0.1747	-1.2292	-0.5158	-1.5062	-0.0902	-2.9461
3288.0220	0.4685	-0.2435	0.1138	-1.5352	0.0566	-4.1870	-24.8108	-1.4988	-0.6063	-24.2608	-0.2080	-1.0233	-0.5162	-1.7642	0.1750	-1.2918
3296.0220	0.3849	-0.1564	0.1392	-1.2911	0.1002	-3.9837	-20.7972	-1.3300	-0.5560	-26.5661	-0.5514	-0.8427	-0.5530	-1.4220	0.5821	1.8765
3304.0221	0.5501	-0.0229	0.1122	-1.9685	0.1123	-2.4378	-12.2702	-0.8072	-0.3239	-17.0719	-0.5973	-0.4227	-0.2303	-0.7037	0.7026	3.4961
3312.0221	0.5316	0.0444	0.1326	-2.1412	0.1117	-2.3507	-10.9142	-0.8438	-0.2453	-15.5408	-0.6804	-0.7326	-0.1190	-0.5554	0.8855	5.6524
3320.0222	0.3204	0.0120	0.0974	-1.2056	0.0658	-1.9224	-2.2892	-0.7630	-0.0272	-12.2172	-0.2951	-1.9645	0.0062	-0.3906	0.7965	6.9189
3328.0222	0.4923	-0.0621	0.1208	-2.2517	0.1101	-2.9944	-7.3479	-1.1816	-0.1430	-17.9178	-0.2711	-2.5754	-0.0714	-0.8441	0.8535	7.0480
3336.0223	0.5137	-0.1050	0.2088	-3.0165	0.1968	-5.0718	-19.8928	-1.8901	-0.4540	-31.3991	-0.6839	-2.7582	-0.3979	-1.5507	1.1885	8.3474
3344.0223	0.3638	-0.1306	0.1941	-2.4538	0.2681	-4.9627	-18.0792	-1.8166	-0.4379	-31.6327	-0.6070	-2.8120	-0.4550	-1.5293	1.1109	7.9132
3352.0224	0.2765	-0.1121	0.1802	-1.6792	0.2607	-4.4854	-11.1825	-1.5018	-0.3629	-33.1609	-0.7222	-2.6754	-0.5198	-1.1920	1.3031	9.3562
3360.0224	0.3810	-0.0450	0.1433	-1.1964	0.2027	-3.1921	-0.7220	-0.9168	-0.1844	-29.0999	-0.7856	-2.2436	-0.3958	-0.5453	1.4599	10.6378
3368.0225	0.5077	0.0079	0.1296	-1.8650	0.2956	-2.5569	-1.3721	-0.7800	-0.1336	-22.3600	-0.7197	-1.8117	-0.2022	-0.3831	1.3036	9.5373
3376.0225	0.2199	0.0324	0.1432	-0.8969	0.2593	-2.6289	-0.0164	-0.8307	-0.0845	-22.7069	-0.7345	-2.1783	-0.2347	-0.3366	1.3711	10.8950
3384.0226	0.2279	0.0479	0.1173	-0.3864	0.2380	-1.9872	6.0614	-0.5751	0.0390	-19.8868	-0.6394	-2.2895	-0.1439	-0.0502	1.3784	11.4321
3392.0226	0.3829	0.0832	0.2240	-2.0437	0.5045	-3.9223	-12.7599	-1.4282	-0.2800	-26.6570	-1.0359	-2.1593	-0.2402	-0.8083	1.5608	11.7912
3400.0227	0.1067	0.0420	0.2265	-1.0103	0.4729	-4.2690	-12.0141	-1.5375	-0.2810	-29.4605	-0.9591	-2.6431	-0.3629	-0.9345	1.5383	12.1387
3408.0228	0.0356	0.0588	0.1292	0.2012	0.2851	-2.1619	4.2979	-0.7158	0.0481	-18.9137	-0.5790	-2.5639	-0.1335	-0.1426	1.3094	11.5437
3416.0228	0.1529	0.2427	0.2554	-1.0305	0.3510	-3.3539	-13.9340	-1.4168	-0.1554	-18.3206	-1.1141	-2.0414	-0.0036	-0.5256	1.5752	13.2704
3424.0229	0.1821	0.1949	0.2787	-1.7924	0.3664	-4.1355	-17.1482	-1.5571	-0.3204	-26.7555	-1.3794	-1.7847	-0.2609	-0.7510	1.7797	13.6052
3432.0229	0.0659	0.0825	0.1603	-1.4298	0.3360	-2.4774	4.2546	-0.5180	-0.1322	-29.4659	-1.2660	-1.3688	-0.4914	0.0220	1.8438	13.4629
3440.0230	0.0477	0.2218	0.1625	-0.9354	0.3488	-1.5198	3.8017	-0.3881	0.0171	-17.7025	-1.1776	-1.0882	-0.1397	0.3412	1.6784	13.3455
3448.0230	0.2652	0.2260	0.1636	-1.5664	0.3930	-1.5946	-1.5449	-0.5993	0.0072	-12.5275	-0.9688	-1.2058	0.0645	0.1289	1.4231	11.6314
3456.0231	0.0992	0.1518	0.1520	-1.4444	0.4385	-1.8696	0.9159	-0.5313	-0.0530	-18.8621	-1.0333	-1.2034	-0.1875	0.0742	1.4990	11.6717
3464.0231	-0.0898	0.2151	0.1870	-0.1523	0.3457	-2.1119	-5.6746	-0.7776	-0.0831	-15.4526	-1.0318	-1.1428	-0.1167	-0.0872	1.3596	11.1594
3472.0232	0.0168	0.2928	0.1929	0.0699	0.2243	-1.6867	-6.2328	-0.7937	0.0210	-8.3662	-0.9260	-1.2767	0.1507	0.0402	1.2821	11.4300
3480.0232	0.0683	0.3690	0.1169	-0.1494	0.1810	0.4569	9.8685	0.0891	0.3241	0.6820	-0.8496	-0.7826	0.3787	0.9910	1.3325	12.4433
3488.0233	0.1294	0.2997	0.0531	-0.4742	0.2000	1.2791	17.2170	0.6250	0.3342	-0.3830	-0.8250	-0.0098	0.2368	1.2878	1.2491	10.6352
3496.0233	0.0921	0.2214	0.0597	-0.1250	0.2181	0.5662	13.3564	0.4295	0.2007	-5.7573	-0.8179	-0.0374	0.0459	0.9457	1.1815	9.4165
3504.0234	0.1476	0.2950	0.0661	0.3816	0.1824	0.9138	9.5463	0.2990	0.2855	3.6996	-0.5900	-0.1876	0.3606	0.9312	0.9105	8.4215
3512.0234	0.0307	0.2700	0.0691	0.6152	0.1307	0.6632	7.2308	0.1789	0.2474	3.2316	-0.5275	-0.2781	0.3084	0.7703	0.8011	7.6770
3520.0235	-0.2465	0.2224	0.0498	1.1108	0.0556	0.7459	11.7825	0.3237	0.2686	0.2064	-0.5108	-0.4046	0.1343	0.8510	0.8222	7.9816
3528.0236	0.0804	0.1831	0.0420	-0.4430	0.0861	0.5892	10.7857	0.3042	0.2116	-1.5632	-0.5294	-0.2765	0.1395	0.7576	0.8549	7.4026
3536.0236	0.1781	0.0863	0.0735	-0.6804	0.1862	-0.8057	0.6421	-0.2080	-0.0239	-8.7583	-0.5336	-0.4356	-0.0532	0.0865	0.7605	5.6590
3544.0237	-0.1103	0.1049	0.1115	1.4974	0.1506	-1.5125	-11.6962	-0.7814	-0.0926	-3.1086	-0.2324	-0.8424	0.0679	-0.4648	0.2754	3.0936
3552.0237	-0.0858	0.1049	0.1328	1.6169	0.0781	-1.9675	-17.0281	-1.0443	-0.1504	-2.7984	-0.1935	-0.9832	0.0971	-0.7166	0.1879	2.5017
3560.0238	-0.1678	0.0980	0.0585	2.0054	0.0178	-0.4818	-5.2969	-0.3827	0.0339	2.5483	-0.0159	-0.5986	0.1532	-0.1424	0.0542	1.7349
3568.0238	-0.0399	0.1901	0.0302	1.9712	-0.0209	0.7471	-2.9641	-0.0666	0.1824	13.7755	0.1307	-0.0985	0.4722	0.2440	-0.1632	0.6293
3576.0239	0.2481	0.1552	0.0200	0.8737	-0.0636	0.7166	-0.0458	0.0663	0.1515	9.4677	-0.0011	0.0684	0.4003	0.3173	0.0440	1.2392
3584.0239	0.1492	0.1102	-0.0942	1.6960	-0.1770	2.7208	16.6554	0.9565	0.4140	16.8459	0.3727	0.3821	0.4785	1.0362	-0.2326	-0.4139
3592.0240	0.1557	0.1658	-0.0173	1.7006	-0.0961	1.5437	1.4825	0.3339	0.2134	16.1038	0.1950	0.5634	0.4915	0.4934	-0.2833	-1.1108
3600.0240	0.2658	0.1652	0.0929	1.6687	0.1031	-0.7227	-17.8366	-0.6024	-0.1358	6.6876	-0.1391	0.4741	0.3160	-0.4105	-0.1357	-1.0986
3608.0241	0.2420	0.1925	-0.0039	2.4518	0.0698	1.4235	-4.0791	0.1794	0.1708	19.3156	0.2698	0.7426	0.6024	0.3285	-0.4680	-2.5804
3616.0241	0.2746	0.2179	-0.0347	1.5055	0.0188	2.2687	1.9996	0.5623	0.2592	21.9055	0.2169	1.1661	0.6425	0.7181	-0.4080	-2.2301
3624.0242	0.2239	0.1211	-0.0032	0.8283	0.0619	0.9110	-5.9168	0.1162	0.0363	12.9604	0.1208	0.9916	0.3646	0.1407	-0.3909	-3.0139
3632.0242	0.0547	0.0157	0.0121	0.6785	-0.0020	-0.1978	-8.9933	-0.2844	-0.0606	5.9480	0.2139	0.1422	0.1609	-0.3248	-0.3964	-2.8566
3640.0243	0.0610	-0.0065	0.0641	0.3754	-0.0159	-1.4212	-16.2740	-0.7700	-0.2025	-0.3268	0.0733	-0.2890	0.0415	-0.7673	-0.2465	-1.9276
3648.0244	0.1366	0.0444	0.1431	0.7792	0.0800	-2.7080	-31.6961	-1.4885	-0.3757	-0.2599	0.0025	-0.4737	0.1295	-1.3793	-0.3296	-2.5073
3656.0244	0.0795	0.1318	0.1542	1.1851	0.0298	-2.2568	-27.7415	-1.3466	-0.2591	2.2072	-0.1131	-0.5557	0.2412	-1.0527	-0.1251	-0.2230
3664.0245	0.1437	0.2199	0.0570	1.2104	-0.0523	0.4434	-6.1498	-0.1604	0.1090	11.5964	-0.0864	0.1906	0.4596	0.1912	0.0116	1.2903
3672.0245	0.2658	0.2261	0.1007	0.5606	0.1077	-0.4251	-13.8748	-0.5379	-0.0232	8.3831	-0.2270	0.1411	0.4322	-0.1518	0.0948	1.4763
3680.0246	0.2558	0.1160	0.2038	0.0005	0.3404	-3.3713	-32.7798	-1.6508	-0.4350	-7.3875	-0.4730	-0.5496	0.0549	-1.3366	0.2477	1.4807
3688.0246	0.1238	0.0456	0.1407	0.5868	0.2947	-2.5882	-23.9348	-1.2100	-0.3462	-6.9877	-0.2862	-0.4289	-0.0384	-1.0627	0.1075	0.3516
3696.0247	-0.0725	0.0852	0.0723	1.3243	0.0986	-0.8474	-8.4018	-0.4615	-0.0682	-0.7862	-0.1676	-0.2863	0.0595	-0.2697	0.1316	1.4942
3704.0247	0.0524	0.1210	0.0455	0.8074	0.1655	-0.0253	-2.3422	-0.0990	0.0321	2.0470	-0.2056	0.0425	0.1526	0.1202	0.2159	2.0605
3712.0248	0.1887	0.0934	0.0862	-0.1207	0.2922	-1.0747	-9.8396	-0.4902	-0.1340	-3.6808	-0.3649	-0.0339	0.0452	-0.2865	0.3295	2.1755
3720.0248	0.0119	0.0846	0.1857	0.4365	0.2141	-3.1696	-26.5940	-1.4210	-0.3990	-11.0419	-0.5418	-0.5718	-0.1274	-1.1448	0.3754	2.4670
3728.0249	-0.0072	0.1312	0.2029	0.9471	0.1823	-3.1786	-30.3524	-1.5153	-0.4132	-8.1869	-0.5542	-0.3868	-0.0484	-1.1924	0.2950	1.9987
3736.0249	-0.0840	0.1004	0.1627	0.5900	0.1360	-2.5565	-19.8747	-1.1430	-0.2840	-9.5546	-0.5250	-0.6310	-0.1055	-0.8241	0.4495	3.4987
3744.0250	-0.2031	0.0677	0.1038	0.8335	0.0431	-1.5777	-9.6816	-0.6704	-0.1389	-7.3764	-0.3665	-0.6073	-0.1177	-0.4244	0.3854	3.3511
3752.0250	0.0609	0.1519	0.0791	0.4902	0.1284	-0.4376	-6.1315	-0.2171	-0.0615	-1.1801	-0.4649	0.3723	0.0634	0.0410	0.3904	2.7961
3760.0251	0.1329	0.0995	0.0911	-0.0841	0.2036	-1.0788	-9.2553	-0.4067	-0.1678	-6.0161	-0.5200	0.2833	-0.0592	-0.2192	0.4375	2.5468
3768.0252	-0.2051	-0.0519	0.0793	0.5105	0.1597	-1.9634	-11.5616	-0.6559	-0.2922	-12.9088	-0.3298	-0.2100	-0.3748	-0.6912	0.2218	0.7571
3776.0252	-0.2117	-0.0164	0.0959	0.4435	0.1436	-2.0115	-12.0833	-0.6612	-0.3031	-13.6940	-0.4747	-0.0697	-0.3859	-0.6350	0.3515	1.6469
3784.0253	0.1098	0.0272	0.1173	-0.2277	0.1219	-2.1855	-16.5290	-0.8984	-0.2917	-9.9037	-0.4092	-0.3212	-0.1476	-0.7635	0.3260	1.7410
3792.0253	0.0280	-0.0255	0.0512	0.6992	0.0218	-1.2444	-6.9709	-0.4941	-0.1291	-6.1852	-0.0805	-0.5541	-0.0984	-0.4621	0.1206	0.7924
3800.0254	-0.3412	0.0096	-0.0408	2.0626	-0.1240	0.9459	10.4037	0.4246	0.1874	2.8115	0.1480	-0.1971	-0.0038	0.4414	-0.0328	0.7877
3808.0254	-0.4333	0.0965	-0.0029	1.8021	-0.2602	0.7993	2.9073	0.1339	0.1787	8.6058	0.1429	-0.1676	0.1687	0.3062	-0.1590	0.5927
3816.0255	-0.1223	0.1768	0.0495	0.8970	-0.2939	0.3530	-1.8505	-0.0505	0.1043	6.4164	-0.2025	0.0986	0.2293	0.2714	0.1727	2.4663
3824.0255	0.2583	0.2456	0.0065	0.1825	-0.1588	1.7195	4.4619	0.4766	0.2401	13.9454	-0.1867	0.8498	0.4880	0.8087	0.1559	1.9607
3832.0256	0.2454	0.2305	0.0522	-0.5579	-0.0675	0.6082	-8.2611	-0.1424	0.0817	13.8825	-0.1187	0.5684	0.5094	0.1973	-0.0531	0.4749
3840.0256	0.1523	0.1672	0.0582	-0.9765	-0.0442	0.0369	-9.8255	-0.2597	-0.0210	8.0423	-0.1966	0.5311	0.3016	-0.0117	0.0001	0.3259
3848.0257	0.0592	0.0774	-0.0339	-0.9681	0.0971	1.2522	2.0173	0.4000	0.0908	9.4420	0.0330	0.9255	0.2051	0.4057	-0.2005	-1.5570
3856.0257	-0.1170	0.0194	0.0190	-0.6162	0.1269	-0.2593	-6.0297	-0.1859	-0.0763	1.3837	-0.0387	0.2511	-0.0051	-0.1793	-0.1216	-0.9565
3864.0258	0.0508	0.1051	0.0581	-0.4050	0.0235	-0.4067	-10.7716	-0.3271	-0.1053	3.1519	-0.2113	0.5133	0.1160	-0.1950	-0.0119	-0.2644
3872.0259	0.0631	0.1354	-0.0095	-0.8788	-0.0339	1.2195	0.8159	0.3618	0.0932	9.7640	-0.1216	1.0439	0.2388	0.4730	-0.0619	-0.4283
3880.0259	-0.0483	0.0039	-0.0059	-2.1751	-0.0564	0.1817	1.7094	0.1115	-0.0026	-0.7829	-0.1460	0.2504	-0.0613	0.1360	0.1196	0.7187
3888.0260	0.0640	-0.0427	0.0324	-2.6502	0.0185	-0.9634	-7.0777	-0.3234	-0.1921	-6.4879	-0.2425	0.1812	-0.1894	-0.3647	0.1362	0.0236
3896.0260	-0.0166	0.0267	0.0301	-1.5280	0.0484	-0.3738	-5.6576	-0.1035	-0.1410	-2.8176	-0.3103	0.6880	-0.1245	-0.1046	0.1179	-0.0514
3904.0261	0.0505	0.0497	0.0260	-1.9667	0.0712	-0.1208	-6.0175	-0.0230	-0.1377	-0.7976	-0.3393	1.0038	-0.0733	-0.0235	0.0891	-0.4653
3912.0261	-0.0697	-0.0230	0.0325	-2.6518	0.1022	-0.7717	-8.7341	-0.1702	-0.2680	-6.9618	-0.4233	1.0460	-0.3110	-0.2872	0.1082	-0.9990
3920.0262	-0.2786	-0.0818	0.0061	-1.5869	-0.0542	-0.6392	-0.7293	-0.0128	-0.1704	-10.0272	-0.2996	0.3978	-0.4239	-0.1526	0.1847	0.2300
3928.0262	0.0965	-0.0604	-0.0041	-2.2214	-0.0431	-0.3916	-1.5903	-0.1585	-0.0525	-2.2353	0.0374	-0.2610	-0.0467	-0.1998	-0.0046	-0.2243
3936.0263	-0.0272	-0.1461	0.0273	-3.0001	0.0210	-1.7239	-9.0779	-0.7562	-0.1772	-7.2694	0.1595	-1.1832	-0.1628	-0.8159	-0.0845	-0.4298
3944.0263	-0.3921	-0.2668	0.0246	-2.0503	-0.1966	-2.5163	-6.9291	-0.9119	-0.2341	-16.1243	0.2191	-1.9151	-0.4942	-1.0837	-0.0347	0.1160
3952.0264	-0.1428	-0.1360	0.0127	-1.7492	-0.2003	-1.3018	-2.4058	-0.5268	-0.0701	-7.4106	0.1716	-1.3828	-0.1786	-0.5462	0.0251	0.8787
3960.0264	0.1042	0.0286	0.0517	-2.3665	0.0430	-0.9278	-9.5530	-0.6299	-0.0499	1.8631	0.0435	-0.7836	0.1789	-0.4355	-0.0079	0.8689
3968.0265	-0.0314	-0.0807	0.0777	-2.7580	0.0358	-2.2672	-17.7433	-1.0863	-0.2706	-6.3766	0.0181	-0.9957	-0.1112	-1.0507	-0.0846	-0.4725
3976.0265	-0.4322	-0.1965	-0.0039	-1.9020	-0.2050	-1.3314	1.9113	-0.3091	-0.1240	-14.0964	0.0013	-1.0721	-0.4986	-0.4514	0.1587	1.2207
3984.0266	-0.1691	-0.0147	0.0075	-2.1287	-0.1720	-0.2275	2.2786	-0.0673	0.0180	-3.1494	-0.1149	-0.4185	-0.0991	0.0286	0.2137	2.1037
3992.0267	0.2251	0.1378	0.1154	-2.2735	0.0789	-1.3899	-19.8681	-0.8915	-0.1885	2.5377	-0.2917	-0.0254	0.2318	-0.5900	0.0932	0.8983
4000.0267	-0.1768	0.0489	0.0288	0.3498	-0.0601	-0.2035	-1.5939	-0.1377	0.0115	0.0867	-0.0958	-0.1932	0.0073	-0.0085	0.0997	1.3549
4008.0268	-0.1361	0.0404	0.0200	0.5063	-0.2276	-0.0601	1.5451	-0.0252	0.0435	-0.9593	-0.1132	-0.2379	-0.0150	0.0995	0.1822	1.9130
4016.0268	0.1198	0.0823	0.1162	-0.6534	-0.1053	-1.7211	-13.7295	-0.7473	-0.2124	-7.1594	-0.4820	-0.2036	-0.0607	-0.5094	0.4261	2.8336
4024.0269	0.0611	0.0424	0.0763	-0.2260	-0.0777	-1.2048	-7.9268	-0.4737	-0.1432	-6.4775	-0.3454	-0.1963	-0.0901	-0.3269	0.3400	2.2372
4032.0269	0.0380	-0.0118	0.1086	-0.8629	-0.0374	-2.3076	-17.5932	-0.9838	-0.3047	-9.5242	-0.2953	-0.4959	-0.1728	-0.8930	0.1966	0.9464
4040.0270	-0.2536	-0.0850	0.0897	-0.1844	-0.0177	-2.4193	-13.6261	-0.8562	-0.3306	-14.9596	-0.3088	-0.5509	-0.4315	-0.8874	0.2264	0.9504
4048.0270	-0.0852	0.0328	0.0989	0.4253	-0.0533	-1.7476	-14.8910	-0.7510	-0.2451	-6.7821	-0.3158	-0.1399	-0.1458	-0.6469	0.1662	0.8593
4056.0271	0.2123	0.1280	0.1730	-0.0816	0.0124	-2.6085	-27.4467	-1.3230	-0.3464	-4.3931	-0.4441	-0.2442	0.0792	-1.0260	0.2142	1.3131
4064.0271	-0.1284	-0.0469	-0.0207	1.0652	-0.0542	0.0915	4.8977	0.1287	0.0444	-2.3247	0.0872	-0.2918	-0.0970	0.0698	0.0122	0.2827
4072.0272	-0.0629	-0.0275	-0.0387	0.7152	-0.0846	0.5780	7.1244	0.2449	0.1293	2.0742	0.2075	-0.3399	0.0446	0.2200	-0.0728	0.0795
4080.0272	0.2051	0.0385	0.0848	-0.5098	0.0350	-1.4899	-13.8483	-0.7567	-0.1692	-2.7392	-0.1441	-0.4577	0.0712	-0.6075	0.1042	0.7645
4088.0273	0.0447	-0.1126	-0.0396	-0.3549	0.0146	0.0013	5.6188	0.2419	-0.0428	-6.5667	0.0012	0.1117	-0.2412	0.0296	0.0581	-0.5865
4096.0273	-0.0252	-0.1428	-0.0287	-0.2976	0.0253	-0.4256	3.9864	0.1393	-0.1148	-10.4756	-0.0735	0.0961	-0.3743	-0.1165	0.1099	-0.5375
4104.0274	0.0289	-0.1356	0.0471	-0.2061	0.1254	-1.9923	-12.8769	-0.6968	-0.3222	-11.5638	-0.0580	-0.2980	-0.3288	-0.8991	-0.0561	-1.7437
4112.0275	-0.0590	-0.1410	0.0178	-0.3011	0.0811	-1.4264	-9.7217	-0.4634	-0.2714	-8.8506	0.0203	-0.0305	-0.3216	-0.7198	-0.1775	-2.6033
4120.0275	-0.0771	-0.1102	0.0150	-0.2496	0.0292	-1.0990	-5.8946	-0.2716	-0.2241	-9.3106	-0.1056	0.1345	-0.3367	-0.4783	-0.0138	-1.3948
4128.0276	0.0146	-0.1573	0.0111	-0.1234	0.0974	-1.3956	-7.8646	-0.3707	-0.2794	-10.8600	-0.0234	0.0612	-0.3715	-0.6687	-0.1053	-2.4535
4136.0276	-0.1056	-0.1796	0.0068	-0.1976	0.1048	-1.4668	-5.6803	-0.3642	-0.2594	-12.6391	-0.0105	-0.2125	-0.4358	-0.6555	-0.0528	-1.7771
4144.0277	-0.0507	-0.2938	-0.0704	-0.4504	0.0676	-0.7289	8.1396	0.1451	-0.1283	-15.6105	0.1872	-0.5361	-0.5472	-0.3120	-0.0055	-1.5504
4152.0277	0.1052	-0.4020	-0.1056	-0.7484	0.0766	-0.8335	10.2371	0.2247	-0.1735	-19.0410	0.3331	-0.5850	-0.6599	-0.4364	-0.1099	-3.1136
4160.0278	-0.1902	-0.2523	-0.0751	0.6890	0.0209	-0.3503	6.3610	0.1452	-0.0719	-9.0998	0.3627	-0.4670	-0.4041	-0.2848	-0.2702	-2.8362
4168.0278	-0.2139	-0.2193	-0.1113	1.0926	-0.0198	0.6249	12.9858	0.4856	0.0878	-3.2124	0.5116	-0.4358	-0.2508	0.0925	-0.3545	-2.7925
4176.0279	-0.0080	-0.3483	-0.1205	-0.3986	-0.0017	-0.0935	16.7974	0.5340	-0.0437	-16.4234	0.2835	-0.5021	-0.6031	-0.0323	0.0071	-1.6758
4184.0279	-0.1974	-0.3122	-0.1041	-0.0822	-0.0028	-0.1633	13.1739	0.4019	-0.0522	-13.7552	0.2998	-0.4711	-0.5660	-0.1091	-0.1047	-2.0337
4192.0280	-0.2173	-0.2910	-0.0651	0.2241	-0.0088	-0.8703	3.0571	-0.1116	-0.1173	-10.3965	0.4517	-0.8765	-0.4276	-0.5531	-0.3415	-3.1556
4200.0280	0.0245	-0.4077	-0.1023	-0.1657	-0.0732	-0.9321	12.0667	0.1820	-0.1311	-19.9043	0.3749	-1.0061	-0.6681	-0.4323	-0.0536	-2.1757
4208.0281	0.0811	-0.4163	-0.1041	-0.4170	-0.0409	-0.9631	9.8122	0.1758	-0.1831	-19.7103	0.3632	-0.6915	-0.6851	-0.5015	-0.1324	-3.2492
4216.0281	-0.0088	-0.3343	0.0508	-0.9913	0.0606	-3.5642	-18.7437	-1.1818	-0.5477	-22.8963	0.0716	-0.9688	-0.6857	-1.6460	-0.1658	-3.4617
4224.0282	-0.0452	-0.3285	-0.0011	-0.3670	0.0169	-2.4275	-8.5012	-0.6260	-0.4034	-20.2920	0.1228	-0.6336	-0.6683	-1.1377	-0.1532	-3.3274
4232.0283	-0.0850	-0.2190	0.0239	0.3814	0.0641	-2.1631	-14.2959	-0.7645	-0.3641	-11.7633	0.1837	-0.4318	-0.4104	-1.1337	-0.3514	-4.0353
4240.0283	-0.0921	-0.1126	0.1229	0.5080	0.0687	-3.3880	-27.9635	-1.4208	-0.5139	-13.1093	-0.1187	-0.5195	-0.3548	-1.5598	-0.1768	-2.5424
4248.0284	-0.0233	-0.2869	-0.1636	0.6501	-0.1413	1.3160	25.1859	1.1983	0.0741	-11.8551	0.1941	0.5142	-0.5661	0.5891	0.0143	-2.0661
4256.0284	-0.2575	-0.3680	-0.1950	0.8052	-0.1370	1.3446	30.5094	1.2646	0.1344	-13.8406	0.3956	-0.1005	-0.6736	0.5874	-0.0549	-1.9616
4264.0285	-0.3642	-0.2610	0.0174	0.9924	-0.0545	-2.3234	-8.0011	-0.7787	-0.2681	-15.2517	0.2728	-1.3907	-0.5072	-1.0807	-0.2063	-1.8294
4272.0285	0.0371	-0.2855	-0.0264	-0.4439	-0.1162	-1.6062	-1.5526	-0.3797	-0.2171	-14.7930	0.2602	-0.9546	-0.4552	-0.7735	-0.1245	-2.1355
4280.0286	0.1635	-0.3371	0.0100	-1.3355	0.0155	-2.7679	-10.5610	-0.8442	-0.4019	-20.0474	0.1963	-1.1129	-0.5612	-1.2978	-0.1285	-2.8782
4288.0286	-0.0524	-0.3525	-0.0038	0.0775	0.1704	-2.6345	-12.8161	-0.8597	-0.4084	-16.6462	0.4039	-1.0063	-0.5518	-1.4049	-0.4599	-5.0911
4296.0287	-0.2397	-0.3368	-0.1165	0.5772	0.0508	-0.1242	9.3182	0.3667	-0.1051	-11.0644	0.4572	-0.1497	-0.5588	-0.2723	-0.4199	-4.6855
4304.0287	-0.3802	-0.3123	-0.0670	0.2514	-0.1090	-0.9362	2.1841	-0.0458	-0.1909	-12.8720	0.3424	-0.4192	-0.5986	-0.5788	-0.3606	-3.9016
4312.0288	-0.2674	-0.4092	-0.0608	-0.4476	-0.1577	-1.8107	-0.4495	-0.3445	-0.2850	-18.6736	0.4202	-0.9958	-0.7182	-0.9661	-0.3496	-4.1443
4320.0288	-0.0880	-0.4429	-0.0823	-1.1469	-0.1101	-1.6631	2.9279	-0.2870	-0.2267	-18.2904	0.5533	-1.3620	-0.6457	-0.9206	-0.3444	-3.9388
4328.0289	-0.2753	-0.4040	-0.0819	0.1774	-0.1472	-1.4085	0.9106	-0.3464	-0.1679	-12.2513	0.7427	-1.4641	-0.5104	-0.9346	-0.5995	-4.9513
4336.0289	-0.3862	-0.4257	-0.1078	0.8371	-0.3016	-0.9338	10.3401	0.1130	-0.1303	-17.7718	0.5286	-1.0817	-0.7393	-0.5443	-0.3175	-3.5001
4344.0290	-0.0200	-0.3523	-0.0278	-0.3392	-0.1608	-2.0260	-2.7153	-0.3745	-0.3444	-21.1042	0.1376	-0.6047	-0.7093	-0.9288	-0.0898	-2.9699
4352.0291	0.0432	-0.3369	0.0206	-0.4755	0.0334	-2.9290	-14.2972	-0.8128	-0.5247	-22.4606	0.0280	-0.3460	-0.7300	-1.3785	-0.1746	-4.2247
4360.0291	-0.1783	-0.4411	-0.0156	-0.2992	-0.0649	-2.9152	-5.1107	-0.5844	-0.4819	-29.4213	0.0636	-0.8108	-0.9924	-1.2582	-0.0272	-3.0901
4368.0292	-0.2277	-0.4113	0.0553	0.2256	-0.0933	-4.2401	-18.7085	-1.4553	-0.5468	-26.5702	0.2757	-1.9568	-0.7897	-1.9414	-0.2268	-3.1149
4376.0292	-0.4819	-0.4033	0.0614	2.1038	-0.1753	-4.3349	-16.4694	-1.6122	-0.4230	-24.5196	0.5120	-2.9873	-0.6973	-1.9729	-0.2826	-1.8519
4384.0293	-0.3431	-0.3928	-0.0452	2.6064	-0.2646	-2.0865	4.2222	-0.6567	-0.0521	-15.9529	0.8282	-3.0346	-0.4491	-1.0227	-0.3081	-1.1300
4392.0293	0.0030	-0.2112	-0.0187	2.3705	-0.1271	-1.3921	-4.6939	-0.8188	0.0377	0.4582	0.9809	-2.6235	0.1391	-0.9545	-0.6309	-2.6444
4400.0294	-0.2844	-0.2378	-0.0153	2.8734	-0.2014	-1.5822	-1.5341	-0.7332	0.0108	-5.3877	0.8135	-2.6185	-0.1049	-0.8934	-0.4462	-1.4117
4408.0294	-0.3061	-0.4462	-0.0701	2.1473	-0.2539	-1.9213	8.7491	-0.3738	-0.0944	-21.0140	0.6882	-2.5764	-0.6502	-0.8803	-0.1774	-1.2301
4416.0295	-0.1373	-0.4278	-0.0209	2.3524	-0.1080	-2.8088	0.1082	-0.7600	-0.2359	-23.9441	0.5444	-2.5377	-0.6575	-1.2388	-0.1097	-1.2927
4424.0295	-0.2722	-0.3020	-0.0185	3.7400	-0.1685	-1.8996	2.7815	-0.5174	-0.0926	-16.2396	0.5167	-2.2175	-0.4531	-0.8303	-0.1228	-0.5003
4432.0296	-0.1316	-0.1835	0.0403	2.8276	-0.1292	-2.2298	-7.9734	-0.8300	-0.1893	-12.3489	0.2817	-1.6536	-0.2904	-0.9860	-0.1024	-0.5725
4440.0296	-0.0360	-0.1565	0.1440	1.9847	-0.0294	-4.1281	-23.6357	-1.5962	-0.4807	-21.1856	-0.1474	-1.6427	-0.4527	-1.6556	0.1808	0.5985
4448.0297	-0.2991	-0.3451	0.0154	3.1305	-0.1776	-2.7727	0.2894	-0.4978	-0.3482	-30.3093	-0.0746	-1.2742	-0.9327	-0.9533	0.3101	0.4225
4456.0297	-0.2718	-0.3761	-0.0571	3.3567	-0.1650	-1.4596	14.0079	0.2836	-0.2297	-30.9965	-0.1175	-0.5771	-1.0422	-0.3239	0.4126	0.4058
4464.0298	0.1895	-0.1771	0.0883	2.0772	0.0385	-3.0364	-11.3193	-0.7701	-0.4579	-26.2294	-0.4565	-0.3999	-0.6614	-1.0197	0.4904	0.9394
4472.0299	0.2448	-0.1352	0.1305	1.9403	0.0406	-3.5861	-20.3833	-1.0649	-0.5869	-26.1274	-0.6032	-0.0118	-0.6511	-1.2879	0.4551	0.1795
4480.0299	0.0150	-0.1756	0.0724	2.3101	-0.0437	-2.6021	-7.7126	-0.3996	-0.4978	-29.1750	-0.7015	0.5142	-0.8800	-0.7529	0.5941	0.7244
4488.0300	0.0463	-0.1780	0.0827	1.8278	-0.0148	-2.8351	-8.7204	-0.4978	-0.5160	-30.4100	-0.7375	0.3647	-0.8867	-0.8222	0.6577	1.2252
4496.0300	-0.0505	-0.1511	0.0808	2.7607	-0.0344	-2.6086	-6.0789	-0.4710	-0.4191	-27.9796	-0.6388	-0.0276	-0.7946	-0.7076	0.6547	2.0854
4504.0301	0.2113	0.0464	0.0897	2.7095	0.0327	-1.4317	-8.0489	-0.4517	-0.1832	-9.8730	-0.4091	-0.0752	-0.1341	-0.3610	0.4294	2.2405
4512.0301	0.4940	0.2263	0.1705	1.0052	0.2484	-1.9042	-27.6609	-1.2319	-0.2248	4.7736	-0.2929	-0.1533	0.4492	-0.8186	0.0813	0.8971
4520.0302	0.1821	0.2329	0.1329	1.8084	0.2691	-1.0360	-19.9794	-0.7892	-0.1279	6.2311	-0.2929	0.2142	0.3634	-0.4194	0.0575	0.9367
4528.0302	0.3201	0.3034	0.1055	2.4766	0.2815	0.0615	-14.9021	-0.3512	-0.0171	12.0078	-0.3098	0.8772	0.5214	0.0349	0.0390	0.6432
4536.0303	0.3234	0.3520	0.2033	2.3425	0.3088	-1.6229	-31.2832	-1.2561	-0.1946	10.2175	-0.4130	0.2496	0.5865	-0.6840	0.0594	1.2907
4544.0303	0.0809	0.2147	0.1495	2.4610	0.1934	-1.5141	-20.1570	-0.9973	-0.1166	3.7978	-0.2426	-0.4654	0.3331	-0.5676	0.1276	2.0942
4552.0304	0.3415	0.1615	0.1101	1.4995	0.2611	-1.1452	-16.4104	-0.8074	-0.0825	4.5637	-0.0976	-0.4403	0.3827	-0.4855	0.0523	1.1107
4560.0304	0.1768	0.2246	0.1759	2.0267	0.2634	-2.0495	-27.7319	-1.3877	-0.1677	6.3139	-0.1244	-0.7894	0.4667	-0.9077	-0.0318	1.2643
4568.0305	0.0283	0.1858	0.1260	2.4668	0.0620	-1.2758	-17.2529	-0.9633	-0.0329	6.3251	-0.0174	-0.9120	0.4011	-0.5386	-0.0058	1.8093
4576.0306	0.1960	0.1672	0.1066	1.7132	0.0523	-1.0190	-12.5971	-0.7976	0.0175	5.4075	-0.0165	-1.0072	0.4184	-0.3802	0.1097	2.5286
4584.0306	0.1661	0.1977	0.1189	1.4072	0.1335	-1.0921	-16.5216	-0.9848	0.0288	9.4442	0.0857	-1.1841	0.5526	-0.4964	-0.0326	2.0723
4592.0307	0.3700	0.0671	0.0579	-0.0865	0.1906	-0.8181	-9.7546	-0.6497	0.0052	4.7084	0.1663	-0.9761	0.3765	-0.4167	-0.0462	0.7572
4600.0307	0.2818	-0.0838	0.0458	-0.6013	0.2420	-1.6680	-8.3441	-0.7466	-0.1241	-6.3250	0.1432	-1.3261	0.0140	-0.7184	0.0519	0.6121
4608.0308	-0.0967	-0.0554	0.0991	0.0925	0.2336	-2.5765	-19.8235	-1.3330	-0.2185	-4.3390	0.2202	-1.7192	0.0252	-1.2126	-0.1871	-0.1952
4616.0308	-0.0360	0.0152	0.1092	-0.0759	0.1613	-2.2328	-18.8827	-1.2238	-0.1739	-2.0917	0.0845	-1.4494	0.1151	-0.9977	-0.0615	0.8272
4624.0309	0.1628	0.0352	0.0710	-0.1637	0.1112	-1.2816	-10.1612	-0.7582	-0.0486	-0.0545	0.0693	-1.1580	0.1974	-0.5350	0.0579	1.5188
4632.0309	0.1029	0.0172	0.0868	-0.2177	0.1681	-1.7662	-16.8529	-1.0205	-0.1466	0.0957	0.1216	-1.1015	0.1707	-0.8494	-0.1250	-0.0116
4640.0310	0.0303	-0.0330	0.0838	-0.3062	0.1452	-2.0360	-14.9542	-0.9802	-0.1974	-5.4919	0.0197	-1.1024	-0.0224	-0.8817	0.0043	0.4627
4648.0310	0.2225	-0.0475	0.0672	-1.2303	0.1167	-1.8072	-12.4438	-0.8432	-0.1809	-5.7215	0.0075	-0.9814	-0.0012	-0.7759	0.0602	0.4942
4656.0311	0.0271	-0.0216	0.1090	-1.0843	0.1360	-2.4558	-19.6316	-1.1632	-0.2822	-7.0352	-0.1108	-0.9457	-0.0686	-1.0438	0.0493	0.4931
4664.0311	-0.1332	-0.0010	0.0709	-0.3074	-0.0063	-1.4694	-10.9466	-0.6879	-0.1538	-4.6928	-0.1085	-0.6241	-0.0822	-0.5799	0.0755	0.9129
4672.0312	0.2470	-0.0023	0.0171	-1.8912	-0.0638	-0.4110	-4.6898	-0.2690	-0.0434	0.6933	0.0173	-0.2305	0.1049	-0.2189	-0.0003	-0.0301
4680.0312	0.1061	-0.0075	0.0147	-1.7074	0.0027	-0.4197	-4.7981	-0.3237	-0.0188	1.9148	0.1138	-0.4694	0.1198	-0.2582	-0.0873	-0.1638
4688.0313	0.0252	0.0149	0.0334	-1.5400	0.0078	-0.6426	-8.4398	-0.4838	-0.0466	2.9017	0.1049	-0.4960	0.1421	-0.3763	-0.1381	-0.3138
4696.0314	0.1868	0.0354	0.0928	-2.9293	0.0166	-1.7135	-18.9642	-0.9811	-0.2136	-0.2886	-0.1016	-0.4964	0.1264	-0.8019	-0.0266	0.0128
4704.0314	-0.0513	0.0407	0.0868	-1.8270	-0.0183	-1.5566	-16.8102	-0.9709	-0.1368	1.6097	0.0315	-0.8784	0.1502	-0.7483	-0.1064	0.3284
4712.0315	0.0910	-0.0031	0.0508	-2.4903	-0.0212	-1.1576	-11.8866	-0.7455	-0.0892	1.6484	0.1250	-0.8657	0.1551	-0.6046	-0.1237	-0.0608
4720.0315	0.1523	-0.0589	0.0668	-3.7621	0.0776	-1.8991	-15.3726	-0.9552	-0.2180	-4.4027	0.0039	-0.9115	-0.0070	-0.8790	-0.0200	-0.0157
4728.0316	-0.0533	-0.0652	0.1179	-2.8174	0.1289	-3.0256	-26.3465	-1.5480	-0.3474	-5.5293	0.0687	-1.3595	-0.0408	-1.4415	-0.1923	-0.8546
4736.0316	0.0696	-0.1179	0.1015	-2.7533	0.0658	-3.0777	-22.9516	-1.4730	-0.3391	-8.5792	0.1115	-1.5748	-0.0994	-1.4338	-0.1242	-0.6347
4744.0317	0.1502	-0.0563	0.0407	-2.3292	0.1213	-1.3975	-12.1557	-0.8504	-0.0961	0.8156	0.2943	-1.2664	0.1605	-0.7712	-0.2254	-0.7217
4752.0317	0.2336	0.0869	0.0877	-2.3674	0.3107	-1.3666	-23.0544	-1.1743	-0.1047	10.9533	0.3085	-0.9548	0.5098	-0.9002	-0.4454	-1.6894
4760.0318	0.1046	0.0450	0.0600	-1.8111	0.2516	-1.0815	-15.8264	-0.9386	-0.0336	8.4576	0.3497	-1.1894	0.4041	-0.7072	-0.3607	-0.8675
4768.0318	-0.0215	0.1284	0.0735	-0.3251	0.2325	-0.7602	-16.6742	-0.9888	0.0688	14.8907	0.4595	-1.4076	0.6095	-0.6069	-0.4662	-0.4860
4776.0319	0.2260	0.2217	0.1511	-1.1288	0.3663	-1.6556	-28.1280	-1.4389	-0.0870	13.3705	0.1149	-1.0899	0.6813	-0.9004	-0.2542	0.4931
4784.0319	0.0582	0.0834	-0.0110	-0.4450	0.2355	0.7304	1.4872	-0.0163	0.2054	11.4115	0.3133	-0.6116	0.4237	0.1940	-0.1929	0.4134
4792.0320	-0.2028	0.1166	-0.0239	1.0584	0.1793	1.2295	0.5515	0.0594	0.2618	17.8931	0.4983	-0.4106	0.5127	0.2583	-0.5073	-1.2716
4800.0320	0.0314	0.1610	0.0789	0.3220	0.2723	-0.5368	-16.7068	-0.6974	-0.0343	11.3572	0.0991	-0.1876	0.4352	-0.4139	-0.3007	-0.8809
4808.0321	0.0832	0.1321	0.0508	0.1672	0.2231	-0.1313	-11.8197	-0.3763	-0.0332	9.1184	0.0151	0.2773	0.3219	-0.2008	-0.2263	-1.1183
4816.0322	-0.2583	0.2062	0.0916	0.5678	0.0927	-0.3502	-17.2721	-0.5139	-0.1001	9.5687	-0.2150	0.7202	0.2432	-0.2448	-0.1973	-0.7532
4824.0322	-0.2976	0.2237	0.0773	0.6402	-0.0121	0.1403	-11.6076	-0.1855	-0.0594	8.0545	-0.3829	1.1251	0.1596	0.0796	-0.0157	0.2402
4832.0323	-0.0930	0.2791	0.1273	0.4594	0.0419	-0.5027	-21.2535	-0.5797	-0.1609	9.2245	-0.4769	1.2073	0.2805	-0.2270	-0.0243	-0.0329
4840.0323	-0.1101	0.2258	0.1344	0.4078	0.0070	-0.9912	-20.5559	-0.5887	-0.2542	1.6222	-0.6567	1.2799	0.0438	-0.3191	0.1724	0.6030
4848.0324	0.1120	0.1970	0.0870	0.2792	0.0060	-0.2548	-13.7543	-0.2381	-0.1597	3.7461	-0.5128	1.3803	0.1227	-0.0519	0.1235	0.0085
4856.0324	0.1122	0.3799	0.2031	0.4069	0.1905	-1.3800	-37.1455	-1.2286	-0.2886	14.0322	-0.5229	1.2451	0.5329	-0.7144	-0.1663	-0.9130
4864.0325	-0.2399	0.3389	0.0711	1.7008	0.0824	1.1204	-11.7037	0.0972	0.0174	16.6938	-0.4061	1.9661	0.3836	0.4226	-0.1523	-0.7480
4872.0325	0.0491	0.3163	-0.0022	0.9492	-0.0365	2.4871	2.4580	0.8357	0.1779	17.7026	-0.3968	2.4121	0.4140	1.0681	-0.0041	-0.2639
4880.0326	0.0924	0.2046	0.0153	-0.4006	-0.0089	1.2539	-1.9889	0.3620	0.0605	10.6637	-0.3077	1.5212	0.2701	0.5360	0.0197	-0.1272
4888.0326	-0.2549	-0.0498	-0.1193	0.5597	0.0119	2.1508	19.2251	1.1507	0.1969	2.6426	0.0895	1.0490	-0.1579	0.9002	-0.1013	-1.3217
4896.0327	-0.2351	0.1768	0.0337	1.3218	0.0885	0.6812	-4.8733	0.1538	-0.0006	7.5063	-0.2785	1.2436	0.1192	0.2942	-0.0506	-0.3698
4904.0327	-0.3928	0.2418	-0.0369	2.3877	-0.1397	2.6526	10.8403	0.9515	0.3096	16.1593	-0.1286	1.4721	0.2957	1.1597	-0.0691	0.5874
4912.0328	-0.3380	0.1935	-0.1289	2.5105	-0.2787	4.1668	27.6635	1.6471	0.5766	20.2506	0.1808	1.1844	0.3949	1.7873	-0.1116	0.9409
4920.0328	-0.0539	0.4267	0.1069	0.9927	-0.1302	0.9894	-11.0135	-0.2071	0.1874	21.2632	-0.3168	0.7157	0.7309	0.4714	0.0626	2.7920
4928.0329	-0.0556	0.1928	-0.0203	0.9187	-0.1473	1.9096	10.0349	0.6748	0.2752	11.1988	-0.1383	0.7301	0.3090	0.9251	0.1484	2.0979
4936.0330	-0.0338	0.0516	-0.0592	1.4276	-0.0760	1.6999	16.1674	0.9223	0.1957	1.3202	-0.1679	0.8362	-0.0361	0.8998	0.2498	1.4893
4944.0330	-0.1732	0.2156	-0.0015	2.1307	-0.0598	1.7416	6.1974	0.6825	0.1690	9.2336	-0.3248	1.4218	0.1784	0.8688	0.1421	1.2415
4952.0331	-0.2589	0.1140	-0.0796	2.4394	-0.1573	2.6142	18.9097	1.2459	0.2803	7.3415	-0.1488	1.4415	0.0268	1.2332	0.0989	0.6732
4960.0331	-0.1010	0.1353	-0.0032	1.4337	-0.1274	1.2104	8.1268	0.6437	0.0995	1.4524	-0.4206	1.1824	-0.0269	0.7457	0.3402	2.0548
4968.0332	0.0008	0.1198	-0.0795	0.8439	-0.1234	2.6614	20.2943	1.3238	0.2691	5.6158	-0.2959	1.6148	0.0405	1.3320	0.2947	1.5687
4976.0332	0.1554	-0.0033	-0.0369	0.3934	-0.0069	0.8181	10.1545	0.6166	0.0419	-3.9432	-0.2462	0.7945	-0.1431	0.5162	0.2915	0.9176
4984.0333	0.0617	-0.0417	-0.0373	0.6352	0.0323	0.5049	7.4626	0.4356	0.0140	-3.7325	-0.0895	0.4886	-0.1559	0.2895	0.1190	-0.0900
4992.0333	-0.1992	-0.0930	-0.1957	1.7560	-0.0396	3.3872	32.6944	1.7523	0.3974	5.5274	0.3526	0.9516	-0.0985	1.3979	-0.1745	-1.5814
5000.0334	-0.1852	0.0062	-0.0510	1.5188	-0.0025	1.1262	9.4888	0.5448	0.1372	3.0066	0.0860	0.3748	-0.0148	0.4758	-0.0714	-0.3587
5008.0334	-0.2092	0.0387	-0.1047	1.3969	-0.1273	2.5051	19.7003	1.1571	0.3009	7.8261	0.1068	0.9042	0.0548	1.0751	-0.0671	-0.2287
5016.0335	-0.2797	0.1107	-0.1759	2.2711	-0.2066	4.5423	35.5470	2.0289	0.5877	15.6793	0.1726	1.4117	0.2160	1.9929	-0.0298	0.6836
5024.0335	-0.0165	0.2330	-0.1252	1.0175	-0.0888	4.3692	26.8740	1.7331	0.5567	21.2239	0.0292	1.6538	0.4904	1.9023	0.0080	1.1400
5032.0336	0.1626	0.0630	-0.2041	-0.3515	-0.0296	4.7410	35.4348	2.2196	0.4992	14.2088	0.0834	2.1669	0.1917	2.0180	-0.0217	-0.9147
5040.0336	-0.1727	0.0467	-0.1072	1.3332	-0.1455	2.6484	19.7977	1.2843	0.2642	6.9613	-0.0137	1.3998	-0.0032	1.1552	-0.0275	-0.5790
5048.0337	-0.2654	0.1103	-0.1981	1.5250	-0.2973	5.0245	37.6052	2.2810	0.5863	16.6808	0.1101	2.0079	0.1768	2.1740	-0.0595	-0.1070
5056.0338	0.0368	0.0761	-0.2427	0.0123	-0.1396	5.7503	46.8288	2.8999	0.5713	11.2221	-0.1893	3.0109	-0.0031	2.6336	0.2535	0.3436
5064.0338	0.0786	0.1592	-0.0707	-0.1193	0.0328	2.7603	14.4470	1.3031	0.1838	8.6572	-0.3922	2.4068	0.0872	1.2769	0.1609	-0.1318
5072.0339	0.0909	0.0911	-0.1183	-0.8486	0.0201	3.1936	19.8332	1.4921	0.2611	10.0978	-0.1502	2.1404	0.1020	1.3701	0.0128	-0.9919
5080.0339	-0.0287	-0.0055	-0.1040	-0.1958	-0.0682	2.2497	21.6113	1.3662	0.1545	-1.9297	-0.3160	1.7091	-0.2498	1.1531	0.3006	0.5285
5088.0340	-0.2848	-0.0152	-0.1946	0.7043	-0.2604	4.0647	37.0211	2.1576	0.4119	4.7661	-0.0568	1.9452	-0.2004	1.8666	0.1263	-0.0065
5096.0340	-0.1595	-0.0065	-0.2315	-1.0699	-0.1674	4.9020	43.7546	2.5865	0.4788	5.9187	-0.1554	2.4759	-0.1895	2.2700	0.2397	0.3581
5104.0341	-0.1742	-0.0136	-0.1085	-0.9201	-0.0413	2.3085	21.8770	1.4378	0.1248	-3.0231	-0.4011	1.9882	-0.3516	1.1923	0.3106	0.3771
5112.0341	-0.4022	-0.1622	-0.2268	0.3181	-0.1508	3.6426	39.4692	2.2117	0.3107	-3.2458	0.0001	1.8742	-0.5221	1.6681	0.0815	-1.2474
5120.0342	-0.3731	-0.1013	-0.1784	0.2158	-0.1876	3.1284	35.3757	1.9640	0.2689	-4.9989	-0.2134	1.7528	-0.5008	1.5740	0.3036	0.5558
5128.0342	-0.4619	-0.0005	-0.1426	0.4181	-0.3520	3.1504	29.2121	1.7760	0.2719	0.7365	-0.2682	1.9588	-0.3384	1.5398	0.2192	0.5262
5136.0343	-0.6260	-0.0612	-0.1997	0.9146	-0.4386	3.9513	41.9504	2.3800	0.3555	-3.5994	-0.3310	2.2628	-0.5716	2.0032	0.3788	1.2167
5144.0343	-0.4014	0.0418	-0.1078	1.1496	-0.3158	2.8279	29.9966	1.8112	0.2161	-5.6190	-0.6442	2.2231	-0.4729	1.6440	0.6263	2.8622
5152.0344	-0.1970	0.0241	-0.1764	0.4821	-0.2453	4.0621	37.8139	2.3198	0.3461	0.2991	-0.4314	2.6316	-0.3296	2.0413	0.4399	1.2711
5160.0344	-0.5065	-0.0270	-0.1753	1.6165	-0.2201	3.6943	38.9349	2.2781	0.3094	-4.5329	-0.4384	2.3932	-0.5417	1.9359	0.4605	1.5096
5168.0345	-0.6534	0.0782	-0.1271	2.3717	-0.3249	3.4575	30.0763	1.8849	0.3204	2.7316	-0.3717	2.1981	-0.3091	1.7410	0.2758	1.3344
5176.0346	-0.3172	0.0436	-0.0417	-0.1559	-0.2145	1.4222	14.6445	1.0490	0.0224	-6.5420	-0.6597	1.8929	-0.4281	0.9422	0.5032	1.9245
5184.0346	-0.3843	-0.0368	0.0604	0.5700	-0.0912	-1.2500	-2.4089	0.0693	-0.3540	-21.4621	-0.9403	1.3798	-0.8008	-0.0946	0.6801	2.1544
5192.0347	-0.7171	-0.0476	-0.0784	2.3061	-0.3024	1.5489	19.3584	1.2835	0.0093	-10.4132	-0.5358	1.9915	-0.7088	0.9577	0.3367	0.4329
5200.0347	-0.5721	0.0501	-0.0051	1.4961	-0.2428	0.7539	10.6019	0.7938	-0.0489	-10.0418	-0.7463	1.6894	-0.5547	0.7187	0.5482	2.4610
5208.0348	-0.3132	0.0083	-0.0097	1.8442	-0.1548	0.4774	10.0758	0.6638	-0.0491	-10.6923	-0.5813	1.2330	-0.4774	0.5493	0.4993	2.0553
5216.0348	-0.3165	-0.2275	-0.1651	1.5001	-0.2024	1.9451	34.0918	1.7248	0.1121	-16.9713	-0.2663	1.3104	-0.8179	1.1594	0.4542	0.6534
5224.0349	-0.4297	-0.2059	-0.0420	1.0273	-0.0936	-0.4482	12.2004	0.5673	-0.1951	-22.8270	-0.4753	0.7420	-0.9046	0.1453	0.4793	0.9139
5232.0349	-0.3793	-0.1580	-0.0863	0.9925	-0.1053	0.7789	17.1963	0.9410	-0.0341	-13.4267	-0.2667	1.0486	-0.6625	0.5357	0.2548	-0.1919
5240.0350	-0.1394	-0.2503	-0.0933	0.6632	-0.0396	0.2360	19.9026	0.9121	-0.0938	-21.5241	-0.3079	0.6892	-0.8208	0.4011	0.4616	0.5387
5248.0350	-0.2062	-0.2940	-0.0572	1.8721	-0.0222	-0.9463	8.7491	0.1601	-0.1555	-19.2012	0.1007	-0.5023	-0.6814	-0.3227	0.0767	-1.1062
5256.0351	-0.3337	-0.3305	-0.1456	1.7606	-0.1775	0.5837	23.7396	0.7978	0.1080	-13.2661	0.4364	-0.7496	-0.5833	0.2661	-0.0676	-1.1658
5264.0351	-0.0848	-0.2710	-0.0317	1.0665	-0.1112	-1.3097	6.4642	-0.0618	-0.1546	-19.4187	0.0608	-0.8959	-0.5988	-0.4276	0.1957	0.1429
5272.0352	-0.1814	-0.1859	-0.0764	1.7557	-0.1536	0.2065	10.4172	0.3584	0.0302	-6.3613	0.3066	-0.3540	-0.3061	0.0271	-0.1623	-1.6583
5280.0353	-0.2757	-0.1120	-0.1408	1.2028	-0.2317	2.1748	27.7306	1.3271	0.2704	-2.7449	0.1083	0.4830	-0.2903	1.0515	0.1194	0.4857
5288.0353	0.2293	-0.1560	-0.0802	-0.1305	-0.0567	0.5612	13.8033	0.6974	-0.0152	-10.0807	-0.0832	0.5651	-0.3598	0.3464	0.2101	-0.5073
5296.0354	0.2107	-0.3594	-0.0943	-0.7719	0.0357	-0.7318	9.5776	0.2613	-0.1762	-18.3425	0.2181	-0.3198	-0.6128	-0.3520	-0.0225	-2.6882
5304.0354	-0.1924	-0.3832	-0.0205	-0.1092	-0.0009	-2.4051	-0.5407	-0.4688	-0.3332	-25.3096	0.1273	-1.1884	-0.8152	-0.9866	0.0498	-1.4512
5312.0355	-0.1250	-0.3541	-0.0741	0.2244	-0.1060	-1.0748	6.8750	0.0863	-0.2022	-19.0357	0.2177	-0.5092	-0.7007	-0.4950	-0.0806	-2.5813
5320.0355	0.0689	-0.3511	-0.0901	-0.7488	-0.1339	-0.6856	13.6185	0.3900	-0.1542	-21.8483	0.0403	-0.3204	-0.7387	-0.1764	0.2149	-0.8928
5328.0356	0.1506	-0.3539	-0.0447	-1.1814	-0.0427	-1.7342	1.5983	-0.2807	-0.2513	-19.7117	0.2249	-0.9810	-0.5892	-0.7795	-0.0160	-2.0074
5336.0356	0.0606	-0.4275	-0.1027	-1.2097	-0.0253	-1.1503	7.4016	-0.0795	-0.1386	-16.0588	0.6053	-1.3753	-0.5374	-0.6901	-0.3067	-3.5251
5344.0357	0.2188	-0.3874	-0.0290	-0.9991	0.0521	-2.3504	-0.5098	-0.5632	-0.2718	-22.0118	0.3206	-1.6637	-0.5743	-1.0362	0.0050	-1.5032
5352.0357	0.3084	-0.5184	-0.0738	-1.2152	0.1268	-2.4347	1.2922	-0.4599	-0.3367	-25.4976	0.5142	-1.6114	-0.7310	-1.2009	-0.1940	-3.9093
5360.0358	-0.1222	-0.6495	-0.0881	-1.2211	0.0154	-3.0323	7.7609	-0.4144	-0.3846	-37.3253	0.4248	-2.1609	-1.1790	-1.2771	0.0350	-2.3175
5368.0358	0.0268	-0.5000	-0.0252	-0.6867	-0.0452	-3.1968	0.0432	-0.6539	-0.4090	-33.0673	0.1887	-1.8152	-0.9631	-1.2885	0.1580	-1.2203
5376.0359	0.2037	-0.5371	-0.0649	-1.3924	0.0697	-2.6685	2.8196	-0.3531	-0.4187	-32.3010	0.2260	-1.2175	-0.9829	-1.1454	0.0542	-2.9309
5384.0359	-0.0832	-0.5786	0.0486	-1.2891	0.1052	-5.2798	-13.3655	-1.4093	-0.7209	-45.1007	-0.0505	-2.1370	-1.2984	-2.1076	0.2839	-1.2094
5392.0360	0.0070	-0.5700	-0.0168	-0.9024	-0.0199	-3.8847	-4.7681	-0.8554	-0.5552	-37.8511	0.1655	-1.7106	-1.1428	-1.6306	0.0839	-2.5847
5400.0361	-0.2176	-0.6036	-0.1020	-0.5746	-0.1125	-2.2938	14.5680	0.0787	-0.3506	-39.1907	0.1229	-1.2937	-1.3156	-0.7982	0.2806	-1.2177
5408.0361	-0.3878	-0.4747	-0.0072	0.2383	-0.1959	-3.2770	0.2829	-0.5851	-0.4515	-36.3534	-0.0489	-1.4424	-1.1825	-1.2036	0.2802	-0.3775
5416.0362	-0.0733	-0.4837	-0.0606	-0.8442	-0.2194	-2.2651	6.8767	-0.1333	-0.3610	-32.4791	0.0373	-0.9503	-1.0644	-0.8405	0.2233	-1.3637
5424.0362	-0.0844	-0.4187	-0.0217	0.2591	-0.1473	-2.5797	5.2927	-0.3216	-0.3345	-32.7503	-0.0569	-1.3398	-0.9830	-0.8586	0.4015	0.6030
5432.0363	-0.1075	-0.2573	-0.0094	1.4267	-0.1672	-1.7013	-1.2055	-0.3725	-0.2170	-16.4173	0.1682	-0.9335	-0.5164	-0.7319	-0.0354	-1.3705
5440.0363	-0.1011	-0.3602	0.0068	-1.0518	-0.1423	-2.7268	0.0550	-0.4843	-0.3794	-30.6547	-0.1938	-1.0773	-0.9221	-0.9225	0.4197	0.7961
5448.0364	-0.0637	-0.3675	0.0592	-0.7242	-0.1269	-3.9025	-8.0810	-1.0838	-0.4587	-33.0580	-0.1403	-1.9393	-0.8807	-1.4210	0.4362	1.5025
5456.0364	-0.0818	-0.2353	-0.0402	0.4087	-0.1997	-0.9372	3.4557	-0.1559	-0.0843	-10.7268	0.3132	-1.0153	-0.3508	-0.4608	-0.1167	-1.2872
5464.0365	-0.1656	0.0082	0.0648	0.4970	-0.1079	-1.2321	-6.9190	-0.5050	-0.1158	-6.1376	-0.1871	-0.5338	-0.1334	-0.3914	0.2030	1.7780
5472.0365	0.1971	0.2705	0.0218	1.2334	-0.0710	1.4794	-4.0471	0.0630	0.2548	22.2433	0.1888	0.3549	0.7508	0.4465	-0.3005	-0.2558
5480.0366	0.3073	0.3994	-0.1223	0.9209	-0.1027	5.3889	22.1235	1.5912	0.7856	41.5938	0.4682	1.3316	1.2286	2.0461	-0.4311	-0.0597
5488.0366	0.4105	0.6900	-0.0238	1.8875	0.0508	5.4278	5.7160	0.9862	0.8578	59.3760	0.4774	1.3534	1.9063	1.9278	-0.6472	0.3476
5496.0367	0.7081	0.7933	-0.1237	1.7125	0.1916	8.0931	12.6929	1.6885	1.1894	83.5041	1.0895	2.0673	2.5758	2.6282	-1.3498	-3.7442
5504.0367	0.5249	0.7104	-0.1260	0.9095	0.2521	7.5856	18.5306	1.7400	1.1513	72.8236	0.8930	1.6564	2.2481	2.6397	-0.9887	-1.3553
5512.0368	0.4419	0.8063	-0.0699	2.9090	0.1803	7.0692	3.7897	1.1317	1.1090	82.5883	1.1356	1.4443	2.5597	2.1665	-1.4417	-3.5829
5520.0369	0.2830	0.7702	-0.1288	3.0603	0.0093	8.0830	17.5072	1.7568	1.2480	80.7375	1.1091	1.6302	2.4146	2.7169	-1.2842	-2.4642
5528.0369	0.4490	0.7681	-0.0361	2.2874	0.0333	6.1969	7.7024	1.0591	1.0368	69.3130	0.7244	1.0331	2.2468	2.1556	-0.8219	0.4451
5536.0370	0.7721	0.7613	-0.0913	2.1144	0.1336	7.1526	5.9340	1.2305	1.1048	81.3260	1.1824	1.4713	2.5817	2.1805	-1.4135	-4.0337
5544.0370	0.4316	0.6253	-0.0827	1.5344	0.1605	6.1074	14.2401	1.2986	0.9857	61.1735	0.7459	1.0177	1.9450	2.1525	-0.7603	-0.1033
5552.0371	0.7220	0.6499	-0.0403	1.8729	0.2193	5.3477	2.3717	0.8035	0.8679	63.8170	0.8316	0.9627	2.1199	1.6756	-0.9622	-1.8364
5560.0371	0.6115	0.6367	-0.1202	2.4184	0.2192	6.8858	12.5029	1.4600	1.0325	70.5806	1.0698	1.5108	2.1841	2.1961	-1.2299	-3.7077
5568.0372	0.2883	0.7180	-0.0174	3.3865	0.1227	5.4702	6.4214	0.8946	0.9456	62.2884	0.6365	0.7897	2.0264	1.9336	-0.7124	0.9600
5576.0372	0.9320	0.8219	-0.0471	2.8115	0.0722	6.7011	0.9674	0.9791	1.0667	81.1775	1.0592	1.3839	2.6750	2.0492	-1.2877	-3.0727
5584.0373	0.5397	0.7046	-0.0559	2.0211	0.0714	6.1429	11.0793	1.1872	1.0103	64.9004	0.7026	1.0555	2.1166	2.1723	-0.7386	0.4070
5592.0373	0.5255	0.7089	-0.0019	2.5589	0.0408	5.0198	0.1104	0.5592	0.9028	64.6500	0.7840	0.4680	2.1756	1.6162	-0.8648	-0.0480
5600.0374	0.8051	0.6603	-0.0757	1.7079	0.0197	6.1123	6.0006	0.9846	1.0029	70.9369	1.0951	0.8288	2.3294	1.8703	-1.1716	-2.6983
5608.0374	0.3232	0.6378	-0.0018	2.2378	0.1196	4.5423	6.2330	0.5916	0.8926	54.8963	0.6271	-0.0915	1.8902	1.6411	-0.5136	2.5692
5616.0375	0.9074	0.6620	-0.0662	1.5826	0.2066	5.8468	0.4045	0.7169	0.9810	74.5277	1.2803	0.5764	2.4812	1.6133	-1.3923	-4.0063
5624.0375	0.3728	0.4826	-0.0709	1.2293	0.0931	4.7925	10.1953	0.8718	0.8332	51.9339	0.8358	0.2571	1.6820	1.5788	-0.7769	-0.5989
5632.0376	0.0777	0.5755	0.0028	3.3407	0.1119	3.9808	1.4019	0.3723	0.7897	52.7457	0.7436	-0.1623	1.7371	1.2906	-0.7487	0.6821
5640.0377	0.8269	0.5834	-0.0922	0.3397	0.2198	5.8878	3.7965	1.0460	0.8528	66.4431	0.9997	1.4908	2.1081	1.7174	-1.2424	-4.6631
5648.0377	-0.1131	0.4793	0.0286	0.7577	0.0883	2.9590	7.3123	0.5848	0.5437	29.3008	-0.1295	0.5198	0.9670	1.3831	0.1478	4.8608
5656.0378	-0.2316	-0.3739	-0.0306	-2.6229	-0.0325	-2.2309	4.2045	-0.6640	-0.1076	-19.4570	0.4546	-2.7676	-0.5176	-0.9143	0.0661	1.1742
5664.0378	0.1293	-0.3859	-0.0196	-5.1989	0.2018	-2.6186	-2.8316	-0.9012	-0.2172	-18.6350	0.4400	-2.5393	-0.4231	-1.1852	-0.0112	-0.1614
5672.0379	-0.5625	-0.4630	0.0751	-4.1191	0.1394	-4.9411	-5.9892	-1.4311	-0.4873	-42.4854	-0.2234	-3.2088	-1.1784	-1.6683	0.7274	4.8098
5680.0379	-0.1494	-0.3634	-0.0258	-3.1008	0.0925	-2.2668	-2.7627	-0.7170	-0.2288	-17.2620	0.4106	-1.9374	-0.5145	-1.0746	-0.1515	-1.4125
5688.0380	-0.2919	-0.2870	0.0805	-4.0147	0.0973	-3.7263	-8.0271	-1.0935	-0.4232	-31.4210	-0.3993	-1.8434	-0.8538	-1.2129	0.6626	3.9071
5696.0380	-0.3382	-0.2804	0.0604	-2.5153	0.0376	-3.2717	-7.5961	-0.9479	-0.3897	-27.3898	-0.2491	-1.5549	-0.7940	-1.1402	0.4295	2.1886
5704.0381	-0.0551	-0.3499	-0.0213	-2.9967	0.0201	-2.1652	-0.1840	-0.4584	-0.2926	-22.5744	0.0657	-1.1819	-0.6911	-0.8669	0.1394	-0.5339
5712.0381	-0.3520	-0.3020	0.0446	-2.3426	-0.0264	-3.0525	-0.2680	-0.6804	-0.3447	-31.9175	-0.3775	-1.5815	-0.9257	-0.8868	0.6879	3.8621
5720.0382	-0.1720	-0.2413	-0.0074	-1.6501	0.0232	-1.6353	-1.3996	-0.3800	-0.2208	-16.0067	0.0410	-0.8412	-0.5201	-0.6616	0.0646	-0.4715
5728.0382	-0.4250	-0.2444	0.0307	-1.7870	-0.0404	-2.3431	0.1450	-0.4876	-0.2806	-25.4580	-0.3142	-1.1135	-0.7968	-0.6770	0.5091	2.7883
5736.0383	-0.3387	-0.1498	0.0376	-1.2266	-0.0811	-1.7997	-0.4996	-0.4243	-0.1920	-18.4053	-0.2814	-0.9355	-0.5534	-0.4853	0.4458	2.8820
5744.0383	-0.0713	-0.1080	0.0021	-2.5602	0.0213	-0.8482	-1.9457	-0.2449	-0.1207	-7.3701	-0.0431	-0.3813	-0.2371	-0.3350	0.0745	0.1438
5752.0384	-0.6124	0.0433	0.0762	-1.1034	-0.0979	-1.1558	-3.7009	-0.4811	-0.0551	-7.1423	-0.3546	-0.7956	-0.2317	-0.2026	0.4101	4.3589
5760.0385	-0.3096	0.1434	0.0447	-0.1418	-0.1564	0.1670	-3.8387	-0.1889	0.0854	7.0896	-0.0894	-0.1350	0.1992	0.1123	0.0224	1.7615
5768.0385	-0.1988	-0.0565	0.0507	-1.9344	-0.0786	-1.3911	-1.5356	-0.3991	-0.1263	-12.7941	-0.3388	-0.7520	-0.3320	-0.3061	0.4849	3.5815
5776.0386	-0.4484	-0.1575	0.0544	-0.9223	-0.0365	-2.2198	-1.1749	-0.6376	-0.1763	-19.7977	-0.2276	-1.5791	-0.5533	-0.6222	0.4950	3.9714
5784.0386	-0.1921	-0.2296	0.0105	-1.1909	-0.0171	-1.8960	-1.1777	-0.4622	-0.2197	-18.2638	-0.0373	-1.0902	-0.5471	-0.6800	0.2118	0.8072
5792.0387	-0.3699	-0.2507	0.0488	-1.2791	-0.0798	-2.7621	-0.5950	-0.6462	-0.2927	-28.0208	-0.3335	-1.5096	-0.8073	-0.7923	0.6199	3.7559
5800.0387	-0.2343	-0.1003	0.0158	0.3032	0.0132	-1.1089	-1.0782	-0.4563	-0.0220	-6.0525	0.2019	-1.4123	-0.1334	-0.4429	0.0114	1.1250
5808.0388	-0.0504	-0.0469	0.0220	0.5618	0.0411	-0.8563	-0.3599	-0.4138	0.0363	-3.2894	0.1887	-1.4209	0.0240	-0.3095	0.0783	1.8252
5816.0388	-0.2161	0.0710	0.0476	2.5090	-0.0964	-0.4681	-0.0854	-0.3705	0.1340	1.5308	0.1161	-1.3711	0.1716	-0.0756	0.1374	3.2010
5824.0389	-0.0730	0.2191	0.0319	3.4579	-0.0599	0.9032	-2.3888	-0.0979	0.2591	17.1267	0.2746	-0.4306	0.6004	0.2772	-0.2472	0.7605
5832.0389	-0.0262	0.2633	0.0970	3.1725	-0.1288	-0.0148	-5.3852	-0.3381	0.1477	8.4127	-0.1957	-0.4552	0.4332	0.1815	0.2692	4.0607
5840.0390	0.1281	0.3556	0.0872	3.9205	-0.1709	0.8507	-5.2260	-0.1292	0.2409	17.0588	-0.1282	0.0608	0.6968	0.4534	0.1171	3.1360
5848.0390	0.2485	0.3814	0.0742	3.1480	0.0467	1.3368	-2.3757	0.1819	0.2303	16.4199	-0.3331	0.8136	0.6586	0.7276	0.2540	3.2580
5856.0391	0.1442	0.3480	0.0907	3.4282	0.0627	0.8073	-2.6166	0.1356	0.1350	9.1846	-0.5422	0.8987	0.4220	0.6315	0.4544	4.0970
5864.0391	0.0910	0.3132	0.0655	4.1814	-0.1377	1.0636	-3.8883	0.2137	0.1163	12.0911	-0.3596	1.2287	0.4141	0.5639	0.1417	1.4935
5872.0392	0.1714	0.2630	0.0997	3.0454	-0.1629	0.0609	-3.8194	0.0514	-0.0174	-0.2133	-0.7331	1.0415	0.1181	0.4030	0.6247	4.1205
5880.0393	0.3163	0.2053	0.0735	3.2774	-0.0053	0.1411	-3.4116	0.1549	-0.0584	-1.0087	-0.6277	1.2853	0.0777	0.3413	0.4826	2.3018
5888.0393	-0.0114	0.1247	0.0424	4.2509	-0.0357	0.2105	-1.4013	0.3045	-0.0989	-3.4882	-0.5280	1.4961	-0.1523	0.2951	0.2877	0.5211
5896.0394	0.1175	0.1854	0.0534	3.6125	-0.1183	0.4253	-0.9740	0.2905	-0.0282	-0.2015	-0.5551	1.3552	0.0170	0.4246	0.3801	1.7265
5904.0394	0.4701	0.2775	0.0113	3.0837	0.0126	1.8664	-1.3027	0.5930	0.1162	15.4802	-0.2523	2.0491	0.4923	0.7449	-0.0577	-1.2323
5912.0395	0.0054	0.2438	0.0239	3.8003	-0.0390	1.4224	-1.0317	0.5195	0.0631	10.0571	-0.3592	1.8979	0.2234	0.6490	0.0158	-0.4785
5920.0395	0.0544	0.2654	0.0323	4.0242	-0.1360	1.3570	-2.4129	0.3139	0.1408	14.3146	-0.1524	1.2296	0.4237	0.5564	-0.0874	-0.1619
5928.0396	0.2326	0.3580	0.0283	3.6636	0.0005	2.0563	-2.3918	0.3746	0.2712	23.6877	-0.0160	1.2156	0.7719	0.7686	-0.2044	-0.1644
5936.0396	0.1446	0.4324	0.0343	3.5207	0.0555	2.4939	-1.8312	0.4709	0.3339	27.7689	-0.0808	1.4322	0.8784	0.9782	-0.1821	0.4800
5944.0397	0.3110	0.4628	0.0050	3.4484	0.0381	3.2465	-2.1745	0.5850	0.4274	37.2211	0.2035	1.5930	1.1586	1.0835	-0.5195	-1.6039
5952.0397	0.2239	0.4493	0.0229	3.4462	0.0498	2.7990	-1.9261	0.4566	0.4067	33.0514	0.1151	1.2215	1.0627	1.0019	-0.3491	-0.1584
5960.0398	0.4434	0.3869	-0.0010	2.6490	0.0791	2.7788	-1.1715	0.4636	0.3983	32.7251	0.2681	1.0718	1.0865	0.9073	-0.4470	-1.2313
5968.0398	0.3269	0.3576	-0.0350	2.7437	0.0548	3.2068	0.2351	0.5285	0.4733	37.9222	0.5770	0.8672	1.1807	0.9157	-0.7635	-2.9123
5976.0399	0.0717	0.4040	-0.0169	2.7814	-0.0366	3.2061	-0.0631	0.4589	0.5125	39.2284	0.5201	0.6893	1.1908	0.9720	-0.7104	-1.7083
5984.0400	0.5258	0.3294	-0.0531	0.9464	0.0268	3.3491	0.3033	0.5956	0.4517	38.4343	0.5935	1.0958	1.2008	0.9178	-0.8036	-3.7447
5992.0400	0.0648	0.2645	-0.0523	1.5054	0.0178	2.8912	1.0546	0.5081	0.4059	33.1884	0.5933	0.7726	0.9344	0.7672	-0.8106	-3.4960
6000.0401	-0.2944	0.2967	-0.0138	1.9752	-0.1919	2.3928	-2.2894	0.2572	0.3782	31.6463	0.4809	0.4940	0.8450	0.6344	-0.7349	-2.2090
6008.0401	0.2332	0.2540	0.0040	0.8378	-0.2008	1.7243	-3.5359	0.1611	0.2565	23.7245	0.2472	0.5802	0.7567	0.4802	-0.4069	-1.2840
6016.0402	0.2852	0.2794	-0.0004	1.6534	-0.0123	1.9850	-1.6562	0.2607	0.3052	25.1922	0.2696	0.5875	0.8303	0.6063	-0.3905	-1.0217
6024.0402	0.3837	0.2321	-0.0485	0.8260	0.0971	2.5575	-0.4209	0.4475	0.3320	29.8273	0.5263	0.8611	0.9104	0.6425	-0.7166	-3.6908
6032.0403	0.3094	0.0859	-0.0641	-0.1025	0.0945	1.8051	1.4108	0.3499	0.2304	20.1762	0.5444	0.4146	0.5965	0.3660	-0.6383	-3.7467
6040.0403	0.0234	0.1259	-0.0742	0.8234	0.0871	2.2784	1.6773	0.3645	0.3370	27.2681	0.7699	0.2048	0.7417	0.4506	-0.8989	-4.4164
6048.0404	0.1030	0.1219	-0.0781	0.4823	0.0882	2.3152	1.3844	0.3643	0.3366	27.9365	0.7973	0.2265	0.7745	0.4394	-0.9262	-4.7064
6056.0404	0.1403	0.0195	-0.0745	0.2631	0.0905	1.4704	2.1722	0.1435	0.2770	20.0247	0.8390	-0.5445	0.6000	0.1514	-0.7927	-3.8529
6064.0405	0.0504	-0.0431	-0.1137	-0.2632	0.0818	1.7461	2.7228	0.1623	0.3176	24.1443	1.1780	-0.7712	0.6543	0.0612	-1.1510	-6.0644
6072.0405	-0.2954	-0.0976	-0.0990	-0.7815	-0.0073	1.1253	2.6444	0.0932	0.2072	15.7021	0.9448	-0.7320	0.3073	-0.0648	-0.9622	-5.0972
6080.0406	-0.2930	-0.1102	-0.0700	-1.5536	-0.0241	0.4950	1.0408	-0.0241	0.1008	8.5533	0.6557	-0.6405	0.1143	-0.1719	-0.6741	-3.6486
6088.0406	-0.0426	-0.1287	-0.0620	-2.8615	-0.0067	0.1984	0.1090	-0.0669	0.0341	4.9378	0.5132	-0.5167	0.0683	-0.2366	-0.5084	-3.1955
6096.0407	-0.2417	-0.0550	-0.0380	-1.7620	-0.1182	0.2826	-0.4141	-0.1184	0.0896	7.3635	0.4558	-0.6332	0.1348	-0.1403	-0.4545	-1.9695
6104.0408	-0.0955	0.0506	-0.0412	-2.2749	-0.1437	1.1042	-1.6315	0.0205	0.1784	16.9270	0.4909	-0.1366	0.4295	0.1117	-0.5916	-2.6148
6112.0408	0.0263	0.0588	-0.0238	-3.6634	-0.0580	0.8515	-1.4394	0.0471	0.1093	11.7922	0.1892	0.1594	0.3135	0.1622	-0.2856	-1.1390
6120.0409	-0.1768	0.1062	-0.0117	-2.5594	-0.0223	0.9751	-1.6704	0.0605	0.1377	13.3769	0.1490	0.2208	0.3259	0.2438	-0.2871	-0.6935
6128.0409	-0.0323	0.0388	-0.0155	-3.5821	-0.0747	0.5594	-2.1794	0.0051	0.0526	8.3334	0.0948	0.2239	0.1921	0.0856	-0.2129	-0.9511
6136.0410	0.0957	-0.0844	-0.0163	-4.8851	-0.0664	-0.3116	-0.6700	-0.1007	-0.0713	-3.0822	-0.0369	-0.1077	-0.1051	-0.1565	0.0475	-0.0737
6144.0410	0.0322	-0.0585	-0.0470	-4.7363	0.0684	0.4680	0.7294	0.1101	0.0084	3.9770	0.1445	0.2096	0.0386	0.0274	-0.2214	-1.7138
6152.0411	-0.1479	-0.0705	-0.0288	-4.9622	-0.0132	0.0462	-0.1491	-0.0120	-0.0356	0.1873	0.0290	0.0456	-0.0972	-0.0674	-0.1011	-0.7382
6160.0411	-0.0280	-0.0666	-0.0184	-4.8899	-0.0921	-0.1510	-0.6511	-0.1205	-0.0245	-0.1780	0.0472	-0.2580	-0.0409	-0.1274	-0.0402	-0.1070
6168.0412	0.2082	-0.0622	-0.0477	-5.2741	0.0820	0.4659	1.5326	0.1724	-0.0123	2.2290	0.0513	0.3786	0.0235	0.0728	-0.1073	-1.3973
6176.0412	-0.1544	-0.2105	-0.0352	-4.5250	0.0407	-0.8096	1.7575	-0.0236	-0.1935	-12.9354	-0.1122	-0.0126	-0.5100	-0.3118	0.0983	-0.7017
6184.0413	-0.0919	-0.2484	-0.0276	-4.2124	-0.0305	-1.2790	-0.1622	-0.2505	-0.2103	-14.2134	0.0163	-0.5542	-0.4950	-0.5460	0.0509	-0.7988
6192.0413	0.3212	-0.1321	-0.0237	-5.5305	0.0919	-0.5075	0.6891	-0.0165	-0.1420	-8.3583	-0.1613	0.1163	-0.2250	-0.1749	0.2019	-0.0143
6200.0414	-0.0208	-0.1844	-0.0320	-4.3214	0.0499	-0.6686	1.9864	0.0609	-0.1979	-12.7934	-0.2008	0.2761	-0.4812	-0.2206	0.1691	-0.5635
6208.0414	-0.1890	-0.2866	-0.0347	-3.2383	-0.0292	-1.3820	1.0985	-0.1662	-0.2547	-17.8399	-0.0262	-0.3838	-0.6541	-0.5640	0.0655	-1.1950
6216.0415	0.1056	-0.2025	-0.0118	-4.1820	0.0086	-1.2742	0.1806	-0.2917	-0.1679	-13.3475	-0.0363	-0.7461	-0.3659	-0.4736	0.1995	0.5318
6224.0416	-0.0123	-0.2292	-0.0294	-4.1322	0.0316	-1.1305	0.8073	-0.2574	-0.1506	-11.8837	0.0976	-0.8034	-0.3749	-0.4929	0.0424	-0.4118
6232.0416	-0.1814	-0.3170	-0.0173	-3.6000	0.0326	-1.9736	0.7040	-0.3768	-0.2781	-22.1054	-0.0520	-0.9719	-0.7140	-0.7303	0.2175	0.1668
6240.0417	-0.0290	-0.1821	0.0026	-3.1296	0.0227	-1.4100	-0.1714	-0.3664	-0.1524	-13.5970	-0.0445	-0.9569	-0.3706	-0.4913	0.2303	1.1989
6248.0417	-0.0442	-0.1976	-0.0284	-2.6133	-0.0196	-0.9492	1.0559	-0.3092	-0.0633	-7.5460	0.2828	-1.1929	-0.2147	-0.4725	-0.0814	-0.4344
6256.0418	-0.1362	-0.3399	-0.0261	-2.4309	-0.0851	-2.0332	0.8011	-0.5472	-0.1913	-18.4410	0.2955	-1.8060	-0.5434	-0.8736	0.0106	-0.3195
6264.0418	-0.0044	-0.3034	-0.0186	-2.4541	-0.0540	-1.9535	-0.6392	-0.6246	-0.1530	-15.0481	0.3615	-1.9506	-0.3820	-0.8754	-0.0282	-0.2344
6272.0419	0.1792	-0.3175	-0.0352	-2.4149	0.0413	-1.7705	0.5692	-0.5942	-0.1078	-12.8510	0.5213	-2.1454	-0.2648	-0.8661	-0.1177	-0.7847
6280.0419	0.2429	-0.3663	-0.0493	-2.2794	0.0468	-1.8753	1.1423	-0.6319	-0.1056	-13.3779	0.6695	-2.4246	-0.2650	-0.9705	-0.2095	-1.4568
6288.0420	0.0502	-0.3514	-0.0523	-1.8775	0.0617	-1.6835	1.5860	-0.5591	-0.0932	-12.2631	0.6589	-2.2522	-0.2976	-0.8974	-0.2628	-1.6697
6296.0420	-0.1259	-0.2983	-0.0500	-0.4968	0.0884	-1.3124	2.3166	-0.4331	-0.0525	-9.5840	0.6279	-1.9701	-0.2706	-0.7325	-0.3024	-1.6838
6304.0421	-0.1774	-0.1928	-0.0501	0.3855	-0.0263	-0.5569	0.7378	-0.3785	0.0686	1.2739	0.7905	-1.8003	0.0345	-0.5460	-0.5533	-2.4986
6312.0421	-0.1269	-0.2229	-0.0343	-0.1191	-0.0944	-1.0663	-0.0474	-0.4633	-0.0152	-4.6842	0.6130	-1.7905	-0.1216	-0.6576	-0.3556	-1.6638
6320.0422	0.0076	-0.2719	-0.0480	0.3227	-0.0147	-1.1310	1.0555	-0.3306	-0.0849	-8.7431	0.5502	-1.4175	-0.2545	-0.6747	-0.3220	-2.5109
6328.0422	-0.3855	-0.2091	-0.0525	1.9743	-0.0957	-0.5514	0.9301	-0.2145	-0.0116	-2.3695	0.6426	-1.1490	-0.1917	-0.5131	-0.5553	-3.3810
6336.0423	-0.5353	-0.2266	-0.0070	2.3466	-0.2159	-1.5322	-1.2569	-0.4525	-0.1312	-11.9289	0.3329	-1.3467	-0.4601	-0.7152	-0.2133	-1.2468
6344.0424	-0.0804	-0.2069	0.0010	1.5444	-0.1441	-1.5216	-2.0012	-0.3092	-0.2194	-15.1295	0.0475	-0.5662	-0.4793	-0.6233	0.0209	-1.1288
6352.0424	-0.2752	-0.1280	-0.0042	1.9836	-0.1658	-0.7380	-0.2899	0.0885	-0.2237	-13.0566	-0.2270	0.6497	-0.5551	-0.2380	0.0661	-1.4568
6360.0425	-0.4221	-0.1697	-0.0067	2.6327	-0.1729	-0.9501	0.0325	0.1407	-0.2956	-17.5534	-0.3153	0.8902	-0.7592	-0.2937	0.0934	-1.8615
6368.0425	-0.1315	-0.1581	-0.0134	2.7167	-0.0153	-0.7899	-0.1130	0.1349	-0.2563	-14.6002	-0.1930	0.7679	-0.5809	-0.2863	0.0342	-2.2724
6376.0426	-0.1521	-0.0277	-0.0025	3.6986	-0.0073	-0.0459	0.4029	0.2742	-0.1351	-6.5999	-0.2187	1.0430	-0.3273	0.0346	0.0181	-1.5833
6384.0426	-0.2267	0.0300	-0.0019	4.0169	-0.0826	0.3824	-0.2448	0.3668	-0.0974	-2.0859	-0.2272	1.3931	-0.2356	0.1756	-0.0690	-1.9909
6392.0427	-0.2503	0.0509	0.0241	3.5081	-0.0584	0.0701	-0.9680	0.3643	-0.1747	-7.2335	-0.5470	1.7277	-0.3875	0.2064	0.2124	-0.5495
6400.0427	-0.1307	0.0760	0.0390	3.4774	-0.0078	0.0081	-0.9065	0.4798	-0.2434	-11.1897	-0.8417	2.3100	-0.4928	0.3101	0.4521	0.2196
6408.0428	-0.2250	0.0016	0.0258	3.7368	-0.0775	-0.2827	-0.8439	0.4049	-0.2759	-13.6404	-0.7061	2.0219	-0.6027	0.1280	0.3379	-0.6659
6416.0428	-0.2175	-0.0432	0.0395	4.0655	-0.1365	-0.8883	-0.9273	0.2250	-0.3110	-18.7077	-0.7177	1.4966	-0.7021	-0.0542	0.4656	0.3130
6424.0429	0.2487	0.0365	0.0184	3.8917	0.0815	0.0803	0.9026	0.5308	-0.2210	-11.0630	-0.6817	2.1189	-0.3905	0.2830	0.4084	-0.4994
6432.0429	-0.1143	0.0399	-0.0020	4.7821	0.1434	0.5134	2.7626	0.6381	-0.1496	-7.0949	-0.5094	2.0666	-0.3833	0.3790	0.1824	-1.3489
6440.0430	-0.3616	-0.0115	0.0153	5.8071	-0.0116	-0.2017	1.6675	0.3809	-0.1851	-11.7806	-0.4589	1.3929	-0.5345	0.1193	0.2091	-0.6620
6448.0430	0.0818	0.0655	0.0126	5.4725	0.0853	0.3492	1.6627	0.4297	-0.0797	-4.2542	-0.3470	1.3757	-0.1702	0.2884	0.1708	-0.6108
6456.0431	-0.0811	0.1422	0.0153	6.0048	0.1255	0.8573	1.7950	0.5066	0.0035	1.6590	-0.3148	1.5078	-0.0288	0.4746	0.0816	-0.4872
6464.0432	-0.1051	0.1070	0.0240	5.9660	0.0490	0.4602	0.7243	0.4618	-0.0837	-3.2854	-0.4438	1.6552	-0.1983	0.3607	0.1762	-0.4475
6472.0432	-0.1227	0.1090	0.0299	5.8925	0.0526	0.3451	1.0247	0.3896	-0.0619	-3.4975	-0.4227	1.3565	-0.1757	0.3380	0.2181	0.2302
6480.0433	-0.3436	0.1303	0.0460	6.3693	-0.0548	0.1846	-0.5470	0.2536	-0.0473	-2.5805	-0.4041	1.1021	-0.1746	0.2763	0.1892	0.7031
6488.0433	-0.0400	0.1096	0.0570	5.0358	-0.0997	-0.1686	-1.4790	0.2327	-0.1377	-7.6253	-0.6166	1.3592	-0.2584	0.2176	0.4164	1.2804
6496.0434	0.0042	0.1205	0.0472	4.9238	-0.0293	0.1165	0.4058	0.3749	-0.1164	-6.9673	-0.6476	1.5717	-0.2435	0.3515	0.4424	1.3004
6504.0434	-0.2084	0.0541	0.0317	5.4088	-0.0070	-0.0353	0.7002	0.4264	-0.1829	-10.3783	-0.6253	1.7482	-0.4492	0.2503	0.3408	0.0782
6512.0435	-0.2780	0.0198	0.0480	4.8802	0.0563	-0.5881	0.4331	0.3341	-0.2634	-17.0251	-0.8089	1.6657	-0.6443	0.1407	0.5512	1.2032
6520.0435	-0.0890	0.1257	0.0593	4.8157	0.1536	-0.0308	0.4292	0.4887	-0.2096	-12.2866	-0.9535	2.1808	-0.4532	0.4192	0.6476	1.8669
6528.0436	0.2457	0.0472	0.0416	3.7008	0.2146	-0.2279	1.7715	0.6417	-0.3270	-19.1327	-1.1110	2.6946	-0.6371	0.3789	0.7933	1.1646
6536.0436	0.0742	-0.0419	0.0280	3.8776	0.2027	-0.6381	3.3189	0.4985	-0.3207	-22.1602	-0.9042	1.9274	-0.7413	0.1714	0.7078	1.0677
6544.0437	0.0705	0.0313	0.0310	4.7802	0.1621	-0.2276	1.9996	0.3853	-0.1794	-12.6099	-0.6214	1.4378	-0.4062	0.2169	0.4742	0.8546
6552.0437	0.2310	-0.0050	0.0539	4.3304	0.1527	-0.9497	1.6102	0.2096	-0.2490	-19.7569	-0.7762	1.0753	-0.5246	0.0541	0.7545	2.4837
6560.0438	0.1582	0.0928	0.0652	5.2711	0.1805	-0.4819	1.3015	0.2049	-0.1303	-12.3631	-0.6892	0.9335	-0.2783	0.2239	0.6754	3.0603
6568.0438	0.4768	0.2550	0.0661	4.8605	0.2415	0.6520	0.2971	0.3974	0.0123	0.7229	-0.6601	1.5178	0.1833	0.6116	0.5660	2.7905
6576.0439	0.5781	0.1693	0.0656	3.6541	0.2417	0.0460	1.3300	0.3266	-0.0777	-7.3565	-0.7697	1.3147	-0.0269	0.4485	0.7626	3.4673
6584.0440	0.3248	0.1751	0.0600	4.6424	0.2297	0.2014	1.1468	0.3287	-0.0454	-4.7863	-0.6513	1.2474	-0.0218	0.4477	0.5936	2.7892
6592.0440	0.2064	0.2304	0.0824	4.7558	0.1854	0.1832	0.0388	0.2866	-0.0377	-4.1992	-0.7831	1.3219	-0.0098	0.5114	0.6939	3.8446
6600.0441	0.0876	0.2051	0.1083	4.2560	0.0442	-0.5118	-1.6566	0.0279	-0.0838	-8.8437	-0.8608	0.8084	-0.1243	0.3085	0.8443	5.2482
6608.0441	0.1913	0.2467	0.1240	3.4231	0.0232	-0.5360	-3.9838	-0.0637	-0.0818	-6.8557	-0.9138	0.8395	-0.0219	0.3030	0.8827	5.6684
6616.0442	0.2786	0.1574	0.1238	2.0832	0.0603	-1.1802	-3.1834	-0.1522	-0.1764	-15.0804	-1.0194	0.6098	-0.2382	0.1208	1.0738	6.3261
6624.0442	0.3563	0.0554	0.0988	1.3154	0.0741	-1.4438	-1.5448	-0.1499	-0.2241	-19.3070	-0.9182	0.4044	-0.3714	-0.0308	1.0321	5.4797
6632.0443	0.5081	0.0784	0.0808	0.0244	0.1500	-0.9295	-0.0816	0.0104	-0.1779	-15.5541	-0.8963	0.6821	-0.2508	0.1418	0.9919	5.1038
6640.0443	0.2471	0.0795	0.0623	0.1326	0.0934	-0.5730	0.9548	0.0204	-0.0902	-10.3783	-0.6612	0.3833	-0.1665	0.1779	0.7498	4.3830
6648.0444	0.1217	0.1521	0.0793	0.8492	0.0175	-0.3960	-1.0678	-0.0819	-0.0203	-4.8759	-0.5900	0.2061	0.0022	0.2170	0.6584	4.7134
6656.0444	0.3555	0.1287	0.1026	-0.6449	0.0706	-1.0477	-2.1705	-0.2717	-0.0856	-10.6527	-0.7563	-0.1061	-0.0578	0.0701	0.9409	6.3793
6664.0445	0.3218	0.0018	0.0792	-1.5385	0.0158	-1.5494	-1.5905	-0.4280	-0.1241	-14.5684	-0.5294	-0.7564	-0.1870	-0.2264	0.8115	5.4447
6672.0445	0.1866	-0.0019	0.0735	-1.9135	-0.0481	-1.4714	-1.6985	-0.4653	-0.0943	-12.5185	-0.4330	-0.9323	-0.1608	-0.2445	0.7082	5.1992
6680.0446	0.1171	-0.0800	0.0585	-2.5545	-0.0268	-1.7625	-1.4310	-0.5401	-0.1291	-15.1968	-0.3199	-1.2294	-0.2693	-0.4166	0.6262	4.5286
6688.0447	0.0891	-0.0887	0.0536	-1.9446	-0.0931	-1.7602	-2.6419	-0.6308	-0.1017	-12.4621	-0.1356	-1.4964	-0.1894	-0.5136	0.4498	3.6891
6696.0447	0.3618	0.0213	0.0682	-2.9999	-0.0982	-1.2920	-3.8774	-0.6618	0.0057	-4.5529	-0.1209	-1.5459	0.1601	-0.3309	0.4777	4.6519
6704.0448	0.5230	-0.0863	0.0255	-4.6981	0.0059	-1.2699	-1.7638	-0.5909	-0.0171	-6.0442	0.0710	-1.6639	0.1051	-0.4374	0.3307	3.0310
6712.0448	0.2058	-0.1244	0.0038	-3.6055	-0.0352	-1.0784	-0.0865	-0.4507	-0.0244	-6.4587	0.1475	-1.4598	-0.0412	-0.4144	0.1639	1.7689
6720.0449	0.0748	-0.0181	-0.0005	-3.7159	-0.0786	-0.2301	-0.4600	-0.3554	0.1111	4.3345	0.2738	-1.2967	0.2423	-0.1625	-0.0451	1.4218
6728.0449	0.1942	-0.0628	-0.0242	-5.0017	0.0182	-0.1023	0.3709	-0.2710	0.0917	4.2036	0.3332	-1.1432	0.2256	-0.1737	-0.1198	0.3985
6736.0450	0.0885	-0.0688	-0.0279	-4.4122	-0.0124	-0.0342	1.1257	-0.1653	0.0646	2.6487	0.2594	-0.8345	0.1215	-0.1232	-0.1089	0.1143
6744.0450	0.0068	0.0242	-0.0335	-4.7463	-0.0911	0.6990	-0.4441	-0.2090	0.2245	15.3211	0.5427	-1.0730	0.4961	0.0105	-0.4220	-0.5341
6752.0451	0.0854	0.0560	-0.0138	-5.3931	-0.0314	0.5179	-1.8283	-0.3343	0.2307	15.4640	0.4766	-1.2694	0.5659	-0.0124	-0.3085	0.5696
6760.0451	0.1744	0.0256	-0.0087	-5.5478	-0.0409	0.2187	-1.7832	-0.3271	0.1594	10.6031	0.3383	-1.1101	0.4332	-0.0675	-0.1673	0.8450
6768.0452	0.2230	-0.0256	-0.0348	-6.6480	-0.1114	0.3362	-1.3586	-0.3188	0.1705	12.2926	0.5217	-1.2360	0.4611	-0.1373	-0.3453	-0.4326
6776.0452	0.2762	-0.0354	-0.0363	-6.1279	-0.0635	0.3168	-0.2598	-0.2272	0.1406	9.7012	0.4327	-1.0122	0.3839	-0.0966	-0.2622	-0.3703
6784.0453	0.3135	0.0411	-0.0457	-4.8379	0.0532	1.0444	0.6301	-0.0671	0.2460	17.3068	0.5546	-0.7957	0.6159	0.1304	-0.4205	-0.9976
6792.0453	0.2440	0.1327	-0.0408	-4.7066	0.1513	1.5686	0.6701	-0.0930	0.3886	25.9118	0.7050	-1.1031	0.9067	0.2975	-0.5347	-0.4019
6800.0454	0.2853	0.0657	-0.0371	-4.8876	0.1529	1.0564	1.2178	-0.0585	0.2602	16.9783	0.4797	-0.8174	0.6227	0.1967	-0.3238	-0.1340
6808.0455	0.2498	-0.0266	-0.0497	-5.5891	0.0782	0.6745	1.9044	-0.0119	0.1456	9.8173	0.3772	-0.5806	0.3448	0.0659	-0.2618	-0.7697
6816.0455	0.0802	0.0044	-0.0460	-4.7712	0.1244	0.8005	2.3701	-0.0817	0.2295	13.3864	0.5159	-1.0211	0.4555	0.0947	-0.3462	-0.3035
6824.0456	0.0762	-0.0278	-0.0556	-2.5763	0.2415	0.7016	2.7858	-0.1656	0.2713	14.5136	0.7845	-1.5547	0.5216	-0.0342	-0.5257	-1.1288
6832.0456	-0.0956	-0.0239	-0.0364	-2.0108	0.1499	0.3266	1.4289	-0.4063	0.3010	14.6243	0.8740	-2.2263	0.5485	-0.1785	-0.5331	-0.2067
6840.0457	-0.1463	0.0372	-0.0115	-2.4518	-0.0412	0.3036	-0.3800	-0.4818	0.3100	15.9693	0.7397	-2.1592	0.5973	-0.1274	-0.4291	0.8878
6848.0457	0.0671	0.0539	-0.0108	-2.2178	-0.0819	0.4586	-0.3287	-0.3001	0.2505	14.0996	0.5401	-1.4252	0.5442	-0.0134	-0.3151	0.5438
6856.0458	-0.0482	0.1747	0.0117	-1.1361	-0.0363	0.9383	-0.5143	-0.1585	0.2990	17.9144	0.3400	-0.8923	0.6377	0.2736	-0.2135	1.5650
6864.0458	-0.1681	0.1950	0.0206	-0.3544	-0.0013	0.9593	-1.1798	-0.0645	0.2461	16.0830	0.1683	-0.3710	0.5221	0.3341	-0.1563	1.4508
6872.0459	-0.1539	0.0917	0.0331	-0.2400	-0.0400	0.0258	-1.2021	-0.0949	0.0487	2.2835	-0.1477	-0.1074	0.0881	0.1137	0.1506	1.9663
6880.0459	-0.1575	0.0317	0.0311	-0.4954	-0.0821	-0.3184	-0.9165	-0.0228	-0.0704	-4.8683	-0.3411	0.3089	-0.1751	0.0414	0.2829	1.7154
6888.0460	-0.2134	-0.0715	-0.0050	-0.1488	-0.0270	-0.3177	0.6599	0.1852	-0.1721	-9.6323	-0.3230	0.8553	-0.4349	-0.0283	0.1519	-0.5733
6896.0460	-0.4984	0.0125	-0.0048	1.8391	-0.0844	0.3129	1.0937	0.3034	-0.0703	-2.5832	-0.2330	1.0288	-0.3000	0.1810	-0.0262	-0.9251
6904.0461	-0.4581	0.1411	0.0121	2.2954	-0.2068	0.9098	-1.2631	0.3197	0.0262	6.6117	-0.2177	1.2794	-0.0028	0.3806	-0.1186	-0.8016
6912.0461	-0.1915	0.0902	0.0229	1.5871	-0.1482	0.3337	-2.0280	0.2638	-0.0904	-0.9113	-0.4132	1.4078	-0.1609	0.2397	0.1150	-0.3077
6920.0462	-0.3178	0.1688	0.0108	2.5178	-0.1130	1.1446	-1.3548	0.4332	0.0191	7.6519	-0.2852	1.6864	0.0414	0.4805	-0.1007	-1.1372
6928.0463	-0.2914	0.1412	-0.0057	1.7135	-0.1650	1.2597	-1.7513	0.4558	0.0117	9.0533	-0.1922	1.7723	0.0518	0.4407	-0.2337	-2.2472
6936.0463	-0.1286	-0.0540	-0.0088	0.6673	-0.0955	-0.0934	-0.7638	0.2868	-0.2008	-8.0081	-0.3444	1.3903	-0.4163	0.0092	0.0590	-1.8450
6944.0464	-0.4311	0.0163	-0.0340	2.5001	-0.0252	0.9278	0.4822	0.5416	-0.0807	1.9202	-0.1355	1.8100	-0.2478	0.2784	-0.3028	-3.6517
6952.0464	-0.4589	0.0958	-0.0244	2.9016	-0.0481	1.3057	-0.6840	0.5433	-0.0085	7.8899	-0.0994	1.8730	-0.0603	0.4033	-0.3755	-3.4975
6960.0465	-0.0565	-0.0702	-0.0319	1.9390	-0.0631	0.1781	-0.6143	0.2544	-0.1181	-2.3345	0.0225	0.9732	-0.2232	-0.0559	-0.2538	-3.4634
6968.0465	-0.2113	-0.2296	-0.0816	1.9826	-0.1003	-0.0405	0.7718	0.2092	-0.1444	-4.1849	0.4245	0.4626	-0.3714	-0.3552	-0.6253	-6.1999
6976.0466	-0.2657	-0.3539	-0.0846	0.5939	-0.0547	-0.8842	1.0595	0.0596	-0.2663	-13.9294	0.3595	0.1081	-0.6747	-0.6432	-0.4903	-5.8981
6984.0466	-0.0564	-0.5014	-0.1103	-0.1762	0.0657	-1.4764	2.8394	0.0279	-0.3685	-22.3262	0.4288	-0.1654	-0.8949	-0.9015	-0.4539	-6.7458
6992.0467	-0.4037	-0.4791	-0.1205	1.9077	-0.0063	-1.1114	3.3235	0.0573	-0.2846	-17.0634	0.6532	-0.3383	-0.8282	-0.8552	-0.7257	-7.7012
7000.0467	-0.3125	-0.3416	-0.0836	2.0974	-0.0444	-0.8533	1.2263	-0.0337	-0.1934	-10.8954	0.5591	-0.4012	-0.5494	-0.6825	-0.6091	-5.9042
7008.0468	-0.1038	-0.2884	-0.0858	1.1125	0.0466	-0.4521	1.2882	0.0249	-0.1345	-6.2367	0.5727	-0.2855	-0.3514	-0.5387	-0.6107	-5.7241
7016.0468	-0.3348	-0.2238	-0.0663	1.1479	-0.0301	-0.3476	0.6198	-0.0230	-0.0891	-3.7642	0.5018	-0.3471	-0.3049	-0.4450	-0.5665	-4.5977
7024.0469	-0.0370	-0.2440	-0.0386	-0.2352	-0.0455	-1.0339	-0.3851	-0.1587	-0.1871	-11.4170	0.2223	-0.4047	-0.4196	-0.5599	-0.1947	-2.7678
7032.0469	-0.1066	-0.3538	-0.0413	0.2088	-0.0121	-1.7614	0.7868	-0.2266	-0.2969	-21.1246	0.1594	-0.6359	-0.7273	-0.7873	-0.0699	-2.6434
7040.0470	-0.3126	-0.3092	-0.0293	0.7160	-0.1469	-1.6452	-0.2289	-0.2374	-0.2773	-19.0378	0.1180	-0.5299	-0.7162	-0.7301	-0.0962	-2.3945
7048.0471	0.0209	-0.2618	-0.0189	-1.6818	-0.1437	-1.5098	-1.3139	-0.2111	-0.2883	-17.9067	-0.0651	-0.1868	-0.6019	-0.6203	0.0801	-1.5707
7056.0471	-0.1954	-0.2494	-0.0119	-0.7227	-0.0862	-1.5662	-1.1516	-0.2784	-0.2531	-17.1829	-0.0058	-0.4931	-0.5999	-0.6351	0.0449	-1.1301
7064.0472	-0.1597	-0.2175	-0.0012	0.1064	-0.1520	-1.5348	-1.5047	-0.2820	-0.2394	-16.4796	-0.0408	-0.4583	-0.5551	-0.5954	0.0844	-0.7702
7072.0472	0.1165	-0.3136	0.0021	-2.0590	-0.1462	-2.2937	-0.1693	-0.3608	-0.3569	-26.9810	-0.2465	-0.6428	-0.7867	-0.7655	0.4214	0.5215
7080.0473	-0.1896	-0.3882	-0.0099	-1.7190	-0.1078	-2.6166	1.1738	-0.4718	-0.3517	-29.4643	-0.0723	-1.2634	-0.9178	-0.9335	0.3147	0.3563
7088.0473	-0.1806	-0.2825	-0.0140	-0.9112	-0.0599	-1.7509	1.9079	-0.2471	-0.2538	-21.4939	-0.0694	-0.7390	-0.6992	-0.6128	0.2179	0.0263
7096.0474	-0.0660	-0.0902	-0.0013	-0.2796	0.0344	-0.6023	2.0402	-0.0277	-0.0888	-9.1560	-0.1201	-0.1923	-0.2848	-0.1385	0.1935	0.7437
7104.0474	-0.0820	-0.0128	-0.0036	0.3749	0.0990	-0.0477	0.9822	-0.0509	0.0371	0.3817	0.1089	-0.3864	0.0216	-0.0320	-0.0411	0.2228
7112.0475	-0.0395	-0.0568	0.0041	-0.4179	0.0752	-0.5235	0.6813	-0.1696	-0.0161	-4.2835	0.0449	-0.6366	-0.0869	-0.1718	0.0858	0.8969
7120.0475	-0.0716	-0.0332	0.0101	-0.7443	0.0036	-0.4682	-0.0415	-0.1983	-0.0012	-2.7711	0.0313	-0.6361	-0.0448	-0.1496	0.0837	1.1282
7128.0476	0.1154	-0.0207	-0.0046	-0.9263	0.0670	-0.0735	0.5654	0.0009	-0.0133	-1.3675	-0.0179	-0.0442	-0.0108	-0.0164	0.0561	0.1728
7136.0476	0.1293	-0.0268	-0.0101	-0.1277	0.1373	0.0062	1.7981	0.1002	-0.0221	-2.5411	-0.0457	0.1313	-0.0555	0.0349	0.0746	-0.0255
7144.0477	-0.0338	-0.0310	-0.0005	0.3266	0.0292	-0.2598	-0.4758	-0.1592	0.0194	0.0524	0.1655	-0.5627	0.0307	-0.1535	-0.0818	-0.0580
7152.0477	-0.0307	-0.1093	0.0299	-1.0623	-0.0400	-1.4083	-1.7478	-0.4157	-0.1286	-11.9447	-0.1108	-0.9178	-0.2824	-0.4399	0.2878	1.9115
7160.0478	-0.0983	-0.0918	0.0369	-0.6784	-0.0571	-1.3796	-1.5559	-0.3402	-0.1548	-13.4441	-0.2489	-0.6001	-0.3587	-0.3689	0.3708	2.1998
7168.0479	-0.0256	0.0062	0.0346	-0.2431	-0.1362	-0.6346	-2.4660	-0.2446	-0.0479	-3.9015	-0.1400	-0.3412	-0.0658	-0.1582	0.1943	1.5740
7176.0479	0.1216	0.0861	0.0493	-0.8595	-0.1519	-0.3518	-2.5544	-0.2343	0.0173	-0.0821	-0.2135	-0.3142	0.1200	0.0077	0.3012	2.7766
7184.0480	0.1429	0.1225	0.0326	-0.7756	-0.0798	0.2074	-2.3449	-0.1654	0.1077	7.1117	-0.0129	-0.3199	0.3299	0.1156	0.0796	1.7881
7192.0480	0.1741	0.1076	0.0299	-0.6680	-0.0111	0.1512	-1.5013	-0.1412	0.0980	5.5556	-0.0289	-0.3358	0.2938	0.1145	0.1203	1.9034
7200.0481	0.1752	0.1794	0.0347	-0.0460	-0.0124	0.6043	-1.3024	0.0017	0.1362	9.0857	-0.1116	0.1011	0.3855	0.3197	0.1298	2.0062
7208.0481	0.1467	0.1844	0.0239	-0.1986	-0.0489	0.8643	-1.9224	0.0830	0.1324	11.3766	-0.0802	0.4283	0.4017	0.3584	0.0064	0.9324
7216.0482	0.1287	0.1882	0.0239	-0.4838	-0.0066	0.9041	-0.7439	0.1317	0.1367	10.4527	-0.1418	0.4678	0.3732	0.4208	0.0822	1.4483
7224.0482	0.0795	0.3376	0.0107	0.1038	0.0064	2.2386	-0.4947	0.3627	0.3252	25.6599	0.0410	0.8950	0.7921	0.8248	-0.2197	0.4925
7232.0483	-0.1556	0.2386	0.0238	-0.2208	-0.1089	1.2816	-1.4599	0.1399	0.2048	16.1228	-0.0518	0.4819	0.4646	0.5111	-0.0877	1.1354
7240.0483	-0.2216	0.0588	0.0343	-0.3012	-0.1551	-0.2126	-1.7562	-0.1224	-0.0047	-0.6686	-0.1962	-0.0411	-0.0363	0.0264	0.1685	1.7523
7248.0484	-0.0153	0.1184	0.0248	-0.2498	-0.1213	0.3998	-2.0882	0.0326	0.0448	5.3618	-0.1579	0.4207	0.1624	0.2055	0.0608	0.8378
7256.0484	-0.1308	0.1865	0.0387	0.0197	-0.1253	0.6308	-1.9530	0.0436	0.1040	8.3900	-0.2098	0.4142	0.2532	0.3460	0.1066	1.8266
7264.0485	-0.0474	0.1952	0.0198	0.1878	-0.0455	1.0391	-1.2428	0.1333	0.1575	12.7353	-0.0545	0.4683	0.3851	0.4182	-0.0573	0.8029
7272.0485	0.2610	0.0912	0.0003	-0.9794	0.0533	0.6610	0.4022	0.1808	0.0609	5.5991	-0.1002	0.5256	0.2178	0.2846	0.0570	0.3079
7280.0486	-0.1046	0.0121	-0.0017	-0.1402	0.0132	0.1356	0.7981	0.0490	0.0179	0.6414	-0.0216	0.0559	-0.0105	0.0704	0.0044	0.2156
7288.0487	-0.2365	0.1144	0.0029	0.5435	-0.0036	0.7627	-1.1199	0.0479	0.1333	10.7786	0.1312	0.0992	0.2690	0.2198	-0.2280	-0.2840
7296.0487	0.3048	0.1019	0.0169	-1.1675	0.0654	0.3646	-0.9671	-0.0291	0.0883	6.1610	-0.0365	-0.0348	0.3105	0.1739	0.0940	1.2396
7304.0488	0.2390	0.0064	-0.0140	-0.4986	0.0487	0.2415	0.2129	-0.0807	0.0992	5.8837	0.2833	-0.5375	0.2709	-0.0196	-0.1636	-0.4194
