Time	Fz	Fpz	C3	C4	T5	T4	O1	O2	F7	F8	F3	F4	T3	T6	P3	P4
0.0000	6.0101	0.8885	0.6796	66.0524	-23.7242	-4.4200	-0.7693	-1.6256	0.4808	-27.2372	-1.7178	-3.4774	2.3922	-3.8818	9.7994	20.3172
8.0001	-3.9324	-1.0417	-0.1815	-89.7350	-21.9031	-2.5816	-1.3374	-0.9758	-0.5728	-26.6304	-1.6846	-0.1126	-4.9958	5.4421	-8.3125	16.4463
16.0003	-1.9920	-0.9681	-0.1978	-90.5496	-16.4287	-2.4723	-1.3088	-1.0174	-0.5807	-24.1134	-1.5094	-0.4322	-4.0588	3.5349	-7.5971	16.1473
24.0004	-3.5097	-1.0675	-0.2298	-79.1544	-21.2344	-2.1815	-1.5505	-0.8314	-0.5525	-19.9577	-0.9460	-0.0142	-4.9489	4.0605	-10.2630	11.4203
32.0006	-4.1582	-0.6810	-0.0655	-54.5454	-20.5858	-2.1422	-1.0539	-0.7866	-0.3562	-20.4605	-1.3213	-0.0987	-4.2050	3.9335	-6.6982	13.3290
40.0007	-2.9566	-0.7368	-0.1142	-54.6963	-21.6195	-1.6644	-1.2174	-0.6934	-0.2955	-13.2578	-0.8671	-0.1035	-3.8623	4.1971	-7.4777	10.3868
48.0008	-1.9774	-0.7799	-0.1020	-48.6089	-22.8377	-2.2504	-1.4474	-0.8400	-0.3187	-16.9053	-0.6481	-0.5815	-3.7382	3.4360	-7.6414	9.6569
56.0010	-2.0064	-0.3873	-0.0252	-21.8284	-17.0478	-1.4416	-0.8247	-0.4218	-0.1726	-10.0050	-0.4535	0.0608	-3.1707	2.5562	-7.9211	8.7576
64.0011	-1.6823	-0.2173	0.0114	-9.0268	-18.7084	-0.6337	-0.6411	-0.1380	-0.0086	-1.8103	-0.3122	0.5915	-2.7529	3.5026	-7.5655	7.0282
72.0012	-1.3965	-0.0561	0.0716	1.4413	-11.1169	-1.1247	-0.0147	-0.2187	0.0477	-6.9708	-0.2976	-0.3774	-1.9839	3.6706	-5.4540	8.5246
80.0014	-2.3954	0.0888	0.0431	12.5311	0.5711	-0.7098	0.6968	0.0626	0.0395	-4.4859	0.1647	-0.4085	-1.8886	2.8193	-6.9839	6.6975
88.0015	-3.2053	0.2883	0.1156	21.6529	4.0876	-0.5667	1.1922	0.1804	0.1016	-6.5437	-0.1763	-0.2603	-1.4459	3.2039	-4.3137	7.5452
96.0017	-3.3230	0.4210	0.1587	26.8361	7.9677	-0.5417	1.6251	0.1935	0.1767	-7.1692	-0.2821	-0.6176	-0.9007	3.7293	-2.3921	8.4492
104.0018	-4.2623	0.3579	0.1152	21.3458	9.5229	-0.2940	1.5805	0.1628	0.1607	-4.2156	-0.1331	-0.7174	-1.0567	3.1236	-2.6274	7.0674
112.0019	-2.8194	0.3912	0.1818	27.5538	5.6213	-0.7707	1.5316	0.1622	0.1753	-10.6761	-0.4420	-0.6171	-0.6533	4.3747	-0.6476	7.9574
120.0021	0.8241	0.2163	0.1732	32.0183	-3.7772	-1.5921	0.5732	-0.0166	0.1063	-13.9860	-0.0730	-0.7113	-0.5758	3.3554	-2.6173	6.4556
128.0022	-0.1396	0.1712	0.1474	31.6418	-5.6930	-1.4883	0.0440	-0.2168	0.0854	-9.1023	0.1918	-0.8540	-0.9030	0.2462	-3.5737	4.6052
136.0023	-3.1877	0.4535	0.2018	39.3416	4.4352	-0.7035	1.2673	0.0894	0.2237	-6.9014	-0.1138	-0.7785	-0.5941	2.2002	-0.8216	5.6063
144.0025	-3.3236	0.4957	0.2164	38.9341	10.5557	-0.9157	1.8070	0.0786	0.2388	-11.2696	-0.2173	-1.3604	-0.0624	3.3636	1.4085	6.2918
152.0026	-2.7099	0.2984	0.2385	37.8661	-3.9532	-1.5521	0.6902	-0.3101	0.2480	-12.2151	-0.2007	-1.5940	-0.5091	2.5038	1.4134	5.3071
160.0028	-3.6687	0.0104	0.2387	23.3402	-19.0535	-2.0523	-0.3139	-0.6780	0.2074	-15.3904	-0.6042	-1.5018	-1.4161	3.1030	2.2638	5.4686
168.0029	-4.2257	-0.0148	0.1814	9.3857	-6.7337	-2.0020	0.2694	-0.6548	0.0822	-19.9168	-0.7860	-1.8132	-0.8747	2.7150	4.5524	5.5319
176.0030	-1.2394	0.1649	0.1881	24.9596	-4.0798	-1.4941	0.4125	-0.3382	0.1647	-13.2035	-0.3030	-1.4307	-0.0144	2.2688	2.9678	3.8765
184.0032	0.6063	0.2575	0.2251	30.7933	-16.6458	-0.7932	-0.4767	-0.4558	0.3716	2.1402	-0.0919	-1.1249	0.2842	0.6279	1.8734	3.4752
192.0033	0.9792	0.3400	0.1869	26.3445	-18.3045	0.4400	-0.7494	-0.4244	0.5243	19.4122	0.2125	-0.9201	0.6937	-0.9144	1.0768	2.1314
200.0035	3.4378	0.2213	0.1552	25.8852	-15.8935	-0.4023	-0.8843	-0.5282	0.4019	12.0501	0.4965	-1.4555	0.9768	-1.3551	-0.0083	1.9756
208.0036	3.5278	0.1580	0.1033	22.5493	1.2011	-1.4327	-0.1021	-0.5915	0.1750	-2.6448	0.6676	-2.5393	1.3591	-2.0863	0.6487	2.2403
216.0037	2.8571	0.2595	0.0196	18.1585	13.9317	-0.3051	0.7291	-0.1587	0.1699	4.9906	0.9510	-2.0872	1.6176	-1.6557	-0.7281	0.9011
224.0039	1.8897	0.2516	0.0199	5.1815	14.0996	-0.1988	0.6155	-0.3190	0.1271	4.6572	0.4736	-2.0006	1.6283	-2.7195	1.1698	2.6674
232.0040	0.7283	0.2490	0.0304	4.1835	15.9394	-0.4082	0.6641	-0.4609	0.1084	2.2413	0.3799	-2.3682	1.5991	-3.4997	2.4571	2.7187
240.0041	2.4116	0.3523	0.0506	13.1456	15.7495	-0.2306	0.8165	-0.3398	0.2155	6.3027	0.6428	-2.4572	2.0395	-2.6209	1.4595	3.0075
248.0043	1.0493	0.6367	0.0532	16.2872	32.9599	0.5809	2.1864	-0.0079	0.2873	9.2182	0.5900	-2.6383	2.9055	-1.8514	3.4393	3.9109
256.0044	0.8133	0.7918	0.0254	19.0531	37.1188	1.9259	2.7074	0.4226	0.4204	21.1931	0.7953	-1.9369	3.2547	-0.5636	2.7753	2.3270
264.0046	3.1892	0.8150	0.0590	16.7541	25.1586	2.2563	1.7976	0.1979	0.5600	31.1542	0.7425	-1.8060	3.7559	-1.8906	3.1540	2.9781
272.0047	2.2639	0.8235	0.0134	20.0838	29.0747	2.7449	1.8843	0.3536	0.5428	35.7777	1.1073	-1.5684	3.6083	-3.0238	1.9564	0.0424
280.0048	3.5134	0.7155	-0.0108	21.4263	25.2528	2.4411	1.4525	0.4292	0.4251	32.3475	1.2117	-0.9840	3.1972	-3.5171	-0.1853	-1.0069
288.0050	3.9877	1.0070	0.0228	26.7528	33.2390	3.2591	2.0555	0.6265	0.5380	39.3032	1.1155	-0.8381	4.2264	-4.2718	1.5045	0.0186
296.0051	3.3619	1.1989	-0.0175	36.1312	38.6325	4.8936	2.7298	1.1762	0.7271	55.4983	1.6639	-0.1562	4.4366	-2.7303	-0.6698	-2.8023
304.0052	3.2403	1.0034	0.0114	22.1244	26.3906	4.0717	1.7750	0.6104	0.6983	51.4247	1.2074	-0.6694	3.9749	-3.5819	0.6616	-0.1923
312.0054	1.4073	0.9877	-0.0101	17.7467	27.9756	4.5124	2.0058	0.6878	0.7262	54.1387	1.1618	-0.5639	3.7395	-2.7621	1.2358	-1.0656
320.0055	4.6915	0.8286	-0.0558	15.7915	23.6986	4.1156	1.5250	0.8878	0.5513	48.4360	1.2473	0.3660	3.5492	-2.3441	-1.5912	-1.8533
328.0057	4.5264	0.7773	-0.0569	3.3787	26.9353	3.4248	1.2596	0.5227	0.3824	40.7216	0.8218	-0.0484	3.6655	-5.4245	0.2633	0.4158
336.0058	0.8046	0.5845	-0.1012	0.7187	15.7366	4.1414	0.9058	0.5637	0.5217	51.0226	1.1446	0.2363	2.1204	-2.9348	-2.2585	-2.6444
344.0059	2.1527	0.1983	-0.0111	-11.1678	-6.9055	1.7344	-0.7026	-0.2343	0.3300	29.4254	0.2325	-0.1764	1.1294	-2.9296	-0.3706	1.6124
352.0061	-0.3827	0.3873	0.0245	-5.3531	2.2279	2.0905	0.0890	-0.0363	0.3327	27.1549	-0.0709	0.0437	1.2676	-2.9682	2.0028	1.6764
360.0062	0.4680	0.3400	0.0176	-2.6456	-16.6319	3.4049	-0.6113	0.2585	0.5970	45.7196	0.2044	1.3000	0.5977	0.4090	-1.5867	-0.0348
368.0064	3.9230	0.4254	0.0876	-10.4722	-19.2825	2.5441	-1.2659	-0.2137	0.5138	39.9221	-0.4213	0.9355	1.5937	-3.3163	0.8312	5.1961
376.0065	1.5626	0.9647	0.0463	17.3561	5.6372	4.9340	0.6699	0.8236	0.6875	58.3884	0.4490	1.9289	2.2182	-3.5317	-2.0044	0.9223
384.0066	2.6130	0.9887	0.1056	16.1754	-9.9330	5.3645	-0.0224	0.7489	0.8697	66.9824	0.1424	2.5004	2.0972	-2.2223	-2.0603	2.8012
392.0068	2.4477	1.0900	0.1149	5.0148	-3.6418	5.6161	0.2259	0.6788	0.8306	66.1824	-0.3842	2.5182	2.8501	-3.6155	1.3981	4.6190
400.0069	0.8767	1.1729	0.0749	19.7927	-0.5721	6.7819	0.9203	1.3098	0.9564	75.6035	0.2257	3.3577	2.3260	-0.5482	-1.8409	0.6634
408.0070	0.8870	1.1937	0.1949	14.5911	-10.0804	5.7883	0.3576	0.6857	1.0165	69.0477	-0.5616	2.4900	2.5517	-1.4491	2.2205	5.7671
416.0072	-0.6847	1.4180	0.1604	20.2092	-0.8980	7.3459	1.1023	1.1495	1.1369	82.3959	-0.2701	3.1468	2.8575	-1.4712	1.6467	3.3984
424.0073	0.3053	1.2775	0.1870	17.0408	-17.6666	7.2853	0.2582	1.0402	1.2249	85.4691	-0.4364	3.6084	2.2926	0.4215	0.6452	4.0721
432.0075	-0.8112	1.3750	0.2295	10.1185	-10.6280	6.9479	0.6471	0.7840	1.1997	79.7203	-0.9627	2.8852	2.8978	-0.7294	4.7697	6.8220
440.0076	0.1337	1.6037	0.1846	30.4429	-1.0659	8.2876	1.5354	1.5297	1.3248	91.7563	-0.1092	3.6854	3.2993	0.7913	1.0515	2.9966
448.0077	3.3606	1.7478	0.3256	33.6699	-19.3521	8.0215	0.3809	1.0295	1.5434	98.3994	-0.6064	3.4797	4.0178	-0.8647	2.9048	7.8072
456.0079	0.5607	1.9181	0.2920	33.8019	-17.2414	9.7096	0.5196	1.2665	1.6831	116.5165	-0.4137	4.2400	3.7253	-2.5127	1.6633	5.8693
464.0080	0.8534	1.6062	0.2746	26.8489	-22.4788	8.1603	0.0105	1.0190	1.4346	99.2200	-0.6096	4.0614	2.7468	-1.9723	0.5595	6.7170
472.0081	1.2856	1.6558	0.3866	28.1193	-14.3024	6.1205	0.5528	0.5236	1.3066	75.1346	-1.3195	2.3691	3.5934	-2.1120	6.1845	11.9093
480.0083	-0.2417	1.6911	0.3306	46.1362	-5.8120	6.5370	1.4113	1.0768	1.3112	76.7922	-0.5004	2.6893	2.8494	0.1247	1.6363	8.2691
488.0084	0.4109	1.1572	0.4039	32.4227	-18.0369	2.2906	-0.0090	-0.0793	0.8079	34.2499	-1.4287	1.1011	1.4654	-2.2441	3.5152	13.9940
496.0086	-0.0181	0.9257	0.4405	37.5021	-16.7002	-0.0746	-0.1948	-0.4131	0.4694	5.7435	-1.7231	0.4381	0.7443	-3.1143	4.6362	14.4699
504.0087	2.8298	0.5149	0.4192	44.4671	-28.7979	-2.2149	-1.1931	-0.5697	0.1847	-14.1954	-1.3811	0.4740	-0.6215	-2.1180	-0.3836	13.6693
512.0088	1.3844	0.1206	0.4605	25.5480	-29.7027	-5.6385	-1.9364	-1.7686	-0.2048	-47.4196	-2.1090	-1.9382	-1.4239	-5.5231	3.1034	19.1091
520.0090	-2.2171	-0.0713	0.4155	23.3655	-31.9580	-5.6682	-1.9392	-1.7553	-0.2434	-48.9327	-1.9335	-1.9269	-2.7405	-4.1805	1.7530	16.5578
528.0091	0.9213	-0.3106	0.4690	7.7769	-43.2947	-7.4837	-2.9265	-2.2586	-0.4704	-68.0860	-2.8406	-2.0205	-2.7479	-4.4872	3.9865	21.3590
536.0092	0.5980	-0.1848	0.4030	3.9586	-26.6720	-6.8461	-2.0998	-1.9981	-0.5474	-65.9050	-2.6621	-2.0064	-2.0614	-5.8780	4.3616	20.3248
544.0094	-0.1417	-0.3306	0.3151	-3.5036	-38.3760	-5.4900	-2.7872	-1.7758	-0.4356	-47.8868	-2.2244	-0.8860	-3.1243	-4.9059	-0.2061	17.3301
552.0095	-2.1524	-0.4299	0.3473	-37.9733	-40.2833	-5.9490	-3.0964	-2.3962	-0.5358	-55.6842	-3.5918	-1.3723	-2.9164	-6.2083	6.4505	22.9046
560.0097	-5.0486	-0.4791	0.2060	-45.8688	-29.4526	-4.0453	-2.1249	-1.7640	-0.4522	-42.2367	-3.0414	-0.7500	-2.9239	-2.9989	6.2384	16.3820
568.0098	-1.6159	-1.0420	0.1701	-64.1301	-49.7020	-6.0259	-4.1525	-2.6515	-0.6235	-53.0108	-2.9485	-1.9151	-3.2826	-4.6770	6.3443	15.4873
576.0099	-2.3385	-1.0703	0.1159	-71.7777	-37.9846	-6.0980	-3.9752	-2.9602	-0.6712	-52.4942	-2.6449	-3.2436	-2.3343	-7.9246	9.5363	12.8670
584.0101	-1.6198	-1.0655	-0.0308	-63.7797	-34.2516	-3.5991	-3.3481	-2.0622	-0.4049	-27.0295	-1.3235	-2.2806	-1.8376	-3.6122	6.1108	3.4956
592.0102	1.6120	-1.3805	-0.0663	-80.3110	-34.6042	-5.2986	-3.9942	-2.5479	-0.6734	-44.4304	-1.5281	-3.2337	-1.2475	-4.9653	8.5165	4.0020
600.0104	-0.8359	-1.4349	-0.1955	-73.6139	-16.6779	-4.6905	-2.9494	-1.9127	-0.8534	-46.9944	-0.8181	-2.6623	-1.6397	-4.3964	6.4845	-2.9014
608.0105	0.4426	-1.6937	-0.2243	-79.9793	-27.9152	-4.8010	-3.5063	-1.8158	-0.8789	-49.5795	-0.8804	-2.0238	-1.9474	-1.3463	6.6157	-5.4373
616.0106	1.6366	-1.7211	-0.2525	-84.7642	-17.1670	-5.5219	-3.1672	-1.9142	-1.0480	-59.4543	-0.8868	-2.6749	-1.3206	-2.6771	7.8186	-4.7963
624.0108	1.6968	-1.5674	-0.3103	-59.3684	-8.6620	-4.6425	-2.3704	-1.1658	-1.0043	-51.4310	0.1774	-1.8328	-1.8528	-1.3285	1.0900	-8.6117
632.0109	2.3161	-1.5656	-0.2506	-61.9634	-11.1869	-5.2974	-2.5158	-1.3993	-1.0291	-58.9918	-0.3146	-2.1370	-1.4844	-1.3850	4.0417	-6.4285
640.0110	1.2646	-1.4860	-0.3854	-48.8107	7.4481	-3.6438	-1.2104	-0.4564	-1.0288	-50.0971	0.7140	-1.2480	-1.0454	0.5411	2.2518	-15.4807
648.0112	3.9314	-1.6833	-0.4371	-40.1632	0.5279	-3.7525	-1.6931	-0.1731	-1.0758	-50.8185	1.3134	-0.5897	-1.2102	2.2495	-0.4832	-20.4769
656.0113	1.1497	-1.8055	-0.4418	-55.7378	5.7614	-4.5603	-1.6659	-0.6394	-1.2261	-61.2664	0.8271	-1.5626	-1.3848	0.3344	3.2225	-19.1101
664.0115	-0.4245	-1.7303	-0.5039	-43.8578	12.7947	-3.5251	-0.8106	-0.0141	-1.1569	-53.5647	1.4823	-0.8762	-1.9734	3.0161	-0.8226	-22.2532
672.0116	5.1884	-1.5586	-0.3823	-40.1518	9.5411	-4.7053	-1.1216	-0.3405	-1.1543	-62.5967	0.9280	-1.4192	-0.4766	1.9129	1.5292	-15.7622
680.0117	1.4841	-1.3237	-0.5001	-35.4715	32.3293	-2.8316	0.2470	0.2358	-1.1111	-47.1924	1.7265	-1.1893	-0.4026	0.4019	-0.7961	-20.1166
688.0119	-1.2605	-1.3314	-0.5647	-31.1688	33.6042	-1.6131	0.7936	0.7649	-1.0174	-37.3856	2.1611	-0.3128	-1.3732	3.5169	-4.1024	-23.3712
696.0120	-0.3502	-0.9366	-0.3944	-27.4600	40.6798	-1.9928	1.6404	0.6094	-0.9066	-45.6732	1.0495	-0.8927	0.3454	3.8591	3.2067	-16.4825
704.0121	-1.8056	-0.6165	-0.4055	-0.7901	43.7251	0.1262	2.4672	1.4430	-0.6086	-23.7733	1.9041	0.3503	0.0805	6.1506	-1.3994	-20.6059
712.0123	3.6018	-0.7659	-0.3219	-7.4574	21.4162	-1.1915	0.7506	0.8080	-0.6051	-27.7400	1.4671	0.1208	0.3385	4.7928	-1.6274	-15.6653
720.0124	4.5693	-0.4974	-0.3323	-8.9306	37.5992	-0.8051	1.3090	0.7753	-0.6379	-23.9116	1.5105	-0.3708	1.6427	0.6300	-0.2670	-14.0108
728.0126	1.1359	-0.4554	-0.4329	6.9916	38.6149	0.9949	1.7336	1.5020	-0.5050	-4.8187	2.5936	0.9248	0.0236	2.3384	-7.9693	-19.7111
736.0127	3.0113	-0.6311	-0.3116	-8.7362	19.9328	-0.7876	0.5046	0.6916	-0.5590	-19.0424	1.4483	0.2896	-0.1067	2.1753	-4.3957	-12.4776
744.0128	0.9189	-0.4120	-0.2863	-0.7360	24.3332	0.0272	0.9653	0.8292	-0.4282	-10.4658	1.5226	0.3868	-0.1133	1.5036	-4.4827	-12.3666
752.0130	-1.5611	-0.2553	-0.2581	6.1277	22.3017	0.9460	1.1868	0.9872	-0.2595	-0.0520	1.5486	0.7972	-0.6157	2.0430	-5.4825	-12.2076
760.0131	0.3015	-0.1592	-0.2212	-6.4133	28.8192	0.5054	1.3873	0.7396	-0.3284	-6.9276	0.8823	0.2783	0.6698	0.6811	-1.0317	-8.1697
768.0133	1.2556	-0.1292	-0.2495	8.7581	29.5222	0.6941	1.3603	0.9742	-0.3104	-2.3261	1.6028	0.5046	0.4344	0.1946	-4.9774	-10.8517
776.0134	1.9276	0.1075	-0.1735	19.2826	28.0668	0.9583	1.4693	0.9326	-0.1336	4.1759	1.5811	0.2823	0.8981	-0.2351	-4.8922	-8.3043
784.0135	2.2940	0.3780	-0.1934	20.4648	38.3839	2.3396	2.3099	1.3382	0.0001	16.3407	1.7034	0.6943	1.7861	0.1846	-4.9191	-7.9635
792.0137	1.8819	0.0856	-0.1928	19.2856	25.5802	1.2392	1.4292	1.0430	-0.0993	8.0753	1.7300	0.5658	0.5134	0.6789	-6.9162	-8.3269
800.0138	2.1418	-0.1938	-0.1173	7.6617	10.4270	-0.6539	0.3157	0.2257	-0.1818	-6.8520	1.0758	-0.5568	0.0325	0.3035	-4.0112	-4.6559
808.0139	2.4533	-0.6486	-0.1757	-8.3310	-6.1660	-1.6795	-1.1740	-0.2564	-0.3425	-11.9603	1.1234	-0.6656	-1.3170	-0.5259	-6.4739	-5.5262
816.0141	0.0147	-1.2379	-0.2162	-34.3264	-19.9036	-3.8305	-2.6224	-1.0685	-0.7120	-33.2119	0.5433	-1.2290	-3.3106	-2.2477	-6.2374	-4.5295
824.0142	-2.3725	-1.1679	-0.2124	-42.9466	-11.7261	-3.4263	-1.8012	-0.9151	-0.7192	-36.3152	0.0153	-1.1055	-3.0944	-0.5024	-2.7385	-3.6484
832.0144	-1.0796	-1.2292	-0.2178	-38.6461	-18.4183	-3.2673	-2.1338	-0.7856	-0.6754	-33.5138	0.2109	-0.6551	-3.1711	0.6911	-3.8845	-5.4499
840.0145	-1.8614	-1.6035	-0.2320	-49.6588	-27.9547	-4.8519	-3.2344	-1.4196	-0.8793	-46.6302	0.0726	-1.4544	-4.1060	-1.2517	-3.2965	-5.9908
848.0146	-4.4843	-1.6930	-0.2440	-58.5503	-31.4696	-4.4315	-3.2181	-1.3910	-0.8495	-45.0391	-0.2271	-1.1160	-4.6702	0.4163	-1.8677	-6.8385
856.0148	-3.6973	-1.8290	-0.2077	-63.8375	-46.4270	-4.5629	-3.9709	-1.5122	-0.7941	-45.1547	-0.6107	-0.6354	-4.9581	2.2099	-0.8456	-6.4494
864.0149	-3.0500	-1.9643	-0.2240	-66.9050	-49.9412	-5.0815	-4.4436	-1.7289	-0.8552	-47.9693	-0.4949	-0.9750	-5.1103	1.2873	-1.2511	-7.0200
872.0150	-4.3870	-1.8648	-0.2399	-63.1432	-44.8056	-4.5138	-4.0444	-1.5376	-0.8227	-43.3038	-0.3340	-0.7614	-5.2415	1.0803	-2.1670	-7.7342
880.0152	-4.0458	-1.6122	-0.2065	-59.2597	-37.3971	-3.8107	-3.3368	-1.2783	-0.7308	-39.2736	-0.5404	-0.4802	-4.3878	1.6025	-0.4646	-6.3574
888.0153	-2.2538	-1.2814	-0.2206	-53.0848	-25.6998	-2.4045	-2.4492	-0.7738	-0.5968	-26.7936	-0.3090	0.0682	-3.1347	1.7593	-0.9179	-6.1681
896.0155	-2.6921	-1.1086	-0.2073	-50.2928	-25.3843	-1.5703	-2.3715	-0.6758	-0.4793	-16.4211	-0.2746	0.4023	-3.0232	0.8069	-1.6898	-5.4221
904.0156	-3.5609	-1.1575	-0.1580	-50.5537	-33.0814	-2.0130	-2.7684	-1.0360	-0.3900	-16.6867	-0.4031	-0.2868	-3.2821	0.8861	-0.5999	-4.1190
912.0157	-2.2193	-1.1647	-0.1605	-46.4218	-32.6532	-2.1438	-2.6810	-0.9717	-0.3679	-17.3633	-0.1921	-0.4639	-2.9885	1.8192	-1.0113	-4.6421
920.0159	-2.1767	-0.9784	-0.1832	-44.3803	-21.1088	-1.4206	-1.9531	-0.5936	-0.4035	-15.0039	-0.2067	0.1374	-2.4642	1.3143	-0.9507	-4.8735
928.0160	-3.0065	-0.7975	-0.1784	-43.5379	-12.0840	-0.9158	-1.2550	-0.4098	-0.3761	-12.7039	-0.3157	0.2230	-2.1242	1.2543	-0.4042	-3.5405
936.0162	-2.1103	-0.6809	-0.1579	-39.9588	-9.0286	-0.8272	-0.9225	-0.3368	-0.3189	-11.4669	-0.2992	0.0721	-1.7186	1.7991	-0.5507	-1.9127
944.0163	-1.7968	-0.5537	-0.1505	-39.7814	-6.4499	-0.3095	-0.6806	-0.2248	-0.2525	-6.3572	-0.3474	0.2511	-1.3392	1.7505	-0.3709	-1.0050
952.0164	-2.2457	-0.5077	-0.1706	-41.5994	-3.5608	0.1694	-0.5011	-0.0873	-0.2485	-2.9224	-0.3434	0.5721	-1.2848	1.5716	-0.4914	-1.5049
960.0166	-0.8600	-0.4459	-0.2109	-43.1262	4.1262	0.5847	-0.0878	0.1353	-0.2645	-0.6352	-0.1645	0.6863	-0.5920	1.6895	-0.5265	-2.2761
968.0167	0.8187	-0.5320	-0.2516	-49.9577	3.7609	0.5119	-0.2965	-0.0113	-0.2442	2.4390	0.1200	0.1055	-0.2095	1.5545	-1.1357	-2.3348
976.0168	-0.4918	-0.8013	-0.2759	-58.3195	-4.0259	-0.3825	-1.0815	-0.4515	-0.3486	-2.8267	0.1596	-0.4683	-1.2552	0.3637	-2.2496	-2.4656
984.0170	-0.8609	-0.6123	-0.2616	-62.3103	2.9997	0.2391	-0.4893	-0.2899	-0.3095	0.2537	-0.1840	-0.1923	-0.7392	0.4664	-0.8297	-0.1850
992.0171	1.8512	-0.2627	-0.2576	-59.2963	13.2491	1.5581	0.3855	0.1240	-0.1278	13.1548	-0.0797	0.1002	0.8197	1.2197	-0.6621	1.7971
1000.0173	0.8056	-0.2946	-0.2722	-53.0136	16.5118	1.1269	0.4208	0.0369	-0.1896	10.1928	0.2598	-0.3604	0.3651	-0.1097	-2.2884	0.8785
1008.0174	-1.4722	-0.2392	-0.2362	-55.6735	19.1388	1.0761	0.7759	-0.0966	-0.1466	8.0572	-0.0783	-0.8161	0.3476	0.2919	0.2959	2.2829
1016.0175	1.9060	-0.2380	-0.2575	-60.4965	15.5023	1.5625	0.4650	-0.0247	-0.0684	15.5388	0.0489	-0.5776	1.2354	0.7360	0.3008	1.9039
1024.0177	3.7974	-0.3354	-0.3439	-59.4032	21.6900	1.2022	0.1910	0.0227	-0.2833	12.8266	0.6282	-0.4872	1.1756	-2.5066	-3.2120	-0.4359
1032.0178	1.2403	0.0277	-0.3391	-53.8106	39.8129	2.4802	1.7144	0.4847	-0.1780	19.7413	0.5629	-0.2818	1.7722	-1.9013	-1.9425	0.4258
1040.0179	1.6088	0.2518	-0.2957	-46.2671	35.7264	3.9369	2.0858	0.8535	0.1335	35.2046	0.5731	0.3484	2.4008	1.2098	-1.1087	0.0747
1048.0181	2.0858	-0.0137	-0.3014	-52.3124	23.0978	3.0728	0.9378	0.4647	0.0295	30.2499	0.5204	0.2694	1.6758	-0.1673	-1.7749	-0.6632
1056.0182	-0.2142	-0.2277	-0.3018	-59.8714	17.1181	2.3876	0.4336	0.2170	-0.1107	21.2935	0.1560	0.3523	0.7013	-0.6309	-0.6732	-1.3334
1064.0184	0.4261	-0.3962	-0.2303	-51.7819	-2.1251	1.6075	-0.6596	-0.0406	-0.0624	17.3735	0.0358	0.5236	0.0260	0.2682	-0.6029	-2.2477
1072.0185	1.2500	-0.4380	-0.2008	-46.4693	-8.0821	1.1321	-1.0831	-0.2190	-0.0374	16.0304	0.1416	0.2244	-0.0680	-0.0904	-1.0488	-2.1693
1080.0186	-0.9214	-0.3339	-0.2425	-47.4789	3.1232	1.9313	-0.2111	0.1261	-0.0439	18.9364	0.1894	0.5592	-0.0893	0.6390	-0.9823	-3.2244
1088.0188	-1.9367	-0.3341	-0.1902	-46.9068	-0.1907	1.5577	-0.2413	0.0275	-0.0498	13.3116	-0.2277	0.5896	-0.3218	1.3011	0.7771	-1.9033
1096.0189	-1.4511	-0.2894	-0.1915	-47.1737	4.1309	1.6045	0.1399	0.1500	-0.0564	11.4768	-0.2876	0.5923	0.0230	2.2371	1.3934	-1.4120
1104.0191	-0.3117	-0.2091	-0.2755	-46.1445	19.6804	2.0528	0.8955	0.5620	-0.1808	11.7596	0.1313	0.9052	0.5460	1.5002	-0.4846	-3.0737
1112.0192	-0.4178	-0.0837	-0.2047	-31.9627	20.7408	1.4060	0.9070	0.4352	-0.1985	6.1676	0.0975	0.5911	0.5467	-0.2649	-0.3263	-1.8743
1120.0193	-2.8889	0.1840	-0.0909	-11.4891	16.4190	2.0267	1.3421	0.6397	0.0538	12.2644	-0.0604	0.9485	0.2773	1.7262	0.5195	-1.2862
1128.0195	-3.7211	0.3169	-0.0357	-8.5390	16.2547	2.2382	1.6200	0.7395	0.1040	11.6321	-0.4758	1.3392	0.3221	2.5256	1.9903	0.4383
1136.0196	-1.8784	0.2893	0.0134	-2.3128	11.8967	1.3494	1.2583	0.5868	0.0453	3.4890	-0.5968	1.1959	0.4618	2.0794	2.3578	1.4277
1144.0197	0.4069	0.3991	0.0485	18.4280	3.9766	1.7723	0.9429	0.7923	0.2336	13.3626	0.0052	1.5361	0.6475	2.7151	-0.4719	-0.5951
1152.0199	1.7337	0.6417	0.0812	30.6263	4.8279	2.4871	0.9910	0.9663	0.3590	23.2827	0.2216	1.9236	1.2045	1.2356	-1.5906	-0.4692
1160.0200	2.3474	0.6803	0.1071	41.8527	6.4582	1.9593	1.0237	1.0451	0.2686	16.3658	0.2746	2.1208	1.0975	0.4601	-2.4264	-0.7259
1168.0202	1.6039	0.6139	0.1602	50.3117	1.6365	0.8741	0.7205	0.7518	0.2319	7.7783	0.2684	1.5029	0.4780	-0.0021	-2.8216	0.2399
1176.0203	-0.1275	0.7533	0.2449	56.8570	-2.8195	0.9786	0.7632	0.5874	0.4022	11.1996	0.0175	1.1636	0.3914	0.3226	-1.1982	2.1730
1184.0204	1.4950	0.7671	0.3239	71.9803	-14.0493	0.5374	0.2855	0.5999	0.4735	8.6205	-0.0127	1.5135	0.2950	1.4509	-1.5063	1.9664
1192.0206	2.8268	0.7455	0.3549	83.5229	-15.4487	-0.4666	-0.0956	0.4118	0.3787	0.9830	0.1982	1.1328	0.2099	-0.6445	-2.6708	1.8844
1200.0207	1.1314	1.0670	0.3362	93.6490	2.4344	0.7987	1.3442	0.9905	0.4576	8.0472	0.4273	1.5167	0.7643	0.0518	-2.7966	0.9611
1208.0208	1.7924	1.2135	0.3371	94.5745	10.1393	1.3162	2.1367	1.3624	0.4815	8.2049	0.2717	1.9671	1.3527	2.0601	-2.0537	1.8730
1216.0210	1.7991	1.0526	0.3339	87.2324	3.4491	0.7228	1.4420	0.9900	0.4305	5.6461	0.2007	1.5383	1.0161	0.7391	-1.8583	2.2086
1224.0211	0.9295	0.9962	0.3363	88.4024	-2.5847	0.9098	1.1073	0.9030	0.5109	10.2251	0.3333	1.4736	0.7159	0.9183	-1.9297	0.6976
1232.0213	2.7685	0.9417	0.3176	87.1801	1.0175	0.2785	1.0677	0.8099	0.4032	4.1062	0.4561	1.0654	1.0697	0.0395	-2.2333	1.0633
1240.0214	2.8075	0.9425	0.2619	88.7214	8.6942	0.3788	1.3367	0.9435	0.3245	4.5174	0.8442	1.0174	1.0480	-1.0132	-4.1214	-0.3344
1248.0215	1.1666	0.9684	0.2741	86.2370	8.5963	0.6528	1.5470	0.9217	0.4004	6.8893	0.7041	0.8707	0.9212	-0.0484	-3.0371	0.1384
1256.0217	0.1649	0.5741	0.2606	68.5702	0.8827	-1.0706	0.7047	0.2452	0.1949	-9.0226	0.3521	-0.1999	0.0750	-0.7036	-1.4426	1.2724
1264.0218	-0.3334	0.1944	0.2533	62.1287	-9.8001	-2.5978	-0.1529	-0.1232	-0.0061	-24.6774	0.1707	-0.4684	-1.0382	-0.2121	-1.4191	0.3408
1272.0220	0.3958	0.2921	0.2930	65.2268	-10.8148	-2.4074	0.0258	-0.0085	0.0627	-24.0773	-0.0441	-0.2077	-0.6558	1.0071	-0.2962	1.3632
1280.0221	0.9696	0.3022	0.2518	63.6081	-11.4031	-1.7411	-0.0715	0.1531	0.0997	-16.0181	0.2041	0.2390	-0.6594	0.8248	-2.1006	0.2365
1288.0222	2.3479	0.1874	0.2264	56.1831	-15.6543	-1.9402	-0.5379	0.0313	0.0536	-16.0893	0.2115	0.2621	-0.6908	0.4218	-2.8330	0.5180
1296.0224	4.3299	0.1844	0.1603	45.8897	-6.0625	-1.9601	-0.3340	-0.0262	-0.0313	-15.4102	0.4290	-0.2717	0.0711	-1.2003	-3.3245	1.3959
1304.0225	2.5322	0.1810	0.0941	40.3334	1.1029	-1.4548	-0.0216	0.1249	-0.1044	-12.3268	0.5805	-0.0007	-0.3641	-2.1325	-4.9423	0.5081
1312.0226	-0.8462	0.3499	0.1532	30.4444	4.1994	-0.8568	0.6679	0.0971	0.0159	-10.4872	-0.2446	-0.0211	-0.3069	-0.5030	-0.9031	4.3554
1320.0228	0.4385	0.3799	0.1205	19.0732	7.2862	-0.2665	0.9834	0.1089	0.1360	-2.8595	-0.1911	-0.4714	0.5063	1.0432	-0.0578	5.6771
1328.0229	2.3392	0.0710	0.0562	9.5909	-0.3728	-1.0444	0.0433	-0.1763	0.0023	-6.4565	0.1087	-0.7621	0.0787	0.1007	-2.2191	4.3578
1336.0231	0.0870	-0.1267	0.0269	-3.7103	-1.9881	-1.5135	-0.2549	-0.5132	-0.0883	-11.0986	-0.0780	-1.2981	-0.5325	-0.6115	-0.9943	4.2010
1344.0232	0.5078	-0.1408	-0.0252	-7.0069	1.6783	-1.0020	-0.0459	-0.3762	-0.0537	-5.6628	0.2272	-1.3503	-0.2277	-0.0481	-1.5309	2.6145
1352.0233	2.6638	0.0171	-0.0174	-0.9572	4.7611	-0.5627	0.0348	-0.1730	-0.0348	-1.5001	0.3121	-0.8661	0.5291	-1.1947	-1.7846	2.4161
1360.0235	0.8332	0.1672	-0.0206	3.0072	6.3658	0.5807	0.3195	0.0667	0.0948	9.7305	0.4095	-0.3322	0.4503	-1.2256	-2.0928	1.1005
1368.0236	-0.2917	0.1389	-0.0047	2.3870	3.4329	0.5994	0.3786	0.0246	0.1632	10.1705	0.3297	-0.5071	0.1988	0.2797	-1.4837	1.3268
1376.0237	-0.7159	0.0853	0.0075	-1.8064	5.2745	0.0253	0.4484	-0.1545	0.0997	2.9735	0.1051	-0.9925	0.2760	0.2417	0.3365	2.2142
1384.0239	-1.5659	0.0013	-0.0173	-3.8611	4.3447	0.0445	0.3478	-0.1282	0.0557	2.1891	0.1484	-0.8100	-0.1028	0.3339	-0.0170	0.8200
1392.0240	-1.2197	0.0229	0.0036	-5.1168	8.8559	-0.4555	0.6766	-0.0967	-0.0466	-7.1962	-0.2003	-0.7884	0.0999	0.7768	1.3855	2.5026
1400.0242	-2.5973	-0.0412	-0.0213	-9.7328	10.3820	-0.4250	0.8202	-0.0959	-0.0715	-8.1216	-0.2097	-0.8762	-0.2473	1.3722	1.3659	2.1346
1408.0243	-2.5867	-0.2434	-0.0182	-16.9457	-2.6900	-0.7660	-0.0448	-0.3916	-0.0485	-7.5459	-0.3015	-0.9650	-0.8344	1.7775	1.1510	2.0470
1416.0244	0.2894	-0.2078	-0.0079	-15.7242	1.0784	-1.2573	0.0282	-0.3772	-0.1304	-13.7619	-0.3658	-1.0627	-0.0365	1.3039	1.8340	3.1254
1424.0246	0.8788	-0.2702	-0.0638	-10.4601	3.4485	-1.2608	-0.0685	-0.2802	-0.1863	-12.0121	0.2214	-1.0775	-0.2512	0.3067	-1.0420	0.5203
1432.0247	0.9032	-0.3797	-0.0701	-15.5348	2.3216	-1.9137	-0.4179	-0.5369	-0.2909	-17.7635	0.1339	-1.4389	-0.4379	-1.1147	-0.7299	0.9646
1440.0248	2.4838	-0.3646	-0.1189	-15.5644	12.5629	-1.9604	0.0637	-0.2910	-0.4149	-22.1694	0.3177	-1.3133	0.1144	-1.2039	-1.1308	-0.0197
1448.0250	1.9204	-0.4666	-0.1434	-12.2196	9.1751	-2.0673	-0.2067	-0.2910	-0.4351	-21.6008	0.6217	-1.2555	-0.4989	-1.2561	-3.0998	-1.8567
1456.0251	-0.9075	-0.3571	-0.0958	-13.5710	13.3951	-1.9950	0.3214	-0.3171	-0.4133	-24.9221	0.1145	-1.3555	-0.5925	-0.8008	-0.2238	-0.1215
1464.0253	-1.9549	-0.2472	-0.0697	-9.4673	14.8616	-1.4401	0.8419	-0.0865	-0.3004	-21.9845	-0.0099	-1.0962	-0.4562	1.4288	0.9511	-0.1980
1472.0254	-1.2566	-0.4117	-0.0377	-14.0637	0.8370	-2.0419	-0.1597	-0.5251	-0.2568	-22.1636	-0.1250	-1.5098	-0.7654	0.9908	1.3659	0.4979
1480.0255	-0.7439	-0.7180	-0.1129	-29.9999	-1.3806	-2.7862	-0.7956	-0.7336	-0.5008	-30.8944	-0.1985	-1.4623	-1.2580	-0.2444	0.8859	-0.6537
1488.0257	-1.0179	-1.2527	-0.1790	-46.9198	-15.2604	-4.2246	-2.0703	-1.1320	-0.7783	-44.9728	-0.3211	-1.4178	-2.7892	-0.1352	-0.5907	-2.3310
1496.0258	-1.9273	-1.5719	-0.1576	-59.3248	-29.9598	-5.4284	-3.2059	-1.7825	-0.8418	-52.8800	-0.6615	-2.1525	-3.6074	-0.6520	0.9650	-1.5952
1504.0260	-1.1182	-1.6694	-0.1841	-59.1285	-30.7380	-5.7130	-3.4393	-1.8210	-0.9002	-54.9070	-0.4418	-2.2604	-3.6383	-1.0694	0.2566	-3.0601
1512.0261	-0.2455	-1.7145	-0.1943	-58.2356	-29.5506	-6.1822	-3.5789	-1.8957	-0.9868	-59.1418	-0.3382	-2.4313	-3.6424	-2.0960	-0.4908	-3.0363
1520.0262	-0.7333	-1.5371	-0.2288	-59.1154	-17.8506	-5.2245	-2.7569	-1.6178	-0.9186	-51.6351	-0.1723	-2.4208	-2.9828	-1.9691	-0.1298	-3.3691
1528.0264	-0.6298	-1.5470	-0.2362	-58.0160	-16.1184	-5.2940	-2.5403	-1.5502	-0.9168	-52.9752	-0.0865	-2.5343	-2.9893	-0.9544	-0.5152	-3.3440
1536.0265	-2.6825	-1.5145	-0.1850	-58.9274	-15.8637	-5.6692	-2.3103	-1.7160	-0.9045	-58.2653	-0.4938	-2.9166	-3.2677	-0.4152	1.4090	-1.1106
1544.0266	-4.9574	-1.2931	-0.1763	-58.4891	-8.6429	-4.3931	-1.3986	-1.3443	-0.7637	-49.9130	-0.7016	-2.3948	-3.0005	1.3356	2.9608	-0.9429
1552.0268	-3.3584	-1.2374	-0.1613	-55.4737	-3.2989	-4.8470	-1.1221	-1.3167	-0.8293	-56.2828	-0.7554	-2.6070	-2.4415	1.1585	3.6173	0.1560
1560.0269	-1.9457	-1.0343	-0.1892	-44.2096	11.1344	-4.4231	-0.2732	-0.9761	-0.8208	-53.4782	-0.2383	-2.7618	-1.5259	0.5493	2.5635	-1.0266
1568.0271	-3.3899	-0.9494	-0.1691	-39.1671	6.8088	-3.5421	-0.1568	-0.7808	-0.6481	-44.1705	-0.2103	-2.2858	-1.7508	2.2358	2.4839	-2.0604
1576.0272	-4.2680	-0.8849	-0.1176	-40.5167	6.4784	-3.6162	0.0771	-0.8466	-0.5958	-46.8250	-0.6377	-2.4328	-1.5684	3.2917	5.0819	-0.2617
1584.0273	-1.2716	-0.5230	-0.1817	-30.5643	24.3052	-1.8793	1.1722	-0.1756	-0.4645	-30.1118	0.1043	-1.9722	0.1217	2.7751	3.1688	-2.1756
1592.0275	0.3906	-0.9813	-0.2202	-45.9919	3.3792	-3.1512	-0.8805	-0.9143	-0.6080	-33.4844	0.1984	-2.3922	-0.8902	-0.1491	1.1502	-2.8990
1600.0276	-1.7685	-1.8694	-0.2742	-75.9736	-19.3874	-6.3627	-3.1242	-2.1207	-1.0501	-62.0354	-0.2325	-3.6811	-3.3415	-1.8563	1.7020	-3.7214
1608.0277	-1.7865	-1.7837	-0.3086	-72.2575	-10.4261	-5.8141	-2.4412	-1.7451	-1.0603	-60.6797	-0.0406	-3.3206	-2.9976	-0.8639	1.4599	-5.3889
1616.0279	-1.3817	-1.2990	-0.2808	-63.1341	0.1691	-3.6742	-1.3593	-1.1106	-0.8087	-42.2061	-0.0826	-2.2806	-1.6595	-0.3272	2.4817	-4.9055
1624.0280	-1.2859	-0.9005	-0.3266	-58.9897	16.9521	-1.3051	0.0310	-0.3678	-0.5913	-22.3504	0.2368	-1.5000	-0.2548	0.8047	2.8647	-6.5974
1632.0282	0.4384	-0.4702	-0.3238	-49.9451	29.5153	0.4227	0.9806	0.0799	-0.3542	-4.1553	0.5755	-1.2661	1.3774	0.2972	3.0137	-6.3281
1640.0283	1.2998	-0.2448	-0.3320	-49.4275	30.6477	1.9001	1.1162	0.2768	-0.1403	14.2708	0.7883	-0.9003	2.1327	-0.3218	2.4387	-6.2983
1648.0284	2.8794	0.1786	-0.3737	-40.3253	38.2865	4.9169	2.0695	1.1661	0.2161	44.5855	1.3462	0.5046	3.4773	1.6367	0.6700	-8.8291
1656.0286	3.6226	0.8405	-0.3495	-20.5019	50.8407	8.0224	3.3552	2.1267	0.5755	73.5749	1.6398	2.1735	5.0464	1.7670	0.0123	-9.9625
1664.0287	2.2976	1.2169	-0.3331	-12.2289	56.7925	9.9734	4.0829	2.6640	0.7785	91.0745	1.6225	3.3626	5.4310	1.7687	-0.4743	-10.0536
1672.0289	1.9869	1.4522	-0.2232	-9.5797	48.1978	10.5081	3.9858	2.5810	1.0075	99.2565	1.0495	3.6580	5.5592	2.4662	0.8255	-5.4374
1680.0290	1.8990	1.5160	-0.1183	-8.7063	32.7292	10.3037	3.1689	2.2893	1.1050	101.2455	0.4319	4.0788	5.0163	1.8082	1.0000	-1.2223
1688.0291	2.8884	1.3947	-0.1140	-14.3484	25.1144	9.7535	2.5981	2.1191	1.0353	97.5438	0.2492	4.2383	4.4942	1.7202	-0.5033	0.7971
1696.0293	3.8817	1.4464	-0.0711	-12.7648	25.5859	9.0666	2.6314	1.8774	1.0473	93.4420	0.1665	3.4776	4.6880	1.3495	-0.6099	4.3080
1704.0294	2.9907	1.5409	-0.0536	-8.1082	27.7403	9.1330	2.7993	1.9151	1.0485	93.9918	0.1454	3.5795	4.4367	0.5889	-1.4962	5.3300
1712.0295	2.0506	1.5084	-0.0459	-15.7292	28.7630	8.8348	2.9218	1.7893	1.0052	89.4803	-0.1843	3.3569	4.2374	0.9847	-0.5364	7.4475
1720.0297	0.7758	1.3340	-0.0027	-17.9119	21.5066	7.6202	2.5613	1.2994	1.0074	80.6634	-0.3282	2.1952	3.5973	1.8391	0.3935	9.2787
1728.0298	-0.5257	1.1731	0.0560	-14.8170	10.1047	6.4921	1.8782	0.9185	0.9653	71.5892	-0.5659	1.8416	2.5990	1.8218	0.5354	10.1945
1736.0300	-1.0033	1.1390	0.0953	-22.7741	7.2054	5.9704	1.6830	0.6969	0.8966	64.5750	-1.1657	1.8289	2.4586	1.5204	2.5662	12.9069
1744.0301	-0.1689	0.9436	0.0835	-25.7142	1.5884	5.1619	1.1680	0.5291	0.7853	57.1257	-1.1643	1.7275	2.0369	1.6044	1.8708	12.5420
1752.0302	0.5859	0.7791	0.1145	-22.6070	-4.9668	3.7877	0.5184	0.1822	0.6545	45.3278	-1.2191	1.2692	1.5461	0.5228	1.4582	13.1753
1760.0304	0.6220	0.6834	0.1171	-26.1949	-7.7166	3.2580	0.1695	-0.1010	0.6264	42.4592	-1.2214	0.7033	1.4597	-0.3225	1.9446	13.5063
1768.0305	1.7956	0.3716	0.0892	-28.3057	-19.8617	2.4071	-0.9300	-0.3384	0.5052	36.7577	-1.0312	0.7787	0.7879	-0.8829	0.6290	10.7533
1776.0306	1.3312	0.2899	0.1199	-20.9015	-23.8445	1.6111	-1.3212	-0.4038	0.3645	26.6883	-1.1802	1.1199	0.1897	-1.9489	0.5912	9.7185
1784.0308	1.0147	0.5838	0.1429	-3.3397	-12.1759	2.2941	-0.3372	0.0283	0.4462	30.4046	-0.9147	1.3621	0.7850	-1.7161	0.4046	8.7869
1792.0309	1.5253	0.8930	0.2004	16.0338	-3.0996	2.5887	0.4249	0.2864	0.5405	32.1811	-0.7359	1.2983	1.5718	-2.1150	0.8010	9.0619
1800.0311	-0.7531	1.0188	0.2799	29.4886	-7.3073	2.7186	0.5350	0.3327	0.6545	32.9924	-0.9119	1.5278	1.1180	-1.4460	1.6202	9.0618
1808.0312	-0.0351	1.1278	0.3540	44.3291	-13.9589	2.8549	0.5334	0.5107	0.7911	34.4174	-0.9630	1.9728	1.2353	0.5128	1.9883	8.7680
1816.0313	1.2287	1.4964	0.4137	65.6098	-0.8787	3.0611	1.4774	0.8641	0.8240	33.3696	-0.8430	2.1032	2.2468	-0.4330	2.2601	9.6305
1824.0315	0.0497	1.6770	0.4600	84.6285	-0.2694	3.4651	1.7572	1.0687	0.9415	38.0438	-0.5782	2.3332	2.0972	-0.4820	1.3441	8.2288
1832.0316	1.9945	1.6230	0.5561	100.6982	-15.8874	2.6108	0.8751	0.8856	1.0026	33.1556	-0.6151	2.4196	1.9939	-0.0576	1.7648	7.4813
1840.0318	1.5913	1.7687	0.5515	119.0086	-6.8955	2.8585	1.3561	1.2292	0.9573	32.6094	-0.1922	2.8009	2.1575	-1.4005	0.8343	4.0445
1848.0319	0.3775	1.8348	0.5055	126.3225	-2.2950	4.0221	1.8420	1.6385	1.0713	42.6951	0.3001	3.2200	2.3178	-0.1360	0.4399	-0.6104
1856.0320	2.9027	1.6922	0.5105	121.8239	-10.9625	3.6488	1.2111	1.4537	1.0963	41.7331	0.2894	3.0097	2.7644	0.6186	1.5954	-1.2352
1864.0322	2.6607	1.5324	0.4435	119.9060	-11.1204	3.3374	0.7332	1.3211	0.9702	41.4812	0.7452	2.8482	2.1285	-1.7527	-1.2924	-3.3366
1872.0323	1.8737	1.5339	0.4505	119.5759	-10.1809	3.2342	0.8327	1.2475	0.9823	40.6402	0.7202	2.5575	2.0495	-1.6927	-0.8525	-2.9626
1880.0324	3.2771	1.6502	0.4606	119.8421	-5.7594	3.6052	1.3692	1.4583	1.0564	42.3140	0.6412	2.6125	2.8468	0.1723	0.2834	-1.9562
1888.0326	3.6594	1.6339	0.3896	114.5982	-6.8060	4.5694	1.1025	1.5388	1.1336	56.2192	1.1064	2.8416	2.8529	-0.8291	-2.1060	-3.8680
1896.0327	2.9720	1.5382	0.3716	102.1663	-8.2234	4.4796	0.8795	1.3205	1.1033	55.7643	0.8840	2.5764	2.7693	-1.2988	-0.8739	-3.1339
1904.0329	1.7884	1.1684	0.3092	91.6572	-1.9946	2.6314	1.0546	1.1508	0.7276	30.3149	0.7386	1.9621	1.8191	-0.2457	-0.8366	-3.4785
1912.0330	1.4969	0.6860	0.2537	79.7479	-1.1054	0.0183	0.4949	0.5002	0.3423	3.8770	0.8069	0.3677	0.8911	-1.5781	-0.9278	-3.6419
1920.0331	2.2495	0.5476	0.2042	68.9346	2.8568	-0.4064	0.5790	0.3553	0.2671	-0.4072	0.8953	-0.3315	1.1609	-1.1761	-0.3828	-3.4968
1928.0333	1.8431	0.3825	0.1048	58.4345	5.7036	-0.0427	0.6978	0.5772	0.1708	0.7650	1.1273	0.1012	0.6816	0.0244	-2.4904	-5.4857
1936.0334	0.1239	0.2146	0.0694	46.8131	6.6822	-0.5491	0.4612	0.3308	0.0171	-5.7075	0.9374	-0.1644	0.1348	-1.3728	-1.7771	-5.6513
1944.0335	0.6921	0.3387	0.0228	45.7172	17.2890	0.2904	1.2699	0.7486	0.0332	-1.2551	1.0842	0.2358	0.7381	-0.1327	-2.1168	-6.2278
1952.0337	1.9261	0.4085	-0.0267	45.4051	24.0773	0.8731	1.7723	1.0848	0.0392	3.1670	1.3567	0.5773	1.0515	0.8830	-4.1128	-6.3220
1960.0338	-0.4085	0.3018	-0.0541	37.1530	25.5046	0.6073	1.7475	0.9115	-0.0464	-0.1455	1.2524	0.2942	0.3447	0.1927	-4.2716	-5.9310
1968.0340	-1.3664	0.2104	-0.1214	27.8023	31.8567	0.7968	2.2082	1.1056	-0.1372	-2.5628	1.2625	0.4747	0.0834	1.6869	-4.7889	-6.5656
1976.0341	-0.7091	0.0981	-0.1878	14.9047	36.0303	0.7586	2.2856	1.0918	-0.2289	-3.8938	1.3071	0.3118	0.1930	1.8148	-5.2127	-6.3451
1984.0342	-1.8740	-0.1711	-0.2442	0.8001	27.3309	0.5212	1.4791	0.7641	-0.2797	-2.0531	1.4000	0.0760	-0.7901	1.1208	-6.8747	-6.9167
1992.0344	-3.2541	-0.2972	-0.2486	-7.6943	24.5505	0.0987	1.3819	0.5702	-0.3151	-6.2213	1.1917	-0.2558	-1.4045	1.9988	-6.7952	-5.4094
2000.0345	-5.5605	-0.2217	-0.2513	-15.0877	33.1666	0.3463	2.2386	0.6741	-0.3131	-8.4455	0.8449	-0.4157	-1.4764	3.6670	-5.3712	-3.1261
2008.0347	-5.1437	-0.3707	-0.2689	-26.4835	23.4027	0.4017	1.6307	0.5504	-0.3014	-5.6496	0.6742	-0.1163	-1.9394	4.4790	-6.2179	-2.2406
2016.0348	-3.2222	-0.6116	-0.2464	-32.1872	10.5861	-0.9981	0.3560	0.0056	-0.4406	-14.7980	0.4954	-0.4987	-2.3740	2.2810	-6.6281	-0.8750
2024.0349	-4.6428	-0.7264	-0.2544	-31.3639	12.4506	-1.8582	0.3200	-0.1328	-0.5979	-24.9750	0.4854	-0.7827	-3.1171	1.4611	-7.3961	-0.8763
2032.0351	-4.5594	-0.6714	-0.2360	-32.1143	15.5000	-1.9461	0.7089	-0.0734	-0.5915	-27.9789	0.2862	-0.8663	-2.9213	2.6792	-6.6096	0.8565
2040.0352	-4.5135	-0.5510	-0.1954	-28.8539	17.0373	-1.9298	0.8546	-0.1194	-0.5455	-27.6194	0.1307	-1.0167	-2.5725	2.1243	-5.4572	2.2392
2048.0353	-4.6233	-0.5431	-0.1730	-24.1279	11.1019	-1.8280	0.5453	-0.1210	-0.4951	-24.8167	0.1522	-0.7248	-2.8769	2.0750	-6.2561	1.9483
2056.0355	-2.0997	-0.3659	-0.1253	-15.1449	12.7249	-1.7639	0.7337	-0.0401	-0.4063	-22.9787	0.1878	-0.8158	-1.9201	2.1292	-5.6276	3.2150
2064.0356	-3.2828	-0.2681	-0.1158	-5.1274	19.6324	-1.8687	1.1270	-0.0059	-0.4174	-24.4578	0.4216	-1.1679	-1.9359	0.9882	-5.9127	2.4630
2072.0358	-5.7201	-0.4598	-0.0752	-11.0144	9.1091	-2.6492	0.5499	-0.4117	-0.4358	-31.3331	0.0104	-1.5606	-2.8676	1.5053	-4.1540	3.1333
2080.0359	-5.6234	-0.5442	0.0021	-13.3125	-1.6762	-3.3257	0.0832	-0.7474	-0.3672	-36.8274	-0.4720	-1.9856	-2.8116	2.9260	-0.8787	4.6335
2088.0360	-5.3462	-0.6439	0.0179	-7.6992	-7.0704	-3.9605	-0.3894	-0.8598	-0.4379	-42.3571	-0.4152	-1.9413	-3.2208	2.2606	-1.4664	3.5349
2096.0362	-2.8579	-0.7590	0.0017	-11.7299	-10.9086	-4.4253	-0.9626	-0.9246	-0.5645	-47.0685	-0.4797	-1.6101	-3.0319	1.1950	-1.7221	3.1193
2104.0363	-0.6350	-0.9465	-0.0622	-18.9071	-12.1857	-4.7351	-1.3785	-0.9534	-0.6794	-49.6037	-0.2417	-1.5910	-2.8631	0.8905	-2.6384	1.2939
2112.0364	-1.1555	-1.2003	-0.1143	-26.4203	-13.9262	-5.6360	-1.9284	-1.2753	-0.8525	-56.7739	-0.0572	-2.1368	-3.5658	-0.8188	-3.8898	0.2375
2120.0366	-1.4160	-1.1851	-0.0891	-25.1688	-18.1596	-5.6113	-2.2409	-1.3906	-0.8160	-54.7807	-0.1428	-2.0971	-3.6351	-1.6765	-3.4343	0.3033
2128.0367	-1.1868	-1.3314	-0.0510	-23.4413	-33.0343	-5.9987	-3.1055	-1.6297	-0.7499	-54.6038	-0.1995	-2.0854	-4.1415	-0.9910	-3.3920	-0.3635
2136.0369	-1.2361	-1.3956	-0.0537	-28.5950	-31.3853	-6.4876	-3.0959	-1.8175	-0.7999	-59.5075	-0.2913	-2.6418	-4.0536	-1.1784	-2.3647	0.4841
2144.0370	-0.6848	-1.0137	-0.0584	-19.3901	-17.3435	-4.9437	-1.9872	-1.2697	-0.6496	-46.7494	-0.0750	-2.1005	-2.8936	-1.1085	-2.3607	0.2927
2152.0371	-0.0722	-0.9846	-0.0247	-17.0827	-25.5779	-4.7350	-2.4897	-1.3568	-0.5567	-41.2277	-0.1307	-1.8594	-2.9082	-1.5783	-2.5186	0.6062
2160.0373	-1.1833	-1.0482	-0.0170	-25.8486	-29.9967	-4.7267	-2.7558	-1.5525	-0.5351	-40.4120	-0.4171	-1.9675	-3.1377	-1.5693	-1.2015	1.4450
2168.0374	-1.0026	-0.8800	-0.0088	-25.0414	-30.2487	-3.5308	-2.4927	-1.2613	-0.3749	-28.9107	-0.4796	-1.2736	-2.6915	-0.4659	-0.8457	1.3682
2176.0376	1.2972	-1.0740	-0.0419	-34.7120	-34.6536	-4.2733	-3.2420	-1.5822	-0.4926	-33.1045	-0.4176	-1.6754	-2.5500	-2.1031	-1.1741	1.4658
2184.0377	0.3479	-1.2822	-0.1102	-42.0519	-29.6226	-5.0453	-3.3406	-1.7949	-0.6848	-41.2051	-0.1771	-2.3428	-3.0258	-3.6145	-1.9700	0.0721
2192.0378	-1.2004	-1.2309	-0.0558	-38.6854	-36.6569	-4.7303	-3.4200	-1.8059	-0.5477	-37.4519	-0.4245	-2.1224	-3.3482	-2.2415	-0.9335	0.5722
2200.0380	0.0224	-1.2975	-0.0612	-47.2260	-43.1099	-4.5178	-3.8294	-1.8464	-0.5184	-34.4564	-0.6226	-1.7929	-3.1756	-1.6159	-0.3088	0.9170
2208.0381	0.1677	-1.2960	-0.1417	-51.5670	-31.3457	-4.2264	-3.3711	-1.5657	-0.6834	-36.1628	-0.4387	-1.3675	-3.0423	-2.7332	-1.5208	-0.6078
2216.0382	-0.7247	-1.1903	-0.1546	-53.8302	-22.7949	-3.8527	-2.8235	-1.4238	-0.7086	-35.7737	-0.5530	-1.2655	-2.7731	-3.1062	-0.6603	-0.1933
2224.0384	-1.7250	-1.2932	-0.2085	-68.0974	-21.5775	-3.4709	-2.7344	-1.4526	-0.7021	-32.5926	-0.6063	-1.4014	-2.8409	-2.1579	0.0136	-0.5206
2232.0385	-2.0342	-1.3869	-0.2046	-73.2659	-22.9325	-3.9620	-2.8812	-1.5808	-0.7871	-39.1284	-0.8581	-1.4751	-3.0405	-2.1336	1.0067	0.0188
2240.0387	0.3928	-1.3690	-0.1876	-69.5975	-23.1469	-4.3775	-3.0595	-1.5506	-0.8665	-44.1419	-0.9263	-1.2302	-2.6043	-2.8818	1.0434	0.4292
2248.0388	2.1403	-1.4822	-0.2331	-70.1579	-27.7701	-4.3873	-3.6481	-1.5274	-0.9266	-41.6232	-0.5949	-0.8454	-2.8103	-3.9205	-1.5668	-1.2955
2256.0389	1.2052	-1.6715	-0.2066	-71.4276	-42.1124	-4.9971	-4.7245	-1.8990	-0.9532	-43.7183	-0.7223	-0.8217	-3.7701	-5.1372	-1.9603	-1.8684
2264.0391	0.3774	-1.7679	-0.1766	-73.0637	-52.7168	-5.0854	-5.3170	-2.0180	-0.9343	-44.1472	-1.0061	-0.4164	-4.2971	-4.7641	-1.1152	-2.4155
2272.0392	0.4983	-1.6925	-0.1414	-70.6900	-54.3036	-4.8720	-5.2467	-1.8396	-0.9376	-45.6145	-1.3697	0.3462	-4.2095	-4.1094	0.0088	-2.0265
2280.0393	0.9260	-1.6372	-0.1424	-67.3847	-51.1770	-4.7115	-5.0413	-1.5745	-1.0150	-48.5040	-1.5053	1.1106	-4.1056	-4.0830	0.0841	-2.7141
2288.0395	1.1365	-1.5822	-0.1876	-66.9814	-43.3676	-4.1779	-4.5787	-1.2162	-1.0815	-47.6385	-1.4010	1.7532	-3.8780	-3.9382	-0.4692	-4.3328
2296.0396	2.5960	-1.2380	-0.1743	-55.0000	-29.0445	-3.2508	-3.4981	-0.7045	-1.0098	-42.7244	-1.2805	2.2009	-2.5821	-3.7591	0.2662	-4.4235
2304.0398	3.9241	-0.9581	-0.2175	-43.8011	-14.0847	-1.9897	-2.4784	-0.1096	-0.9330	-32.6407	-0.7351	2.6770	-1.5456	-3.6915	-1.1683	-6.4445
2312.0399	2.2007	-0.8697	-0.2269	-44.5879	-8.7358	-1.4130	-1.9983	-0.0135	-0.8633	-27.9771	-0.7079	2.5636	-1.4546	-3.3534	-0.4185	-6.7619
2320.0400	2.9708	-0.7828	-0.1724	-40.4588	-13.3992	-1.2035	-2.0011	-0.0167	-0.7123	-24.4697	-0.8452	2.5069	-0.9850	-1.9160	1.1609	-5.9758
2328.0402	5.0125	-0.7235	-0.1931	-35.9460	-12.3878	-0.8722	-2.0327	0.1295	-0.6763	-18.9568	-0.4894	2.6801	-0.5812	-2.3319	-0.6757	-6.6292
2336.0403	3.2570	-0.4417	-0.1730	-28.1601	-0.2080	-0.1815	-1.1220	0.2963	-0.5800	-13.3560	-0.4082	2.4176	-0.1125	-3.2070	0.0553	-5.8384
2344.0404	4.1647	-0.2182	-0.1366	-18.3886	2.1358	0.5770	-0.6527	0.4957	-0.3717	-4.0920	-0.2248	2.3359	0.7132	-2.0295	0.5896	-5.6052
2352.0406	3.9720	-0.1949	-0.1241	-17.4088	3.0185	0.3398	-0.6241	0.3389	-0.3445	-4.1017	-0.1513	1.7809	0.7200	-2.5586	0.3811	-4.4104
2360.0407	-0.9109	0.0508	-0.0453	-7.0441	10.0044	0.7340	0.4773	0.4058	-0.1644	-2.8041	-0.3994	1.2437	0.3998	-0.7467	2.6218	-2.6053
2368.0409	-2.0393	0.2832	0.0608	1.2605	3.2264	1.5799	0.8696	0.5354	0.1617	6.4946	-0.7679	1.4116	0.6788	2.8028	4.9406	-0.4045
2376.0410	-2.1378	0.4417	0.1329	3.3912	1.2375	1.6297	0.9130	0.4222	0.2569	8.0523	-1.1473	1.3307	0.9448	2.5101	6.4037	2.7050
2384.0411	-2.4478	0.6602	0.1823	20.1230	7.8924	1.6775	1.6168	0.6494	0.3179	6.9881	-1.0192	1.2808	1.1447	3.0500	5.9063	3.4550
2392.0413	-1.4819	0.9058	0.2535	36.7080	11.5024	1.7649	2.1740	0.7861	0.4656	8.7933	-0.8985	0.9754	1.8230	3.9241	6.2596	4.8418
2400.0414	-2.2496	1.2361	0.2936	52.4842	19.8794	2.7073	3.0340	1.0405	0.6855	19.3954	-0.5837	0.7329	2.5072	4.1527	6.4056	4.8688
2408.0416	-2.0625	1.3462	0.3123	61.3778	19.7493	3.1108	3.1420	1.1277	0.8048	25.6072	-0.3339	0.6824	2.7628	4.2223	6.0210	4.0717
2416.0417	-3.0597	1.2391	0.3574	57.1171	14.5162	2.1894	2.6881	0.7009	0.7475	17.2833	-0.7166	0.0836	2.4788	3.2387	8.3040	5.3926
2424.0418	-3.0446	1.2349	0.3695	60.6729	11.9245	2.2528	2.7433	0.7069	0.8455	19.6311	-0.5688	-0.1733	2.4957	4.7393	8.2241	5.0671
2432.0420	1.0624	1.3349	0.3546	59.9366	11.9925	2.6469	2.5413	0.7199	0.9362	28.8130	-0.2509	-0.3062	3.5898	3.7834	6.9216	6.1731
2440.0421	1.8098	1.1857	0.3215	54.4636	8.0066	2.1301	1.7676	0.4581	0.8006	26.6216	-0.1451	-0.3528	3.2138	0.9235	5.4316	5.6792
2448.0422	1.5957	0.7105	0.3375	54.7106	-13.4894	0.2616	0.2755	-0.0200	0.6373	11.4127	-0.1648	-0.5214	1.4536	1.7212	3.6220	4.0988
2456.0424	2.0800	0.5728	0.3746	54.5896	-17.3927	-1.1157	-0.1637	-0.3886	0.5054	-1.7697	-0.3851	-1.1326	1.1828	0.8674	4.4688	5.5377
2464.0425	1.6117	0.7289	0.3572	63.6169	-8.4907	-0.6171	0.3036	-0.1208	0.4857	1.3902	-0.1097	-0.8086	1.3523	-0.5739	3.3349	4.1197
2472.0427	3.3068	0.8712	0.4021	75.8354	-11.3106	-0.3922	0.1879	-0.0162	0.5821	5.7827	0.0236	-0.5358	1.8035	-0.9589	2.8963	3.9481
2480.0428	4.2298	1.0864	0.4200	87.6463	-4.0187	0.0898	0.7761	0.2390	0.6721	10.1507	0.2767	-0.5351	2.5582	-0.8994	2.8589	3.5699
2488.0429	3.5459	1.1364	0.4141	99.5030	-4.7971	0.5715	0.9598	0.4813	0.7716	16.1816	0.7172	-0.2938	2.2208	0.2216	0.6858	1.4368
2496.0431	0.7946	1.3189	0.5040	106.0906	-7.9142	0.8547	1.0349	0.3220	0.9302	20.4153	0.3615	-0.4645	2.0468	-0.3839	2.8260	3.1726
2504.0432	-0.0886	1.5379	0.5623	117.1866	-3.8763	1.3307	1.6691	0.5839	1.0297	21.6402	0.1722	-0.1215	2.4248	0.7339	4.5651	3.3556
2512.0433	3.9992	1.5265	0.5668	126.6313	-5.2124	0.8575	1.5324	0.7230	1.0004	17.8640	0.4845	-0.0353	3.0492	1.4917	3.1446	2.7945
2520.0435	3.3097	1.6752	0.5012	128.1949	7.9258	1.6934	2.0727	0.9161	0.9948	26.5310	0.9767	-0.1128	3.3966	-0.9863	1.5051	1.2670
2528.0436	1.4439	1.5133	0.4694	122.6823	4.8866	1.5337	1.7696	0.8585	0.8954	23.4375	0.9081	0.1587	2.5562	-1.2784	1.0924	-0.2963
2536.0438	2.0699	1.2178	0.5251	115.0732	-11.4781	-0.0225	0.6500	0.3223	0.7899	9.6277	0.3631	-0.1788	1.8976	-0.8351	2.8560	1.3546
2544.0439	0.2610	1.2917	0.4634	109.3976	-5.1641	1.2337	1.2076	0.5597	0.9078	22.1617	0.6373	-0.0865	1.9214	0.0212	2.0615	0.1488
2552.0440	0.5236	1.1822	0.3803	93.4621	0.4470	1.4633	1.4333	0.5893	0.8430	23.3405	0.7133	-0.2758	2.0535	0.6348	1.6361	0.2926
2560.0442	-0.5447	1.0878	0.3259	80.0090	7.6926	1.2677	1.7013	0.5295	0.7002	18.0803	0.5530	-0.5020	1.9201	0.1990	2.2353	0.8842
2568.0443	-1.8777	1.0478	0.2486	66.5496	10.9766	2.3430	2.0510	0.7887	0.7321	26.3256	0.5649	0.0185	1.7587	1.8456	1.7760	-0.1583
2576.0445	0.4740	0.7574	0.1552	42.7098	9.6304	1.8425	1.5225	0.5493	0.5676	22.3788	0.5440	-0.3051	1.8990	1.6295	1.3276	0.4325
2584.0446	0.8237	0.4995	-0.0097	24.3535	17.1848	1.9505	1.4260	0.6283	0.3345	22.4756	1.0236	-0.1959	1.4620	0.2937	-2.1121	-2.0144
2592.0447	2.5790	0.2989	-0.1024	5.0107	15.9914	2.0858	1.0381	0.6677	0.1929	22.7533	0.9739	0.3281	1.4049	0.2954	-3.4196	-2.2317
2600.0449	2.5948	0.2946	-0.1358	-0.7675	20.2186	2.1780	1.1395	0.6931	0.1233	22.6545	0.9617	0.4068	1.4204	-0.5605	-3.9423	-1.7916
2608.0450	-0.0396	0.3851	-0.1440	1.9591	24.2018	2.7866	1.6023	0.8538	0.1833	27.6425	1.0386	0.5649	0.9444	-0.1749	-4.7960	-2.0473
2616.0451	1.7504	0.2710	-0.1382	-11.2616	19.2749	2.2808	1.1815	0.5855	0.1450	23.6672	0.6753	0.2807	1.2650	0.1128	-3.3001	0.3312
2624.0453	0.6746	0.2037	-0.2168	-16.3501	23.2970	2.8127	1.3411	0.7339	0.1190	28.8347	1.0322	0.4193	0.8899	0.1021	-5.3196	-1.6497
2632.0454	-0.6622	0.0735	-0.2252	-28.1991	17.7470	2.8442	1.0667	0.6261	0.1005	27.8676	0.6621	0.6432	0.4161	1.0377	-4.1469	-1.3116
2640.0456	1.8878	-0.4536	-0.2817	-51.6419	3.3600	1.1238	-0.5209	0.0776	-0.2253	11.7091	0.3136	0.6016	-0.2664	-0.1718	-4.1360	-1.4361
2648.0457	1.0143	-0.9564	-0.3700	-61.2532	-5.9544	-0.4005	-1.7579	-0.3568	-0.5339	-0.8109	0.6422	0.2940	-2.0186	-2.1970	-7.6676	-4.2670
2656.0458	0.4489	-0.9871	-0.3289	-66.7515	-7.1872	-1.0163	-1.8264	-0.6970	-0.5293	-6.2868	0.2930	-0.4844	-1.8614	-2.3036	-5.0175	-2.1293
2664.0460	0.6758	-0.9564	-0.3675	-66.7994	-5.5433	-0.2813	-1.6136	-0.4456	-0.4667	1.0025	0.5487	-0.1134	-1.7746	-1.3104	-6.3208	-3.4466
2672.0461	-0.3779	-0.9672	-0.3459	-70.0590	-5.4891	-0.5585	-1.5169	-0.5242	-0.5017	-3.7189	0.2243	-0.1687	-2.0082	-0.9421	-5.2557	-1.9616
2680.0462	0.6553	-0.7751	-0.3116	-68.7195	4.7692	-0.5273	-0.7644	-0.4524	-0.4725	-6.4994	-0.0016	-0.5899	-0.8159	-0.6671	-2.2463	-0.0813
2688.0464	1.6060	-0.6122	-0.3567	-55.7987	6.3876	0.9081	-0.5501	0.0159	-0.2947	11.3537	0.8010	0.0797	-0.6209	-0.4165	-6.2098	-3.2297
2696.0465	2.5724	-0.4406	-0.2991	-53.4266	6.4664	1.0863	-0.4915	-0.0623	-0.1947	14.4583	0.5613	-0.0725	0.1359	-1.1082	-4.2786	-1.1704
2704.0467	2.2977	-0.3597	-0.3143	-41.8463	15.8511	1.0816	0.0768	0.1687	-0.2396	11.9067	0.9307	-0.1553	0.3198	-1.4259	-4.9339	-3.2712
2712.0468	-0.0749	-0.2547	-0.2810	-31.1979	13.9357	1.5134	0.2137	0.2494	-0.1229	17.4129	1.0472	-0.0057	-0.2426	-1.2507	-5.7873	-3.9154
2720.0469	0.7422	-0.0875	-0.2382	-39.4983	14.5575	2.2510	0.5929	0.3041	0.0413	23.4580	0.5254	0.0640	0.8152	0.5136	-2.1867	-1.1396
2728.0471	-0.1512	-0.4368	-0.3063	-45.5357	10.2092	1.3372	0.1361	0.2242	-0.1727	12.7873	0.6981	0.1310	-0.4556	1.2493	-4.5340	-3.3881
2736.0472	-3.5185	-0.4144	-0.2322	-44.9235	12.8846	0.2915	0.2600	-0.1181	-0.3054	-1.3061	0.0444	-0.3488	-1.0673	-0.5510	-1.6814	-0.7403
2744.0474	-1.2732	0.1641	-0.2290	-29.4288	29.8454	2.8136	1.7796	0.7741	-0.0062	20.9356	0.4091	0.6514	1.0031	0.6303	-1.4697	-1.4870
2752.0475	-0.8189	0.3436	-0.2248	-18.6259	27.9652	4.0390	2.0249	1.1295	0.2234	36.1357	0.8214	1.1743	1.1822	2.1544	-3.6887	-2.5079
2760.0476	-1.6193	0.6150	-0.1464	-15.0925	33.4694	4.4463	2.7263	1.1979	0.3489	37.4984	0.3383	1.0852	1.9339	2.7590	-0.3461	0.3840
2768.0478	2.8659	0.7540	-0.1989	-0.8373	35.9968	5.3577	2.7157	1.7249	0.3960	49.1117	1.1596	2.0341	2.6954	2.1561	-4.9175	-2.4977
2776.0479	0.0009	0.6869	-0.1288	2.5152	25.0704	4.5656	1.9054	1.1536	0.4254	47.0835	0.9828	1.3503	1.5928	-0.2594	-4.8331	-1.0375
2784.0480	-4.8067	0.8628	-0.0348	6.1281	24.8622	5.1491	2.6876	1.2221	0.6300	48.5512	0.3419	1.3331	1.2951	2.8346	-0.5840	0.4305
2792.0482	-1.3296	0.8020	-0.0218	8.8697	16.8337	4.9194	2.2090	1.3367	0.6156	46.6844	0.3214	1.9557	1.5765	4.0571	-1.4531	0.3151
2800.0483	-1.2607	0.7861	-0.0198	5.9415	18.4452	4.4808	1.9982	1.0895	0.5468	43.7663	0.2751	1.5007	1.6672	1.8414	-0.9631	1.1359
2808.0485	-2.0437	0.8236	-0.0426	14.6500	23.1101	4.8325	2.5912	1.4124	0.5931	45.5062	0.6507	1.6157	1.4647	3.9103	-2.5836	-0.6159
2816.0486	-1.0011	0.9531	0.0152	15.7544	27.2283	4.2818	2.7849	1.2303	0.5708	39.6670	0.3150	1.1044	2.1264	2.7399	-0.6040	2.7307
2824.0487	-2.7022	1.0815	-0.0213	12.1212	32.1674	5.5530	3.1610	1.4267	0.6822	52.4092	0.4414	1.4119	2.2450	2.3577	-0.7887	1.7779
2832.0489	-3.7423	0.4491	-0.0028	-1.5883	1.7522	3.5391	1.1931	0.7111	0.5293	36.6372	0.0174	1.2402	-0.0066	4.2553	-1.5876	1.6643
2840.0490	-5.0620	0.0830	0.0710	-16.0746	-7.5571	0.8202	0.3058	-0.1857	0.2441	7.7747	-0.9521	-0.0253	-0.8151	3.2402	3.0127	5.2813
2848.0491	-2.4612	0.1181	-0.0176	-7.9110	-0.5867	1.5338	0.5507	0.3024	0.2117	14.8061	-0.1442	0.6138	-0.4028	3.0324	-0.8999	1.5011
2856.0493	-0.4839	0.0736	0.0249	-8.3440	-7.3588	0.6513	-0.2486	-0.0730	0.1377	9.7017	-0.3383	0.3597	-0.2989	0.4580	-0.7229	3.4859
2864.0494	-3.9216	0.4553	0.0376	-1.1581	9.3572	2.2435	1.2268	0.4115	0.2906	19.5429	-0.4212	0.7093	0.3065	0.9618	1.5222	2.9725
2872.0496	-1.3772	0.4354	0.0441	10.3974	0.4996	2.5099	0.9110	0.7216	0.3729	23.6730	-0.0931	1.5291	0.2705	3.1915	-0.9703	1.0028
2880.0497	0.3303	0.5124	0.1399	11.0280	-4.5832	1.6419	0.3331	0.2757	0.3547	17.5122	-0.6264	1.0744	0.9073	0.5108	2.0301	4.3998
2888.0498	-1.2639	0.9891	0.0871	31.4268	12.1926	4.4810	1.7984	1.2803	0.6098	43.1003	0.1855	2.4029	1.4976	1.0040	-1.1080	0.1517
2896.0500	-0.3776	0.7619	0.1995	35.9831	-4.7697	2.2178	0.6121	0.6384	0.4730	23.2595	-0.3549	1.8291	0.6818	0.3486	0.0530	3.0224
2904.0501	-2.7248	0.6628	0.2660	33.5977	-3.2427	0.7597	0.7921	0.2609	0.3387	4.1862	-0.9899	0.9366	0.3641	0.7460	4.2215	5.0143
2912.0503	-2.5211	0.6358	0.1881	38.3733	1.3800	1.5294	1.3483	0.7969	0.3606	9.3720	-0.4157	1.5671	0.1386	3.5972	1.0150	1.7935
2920.0504	-1.4926	0.4035	0.2656	26.3507	-5.8566	-0.8950	0.3875	-0.1161	0.1378	-12.9403	-1.1823	0.1511	0.1495	0.8816	5.0707	6.2619
2928.0505	-1.6461	0.5279	0.2124	36.1964	0.7052	0.3129	0.9029	0.2937	0.2714	0.0310	-0.4638	0.3885	0.5029	1.3768	3.1826	2.3729
2936.0507	1.0839	0.3932	0.2071	37.7462	-10.7517	-0.0864	-0.0251	0.0742	0.3096	3.3847	-0.0963	0.1854	0.3815	0.8679	0.6271	2.1046
2944.0508	-0.3864	0.3259	0.2599	23.4054	-8.3389	-1.3749	-0.1797	-0.5726	0.1703	-10.7885	-0.8791	-1.0157	0.5804	-1.4959	5.6448	5.9662
2952.0509	0.2072	0.4274	0.1986	30.8933	-1.0253	-0.1950	0.5032	0.0335	0.2374	-1.9426	-0.3570	-0.2296	0.9266	0.4130	3.6735	2.4938
2960.0511	1.9458	0.2753	0.2126	26.2371	-5.6960	-1.4034	-0.2009	-0.3862	0.1019	-11.4556	-0.4906	-0.8113	0.9466	-1.5129	4.1290	3.8365
2968.0512	-0.4386	0.3922	0.1693	25.5374	3.1729	-0.2536	0.6100	-0.0480	0.1892	-2.8189	-0.3125	-0.5625	0.9458	-0.3720	3.9866	2.3240
2976.0514	1.2489	0.5945	0.1934	29.8862	4.7673	0.5923	1.0492	0.2657	0.3422	5.1416	-0.3419	-0.0955	1.7299	1.3640	4.1395	3.4620
2984.0515	1.6770	0.7168	0.2080	25.6655	12.5575	0.4524	1.2339	0.0803	0.2968	3.5121	-0.5547	-0.6004	2.5118	-1.3022	6.2894	5.3783
2992.0516	2.2573	0.7367	0.1285	31.9251	13.5564	1.6461	1.3374	0.5026	0.3986	17.7840	0.2381	0.0192	2.4161	-0.5575	2.3370	1.4028
3000.0518	4.1771	0.7571	0.1733	31.7026	9.3957	1.1227	0.8767	0.1927	0.4178	16.3478	0.1034	-0.4762	2.9369	-2.0727	3.4561	3.3359
3008.0519	2.1704	1.1869	0.1390	42.5816	26.9567	3.4822	2.4159	0.9275	0.6605	36.7499	0.5620	0.1493	3.7457	-1.1716	2.8251	1.3110
3016.0520	2.8797	1.3703	0.1604	48.5833	25.3939	4.5688	2.8029	1.2727	0.8762	48.3950	0.6460	0.6968	4.1167	1.3311	2.0420	1.8754
3024.0522	1.7881	1.1707	0.2032	33.5351	13.3271	3.5299	1.6577	0.5124	0.8112	42.5116	0.0657	-0.0545	3.6191	-1.3483	4.6796	4.3135
3032.0523	0.8286	1.2849	0.1717	45.3430	10.5075	5.0618	1.7708	0.9489	1.0228	60.7007	0.7036	0.7725	3.2664	-0.2346	1.3035	0.7029
3040.0525	3.3787	1.5119	0.2661	61.5033	20.6663	4.0161	2.6352	1.0372	0.9794	46.1961	0.4811	0.1934	4.3747	0.6473	3.3006	4.1705
3048.0526	0.6913	1.2414	0.2207	58.4749	26.5762	2.5632	2.8225	0.8736	0.6885	26.8853	0.5088	-0.4162	3.1657	0.6417	2.5810	3.1780
3056.0527	0.0090	0.6092	0.2254	44.4156	0.9761	0.2070	1.0249	0.0631	0.4964	8.6954	0.2467	-1.1612	1.0600	1.8529	1.2681	3.8370
3064.0529	1.7135	0.1554	0.2735	33.0098	-7.3657	-3.2409	-0.1008	-0.9276	0.1313	-24.6413	-0.3047	-2.9502	0.6367	0.1306	4.2222	7.0190
3072.0530	1.0411	-0.2600	0.1850	38.9530	-16.7925	-4.2321	-1.0821	-1.0100	-0.0756	-31.3569	0.5041	-2.8218	-1.2186	-0.5156	-1.5642	1.7304
3080.0531	1.2996	-0.4855	0.2663	30.3146	-33.2591	-5.8748	-2.3744	-1.7734	-0.1608	-43.3470	-0.1479	-3.5080	-1.8045	-2.1142	0.6069	5.0940
3088.0533	0.9877	-0.5844	0.2143	17.8038	-28.5126	-5.9128	-2.3075	-1.8242	-0.2716	-46.2848	-0.2650	-3.6085	-1.6654	-2.6783	1.7939	4.5562
3096.0534	1.8014	-0.9914	0.1776	16.2000	-47.1030	-7.0148	-3.8145	-2.1887	-0.3827	-50.4306	0.1292	-3.6390	-3.1728	-3.1982	-2.4689	2.4915
3104.0536	1.0088	-0.9145	0.2875	16.5500	-46.2952	-8.3270	-3.9005	-2.7289	-0.4505	-63.8765	-0.5782	-4.6533	-2.8742	-5.5214	1.8354	6.8139
3112.0537	0.7302	-0.6097	0.2237	26.9691	-34.7952	-5.9388	-2.6842	-1.7146	-0.2908	-45.6887	-0.1179	-2.9369	-2.4388	-2.9475	-0.8096	3.4208
3120.0538	3.0701	-0.5249	0.2904	29.1285	-38.8315	-6.4116	-2.9479	-1.8799	-0.2671	-48.5501	-0.4274	-3.0559	-1.9029	-3.4606	0.1119	6.6334
3128.0540	1.5326	-0.0913	0.2953	39.5756	-17.1854	-5.0583	-1.3281	-1.4564	-0.1071	-38.5783	-0.1963	-3.3495	-0.6463	-3.7896	1.8305	6.6131
3136.0541	2.1835	-0.0402	0.2866	45.6150	-29.5984	-3.5339	-1.6237	-1.0636	0.1681	-19.1605	0.1659	-2.2170	-0.9442	-0.8011	-1.2295	4.5780
3144.0543	2.4805	-0.1284	0.3971	34.4402	-36.3302	-5.3401	-2.3450	-1.8596	0.0371	-36.7964	-0.8706	-3.2550	-0.6693	-3.1749	4.3269	9.7689
3152.0544	-0.4935	0.1166	0.2986	46.7820	-19.6950	-3.1343	-1.0147	-1.0086	0.1598	-18.9999	-0.0328	-2.2913	-0.7385	-2.2564	1.1631	4.2724
3160.0545	-1.1958	0.0877	0.3648	37.9510	-32.5958	-3.1325	-1.5602	-1.3317	0.3020	-15.7379	-0.6054	-2.3939	-0.9742	-1.1330	3.1909	7.3865
3168.0547	-3.4307	0.3329	0.3786	24.5821	-9.4825	-2.8232	0.0568	-1.2198	0.2346	-23.6040	-1.4250	-2.8963	0.3423	-0.8356	9.9109	10.5912
3176.0548	-1.4010	0.4064	0.2820	34.6198	-11.6927	-0.8055	0.1542	-0.4409	0.4220	-1.0486	-0.4446	-1.3695	0.3563	1.4204	4.0868	5.4371
3184.0549	0.9604	0.0162	0.3632	13.8068	-35.6320	-3.3045	-2.1774	-1.8560	0.3053	-14.0730	-1.1179	-3.1436	0.1674	-3.1132	7.3693	10.2332
3192.0551	-1.0735	0.0510	0.2086	14.9747	-12.8755	-2.1522	-0.8352	-1.1916	0.1971	-9.4831	-0.2963	-2.8252	0.2155	-2.7133	4.9162	4.6523
3200.0552	1.5549	0.0693	0.2167	25.1391	-24.6713	-1.5545	-1.2795	-0.9037	0.3565	0.8547	0.0794	-1.9454	0.0417	-0.5158	1.1407	3.8788
3208.0554	0.5518	0.2379	0.2624	7.4066	-15.1025	-1.6289	-0.8591	-1.3769	0.3876	-0.3332	-0.6726	-3.1670	1.2575	-2.8862	7.1739	8.8867
3216.0555	-0.7798	0.5607	0.0789	14.4451	11.1515	1.7240	1.2444	-0.0165	0.5577	26.3473	0.5133	-1.7041	1.8613	0.2536	2.2782	2.5376
3224.0556	0.7971	0.4591	0.1826	7.7806	-1.6786	0.1636	0.2492	-0.7907	0.5512	16.4557	-0.1130	-2.8166	2.0305	-1.1940	5.2630	7.4699
3232.0558	-2.7655	0.5940	0.1097	5.0286	17.0350	1.2976	1.5724	-0.4056	0.5625	21.6873	0.1073	-2.8775	2.2220	-0.6592	6.2002	5.1139
3240.0559	-1.1049	0.6935	0.0806	20.2650	10.7356	2.9141	1.8592	0.4387	0.7739	37.2594	0.6744	-1.1151	1.9661	4.1558	1.3824	1.9190
3248.0560	0.3632	0.5628	0.2428	6.2542	-0.3035	0.2401	0.6427	-0.7480	0.5986	12.6506	-0.7042	-2.7096	2.6230	0.2964	9.4197	8.8536
3256.0562	-1.2947	0.7396	0.0538	15.7124	23.8909	2.7034	2.1382	0.4290	0.5548	29.1759	0.4498	-1.0917	2.6989	0.5747	4.4486	0.4865
3264.0563	0.0535	0.8332	0.0615	23.4486	20.0978	3.3576	2.1676	0.7326	0.6701	36.8919	0.6441	-0.3868	2.7425	2.1028	2.3047	0.2564
3272.0565	-4.6384	0.5825	-0.0760	7.4757	35.0907	3.9506	2.8839	0.9052	0.5094	32.6758	0.7856	-0.6198	2.8804	2.6376	7.5295	-8.4329
3280.0566	-4.1867	-0.2607	-0.5120	3.5099	31.9724	6.4813	2.0689	2.3954	0.2057	47.6382	3.0319	2.8538	1.6686	6.4697	0.8161	-36.1769
3288.0567	0.2200	-1.0722	-0.6308	-22.0195	13.1968	4.2834	-0.5615	1.6367	-0.2769	27.6343	3.0783	2.7143	1.5148	2.3089	3.0062	-43.6640
3296.0569	-3.6484	-1.1174	-0.8461	-33.3242	43.3057	5.4372	1.0790	2.3198	-0.5359	28.3088	3.7472	3.0988	1.1254	2.1238	0.3771	-48.9160
3304.0570	-2.7477	-1.3195	-0.9108	-41.0711	39.5814	5.3314	1.0311	2.6558	-0.6821	23.0705	3.6972	4.1885	0.1718	5.2320	-3.2703	-48.6924
3312.0572	-1.6075	-1.5411	-0.8146	-72.6390	32.3632	2.6832	0.0012	1.3373	-0.8889	0.4443	2.3418	2.0558	0.5384	1.8939	2.9714	-38.7789
3320.0573	-3.6198	-1.6052	-0.8998	-74.9335	34.7970	3.3441	0.3136	1.6315	-0.8941	7.2373	2.7992	2.5044	-0.6456	3.2593	-2.0543	-39.5945
3328.0574	-1.4361	-2.1028	-0.7747	-89.9046	3.7705	0.0838	-2.0460	0.4821	-1.1570	-20.4620	1.6188	1.9110	-1.8949	1.9334	0.2591	-33.8302
3336.0576	-1.5346	-2.3732	-0.8329	-102.2816	6.4673	-0.9407	-2.5952	0.0938	-1.4168	-32.1299	1.5907	1.2809	-1.8473	-1.1583	2.4994	-36.4859
3344.0577	-1.5883	-2.6556	-0.9623	-95.5570	2.1826	-0.4818	-3.0156	0.5690	-1.5301	-28.4728	2.5241	2.4570	-3.0231	-0.0329	-2.9775	-44.4588
3352.0578	-1.7700	-3.1058	-0.8400	-122.5702	-19.6708	-3.6306	-4.7663	-0.8381	-1.7380	-55.8940	1.1019	0.6890	-3.7280	-1.5159	3.2751	-37.2406
3360.0580	-2.5805	-2.9328	-0.8382	-118.1866	-21.2577	-2.4144	-4.4944	-0.5690	-1.5340	-41.0452	1.2995	1.2051	-3.9650	-0.2968	0.7492	-36.4063
3368.0581	-0.0725	-2.6501	-0.6960	-103.9607	-34.9183	-2.3821	-5.1131	-0.5250	-1.4270	-37.5186	0.7179	2.4671	-4.1156	-1.2657	-1.2710	-30.5834
3376.0583	0.4027	-2.4841	-0.6299	-115.3930	-26.3494	-3.1013	-4.7527	-0.8848	-1.5197	-47.1305	-0.1368	1.7420	-3.2405	-3.4841	2.7001	-23.9513
3384.0584	0.7150	-2.4502	-0.6781	-99.5730	-27.3071	-2.3223	-4.5261	-0.4133	-1.4054	-36.5449	0.7462	2.3122	-3.8731	-1.4934	-3.1099	-26.8424
3392.0585	-0.7674	-2.5560	-0.4355	-101.2378	-51.8154	-5.1371	-6.0702	-1.5435	-1.5180	-61.6478	-0.9145	1.6164	-5.1104	-3.8429	1.5066	-17.5477
3400.0587	-2.6575	-2.1411	-0.3003	-96.0832	-45.8335	-4.7810	-5.0540	-1.4272	-1.3861	-62.8266	-1.8706	1.8707	-4.7687	-2.7752	4.4624	-10.4763
3408.0588	1.5504	-1.7251	-0.1750	-69.9015	-47.1988	-4.9274	-4.5867	-1.1844	-1.1803	-58.8350	-1.7229	1.9718	-4.3241	-1.3302	-0.3371	-3.1403
3416.0589	0.7014	-1.5395	-0.0502	-78.1579	-41.9035	-6.4959	-4.3715	-1.9503	-1.2400	-72.0661	-2.6634	0.2878	-4.1269	-4.3675	2.4785	7.5802
3424.0591	-2.0251	-1.2739	-0.0691	-74.3415	-38.8386	-4.1903	-3.4689	-1.3746	-0.9158	-49.2770	-2.4259	1.1321	-4.2088	-1.2821	1.0563	6.6164
3432.0592	0.0397	-1.3687	0.0543	-72.5817	-57.6459	-5.6370	-4.6629	-1.9773	-0.8876	-57.8186	-2.9783	0.6545	-4.3960	-1.7388	2.4665	10.7941
3440.0594	-0.5330	-1.4304	-0.0136	-85.3043	-43.6101	-5.9765	-4.1889	-2.0584	-1.0865	-65.5042	-3.0337	0.0853	-3.9955	-3.4813	4.0904	10.6170
3448.0595	1.2913	-1.3424	-0.1267	-82.0560	-42.5431	-3.6517	-3.9114	-1.3300	-0.8569	-39.9114	-2.0894	1.2777	-3.5017	-1.2047	-0.0302	5.3333
3456.0596	2.1468	-1.3472	-0.0856	-94.2876	-45.4367	-4.3778	-4.4528	-1.9459	-0.8647	-41.9497	-2.4896	0.2233	-3.0839	-4.0246	1.9911	9.8516
3464.0598	-0.6737	-1.0175	-0.1690	-97.7965	-17.1405	-2.6163	-2.2950	-1.2424	-0.8120	-33.0074	-2.3076	0.4074	-2.3780	-2.3439	2.0954	9.9948
3472.0599	0.6229	-0.7725	-0.1115	-99.0544	-19.5398	-1.5265	-1.7897	-1.0587	-0.5053	-20.2661	-2.5735	0.5088	-1.4720	1.0731	3.3818	13.7425
3480.0601	1.0187	-0.9077	-0.1150	-116.9653	-23.3528	-2.2228	-2.4437	-1.7110	-0.5281	-21.3702	-2.7937	-0.7168	-1.2925	-1.2020	4.9702	16.7553
3488.0602	1.8509	-0.8969	-0.2337	-113.3100	-8.5881	-1.5792	-1.7532	-1.1436	-0.6766	-19.8178	-2.1166	-0.0491	-1.0954	-1.5436	1.8099	12.5431
3496.0603	3.8025	-0.7165	-0.2028	-106.8123	-1.2914	-1.6737	-1.4197	-1.0583	-0.7055	-22.3688	-2.1859	-0.0716	-0.1412	-2.9185	2.9243	13.6684
3504.0605	1.0322	-0.6158	-0.2528	-104.4660	5.3433	-0.4514	-0.9319	-0.8677	-0.5713	-9.0057	-1.7071	-0.1555	-0.2314	-3.2900	2.1770	10.7068
3512.0606	-0.7647	-0.4615	-0.2176	-102.9587	7.7782	0.4114	-0.2101	-0.5951	-0.4139	-4.3908	-2.0117	0.1794	0.0378	-0.4259	4.6551	10.9507
3520.0607	1.3141	-0.2139	-0.1720	-98.5977	14.3354	0.8912	0.4069	-0.3684	-0.3203	-2.3122	-2.2416	0.3297	1.4120	0.3304	7.2851	12.4339
3528.0609	4.6386	-0.2264	-0.2376	-84.2324	11.1380	1.5205	-0.0849	-0.0367	-0.2803	9.0804	-1.2244	0.9938	1.5950	-0.7491	2.3226	7.4669
3536.0610	5.8555	-0.2925	-0.2432	-89.5153	11.0424	0.9424	-0.4435	-0.2639	-0.3863	4.2891	-1.3179	0.7144	1.7806	-2.6064	2.6924	8.3424
3544.0612	4.9768	-0.1662	-0.3267	-88.9229	22.2851	2.3762	0.2644	0.1947	-0.3298	16.6556	-0.8201	1.2052	2.1010	-2.6825	1.2060	5.1877
3552.0613	3.9986	-0.0377	-0.3019	-79.9467	18.8190	3.2659	0.3287	0.3672	-0.1439	27.4751	-0.6489	1.5645	2.0681	-1.9721	0.8673	3.7972
3560.0614	2.1884	0.0980	-0.3002	-85.2934	28.0512	3.8624	1.1681	0.4677	-0.0672	30.0782	-0.8778	1.2719	2.5568	-0.8768	3.4707	4.8522
3568.0616	2.8529	-0.0000	-0.4399	-81.2520	31.5291	5.0507	1.2381	1.0191	-0.0757	42.2690	0.1486	2.1613	2.2660	-0.2952	-1.4829	-1.7558
3576.0617	1.8213	-0.0394	-0.4431	-80.0049	32.2269	4.7425	1.1586	0.9944	-0.1751	37.6626	0.0918	2.3223	1.7734	-1.2936	-2.0177	-2.0845
3584.0618	0.4423	0.1020	-0.4842	-72.9439	45.2566	5.4749	2.4117	1.5645	-0.1582	39.4030	0.3787	2.7287	1.6369	1.3917	-4.0798	-2.6804
3592.0620	3.5235	0.0126	-0.4381	-62.1226	30.7377	4.6102	1.4043	1.3364	-0.1286	38.2038	0.6509	2.6402	1.2733	1.0056	-7.2799	-1.7142
3600.0621	-0.2707	0.3474	-0.3929	-63.3344	41.9030	5.5527	2.2911	1.3415	-0.0069	45.8137	0.2403	2.4323	1.5102	-0.6612	-4.9121	1.4326
3608.0623	-3.0645	0.5938	-0.4588	-61.5029	59.5804	7.3753	4.0170	2.1178	0.1128	56.7348	0.4842	3.1212	1.6438	2.7608	-5.9826	0.2405
3616.0624	1.4462	0.0819	-0.3559	-75.1165	40.7499	3.0470	2.1737	0.8301	-0.2691	18.4388	-0.3716	1.2092	1.2286	0.9265	-3.5918	7.2471
3624.0625	0.5768	-0.0769	-0.3690	-74.9428	40.9864	1.9664	2.0165	0.5802	-0.4040	8.6769	-0.2288	0.5255	0.4541	0.3052	-5.1362	7.7470
3632.0627	-0.5698	-0.0438	-0.3426	-60.0443	34.6212	2.2819	2.0364	0.7484	-0.2466	14.5779	0.1493	0.7077	-0.2412	2.3351	-7.5796	6.3279
3640.0628	-0.4048	-0.1338	-0.2757	-63.5502	34.8444	0.4876	1.8200	0.1971	-0.4092	-3.9310	-0.3762	-0.4452	-0.1674	0.8684	-4.5420	9.8938
3648.0630	-0.3949	-0.0556	-0.3878	-57.2089	42.5327	2.2251	2.4499	0.9512	-0.3408	11.3302	0.4371	0.7410	-0.2160	2.3950	-8.8061	4.8690
3656.0631	0.0717	-0.2423	-0.3229	-65.6998	22.9540	1.3387	1.0640	0.2857	-0.2944	9.9711	0.0231	0.2567	-0.7569	1.3096	-7.8452	7.4948
3664.0632	-3.8573	-0.5155	-0.3589	-75.7111	22.4428	0.3786	0.9119	-0.0543	-0.4628	-0.8867	-0.0862	-0.4115	-2.1957	1.1216	-8.0979	7.2962
3672.0634	-5.1854	-0.8344	-0.3660	-72.9337	5.1491	-0.2129	0.0033	-0.1259	-0.4987	-4.8912	0.0459	0.0870	-3.9356	3.3042	-11.0510	4.9117
3680.0635	-5.5612	-1.1333	-0.2508	-83.7727	-14.6507	-2.5863	-1.5487	-1.2054	-0.6126	-23.0617	-0.8289	-1.1820	-4.7221	1.2822	-7.4925	9.5371
3688.0636	-7.6764	-0.7706	-0.3645	-60.7179	9.5957	-0.1476	0.4686	0.0346	-0.4871	-5.1031	0.3538	0.0454	-4.6580	3.5593	-13.0203	3.8211
3696.0638	-9.3182	-0.3316	-0.2772	-49.2634	16.3730	1.1786	1.6637	0.4181	-0.1996	5.9277	0.0637	0.3550	-4.0369	5.8571	-11.4562	6.9811
3704.0639	-11.9761	-0.6101	-0.2771	-72.6540	7.5700	0.4162	1.1318	-0.1553	-0.2428	-0.3906	-0.5464	-0.4383	-4.9456	6.7498	-9.2183	9.8410
3712.0641	-8.6015	-0.8841	-0.3985	-64.0386	2.4326	0.2880	0.4791	0.2709	-0.4184	-0.3949	0.4659	0.6610	-5.7538	7.2539	-16.5351	4.1658
3720.0642	-9.4121	-0.5231	-0.2951	-49.1185	14.1968	0.2227	1.2831	0.2585	-0.3640	-4.0923	0.1443	0.1688	-4.6466	5.1676	-12.3380	5.8804
3728.0643	-13.3045	-0.2567	-0.3539	-30.7517	25.3782	2.8773	2.7316	1.2302	-0.0699	17.5019	0.9301	1.2558	-4.5837	8.8902	-13.3408	-1.5458
3736.0645	-8.4605	-0.2610	-0.2906	-16.0311	10.5164	2.4624	1.6584	1.2498	-0.0457	17.2975	1.0207	2.0548	-4.1547	8.2475	-14.5065	-2.5493
3744.0646	-10.2705	-0.1706	-0.2344	-15.1309	18.5060	1.7120	2.0129	0.9983	-0.1522	6.0673	0.5434	1.4140	-3.8902	6.1212	-10.7564	-0.8154
3752.0647	-10.8972	-0.1742	-0.2483	4.3999	16.8941	2.2076	2.3327	1.4773	-0.0561	9.7459	1.1798	1.9921	-4.3472	9.1079	-13.1585	-5.7634
3760.0649	-6.6659	0.0818	-0.0266	23.8049	6.0005	0.6581	1.4924	0.8540	0.0389	0.3195	0.5389	1.1380	-2.9224	5.7763	-8.5218	-0.5171
3768.0650	-8.0377	0.4072	-0.0294	46.5533	16.4322	2.3686	2.5635	1.6062	0.2187	13.2982	1.0678	2.1025	-2.4193	6.9265	-9.0642	-5.3069
3776.0652	-3.8529	0.4126	0.0039	63.3970	9.2914	2.0703	1.9964	1.7784	0.2149	11.4962	1.3607	2.7194	-1.7759	6.7612	-9.6967	-8.1758
3784.0653	-3.5891	0.4882	0.0455	69.6125	14.6019	1.2140	1.7441	1.3281	0.1392	5.8613	1.4162	1.6089	-1.0896	1.8956	-7.2720	-8.2016
3792.0654	-5.7819	0.5044	-0.0033	86.1895	13.5026	2.6459	2.1943	1.9553	0.3270	19.0107	2.2001	2.4773	-1.6649	5.3213	-9.7856	-15.1007
3800.0656	-0.8656	0.6680	0.2535	86.3600	-4.5099	0.5977	1.0988	0.9884	0.4414	5.3719	0.8215	1.2420	-0.2107	3.8275	-3.1035	-4.3598
3808.0657	-0.6792	0.9936	0.4292	92.4542	-13.1468	-0.2665	0.7554	0.2654	0.6616	8.9087	0.3015	-0.0826	-0.5288	1.3301	-4.9651	7.8370
3816.0659	0.7862	1.4067	0.6830	104.0530	-23.7194	-1.6545	0.6617	-0.3507	0.8690	3.4363	-0.7370	-1.0491	-0.6712	0.9449	-5.6835	23.2778
3824.0660	1.7712	2.0675	0.8602	108.0524	-0.0307	-2.1304	2.3506	-0.5450	0.9218	-6.1800	-1.8863	-2.2999	1.6240	-1.4746	0.9452	34.8226
3832.0661	1.2541	2.2596	0.8058	128.9313	5.9277	-0.3969	3.1897	0.2838	1.1064	10.0123	-0.9604	-1.2203	1.5166	1.0856	-3.4266	29.7118
3840.0663	4.6692	2.3181	0.9254	134.7142	-4.4805	-1.3482	2.2708	-0.1790	1.1398	4.4274	-1.4205	-1.6278	2.6116	-1.2822	0.5968	31.5874
3848.0664	3.0161	2.2591	0.7660	137.5531	9.4947	0.1236	2.8490	0.3910	1.0937	15.0155	-0.4181	-1.0868	2.8494	-1.9486	-0.4981	21.7482
3856.0665	2.6506	2.0538	0.7888	148.6001	-9.2848	0.0798	1.9634	0.4693	1.1808	16.7072	-0.2066	-0.3239	1.8292	0.5734	-1.8395	17.4080
3864.0667	3.1027	2.6271	0.9754	155.5095	-4.0477	0.6327	2.6355	0.2584	1.4715	23.2852	-1.1340	-0.9094	3.7726	-1.0935	4.7959	24.6063
3872.0668	2.8950	2.5371	0.7987	163.9477	2.8135	2.3664	3.1554	1.0909	1.5240	39.9108	0.2643	0.1122	3.3118	1.3196	-1.5105	15.8453
3880.0670	5.2364	1.8367	0.8414	154.8064	-12.9426	-2.0088	1.2139	0.0232	0.9439	-5.7777	-0.3895	-1.1133	2.4452	-1.4275	2.2945	15.2149
3888.0671	2.7448	1.7911	0.7283	159.4343	4.7793	-1.5349	2.0686	0.4572	0.7692	-8.5238	0.2165	-0.9013	2.3911	-2.2893	2.1020	8.2815
3896.0672	3.8185	1.4409	0.6536	155.9109	-9.4851	-1.5643	1.2788	0.5334	0.7881	-5.1980	0.7534	-0.5287	1.4266	0.8679	-1.6041	4.5479
3904.0674	4.1081	1.0705	0.7247	131.7120	-11.9158	-4.9594	0.3844	-0.6412	0.3646	-41.8327	-0.4901	-2.4534	1.4900	-2.5390	5.5533	10.0749
3912.0675	1.5979	0.7020	0.4713	129.9799	-4.6165	-3.6212	0.6650	0.1752	0.1890	-33.6394	0.8746	-1.0979	-0.0106	-0.4979	-1.1428	-1.7643
3920.0676	4.1042	0.3789	0.5100	109.9208	-20.0106	-5.1115	-0.6311	-0.5234	0.0800	-46.1323	0.1497	-1.7448	0.2761	-0.7694	3.0949	0.4620
3928.0678	0.7779	0.4048	0.4089	99.3647	0.4789	-4.3619	0.5315	-0.3205	0.0028	-44.9083	0.3477	-2.2195	0.6362	-1.1927	5.1307	-2.3890
3936.0679	0.4036	-0.0794	0.3017	91.5462	-13.9369	-4.7590	-0.4084	-0.3449	-0.0839	-45.6987	0.9253	-1.9378	-1.0775	1.4410	0.2993	-6.5948
3944.0681	2.0161	-0.3854	0.4121	53.3442	-27.5431	-7.5155	-1.9755	-1.7816	-0.3346	-70.5645	-0.8114	-3.6733	-0.5970	-2.4119	8.7319	2.7592
3952.0682	-1.3806	-0.7602	0.1639	39.8668	-28.8211	-5.6417	-2.1159	-1.1226	-0.4015	-53.0678	0.2735	-2.0774	-2.6462	-0.1906	0.9528	-6.0863
3960.0683	0.2144	-0.9918	0.2520	19.4739	-38.1160	-7.9719	-2.8855	-1.9763	-0.5854	-75.7824	-0.8513	-3.3065	-2.6244	-0.4334	5.2069	1.4446
3968.0685	-0.4951	-0.5311	0.1808	7.4468	-1.7785	-6.2363	-0.6039	-1.5046	-0.5419	-66.6208	-0.9150	-3.8207	-0.3544	-1.3863	9.0997	3.4374
3976.0686	1.9700	-0.2203	-0.1585	-52.9749	-11.3556	1.6897	-0.7615	-0.1388	0.1251	25.2476	-0.2435	0.5762	-0.5022	1.9491	-5.0005	6.6513
3984.0687	4.7771	-0.0608	0.0051	-42.1013	-20.1145	0.4295	-1.3456	-0.5807	0.1579	15.7275	-0.8972	0.1290	0.2521	0.1495	-1.9126	11.6834
3992.0689	3.9335	0.3343	-0.0445	-27.5113	4.2804	2.1133	0.4076	0.2068	0.2424	26.1792	-0.3403	0.5954	1.3514	0.3885	-2.3584	8.7933
4000.0690	3.0636	0.4057	-0.0471	-14.9351	1.3167	2.8805	0.5282	0.5946	0.3346	33.5625	-0.0255	1.4995	0.7671	1.7546	-5.1130	6.5645
4008.0692	2.3792	0.5416	0.0274	-20.9050	8.2751	2.3943	1.0096	0.3772	0.2933	23.8518	-0.8391	0.9726	1.6215	1.1249	0.5207	10.0687
4016.0693	1.4645	0.2674	-0.0786	-16.1974	-0.9224	3.2123	0.5133	0.7983	0.3064	32.3063	-0.0431	2.0989	0.4562	3.4549	-3.5696	2.1165
4024.0694	1.3918	-0.0056	0.0213	-19.0037	-21.2809	1.2328	-1.0450	-0.0450	0.2139	17.9928	-0.6152	1.3470	-0.4377	1.5903	-1.6181	4.4707
4032.0696	-0.8850	0.0313	-0.0825	-27.6760	3.4330	1.7407	0.5171	0.3308	0.0840	13.6349	-0.4447	0.9513	0.1492	2.6367	0.3196	2.1807
4040.0697	1.2027	-0.1653	-0.1669	-33.1673	-4.0084	2.3270	0.0568	0.5576	0.1233	21.7694	0.0442	1.5473	0.0158	4.7837	-2.4443	-1.1847
4048.0699	2.1551	-0.0695	-0.1058	-42.8423	-7.1280	2.1381	-0.4393	0.0441	0.1901	24.3912	-0.4485	0.8231	0.8902	1.7895	1.1091	2.4421
4056.0700	1.1444	0.0637	-0.2758	-34.5169	21.5137	3.7056	1.4659	1.0411	0.1269	31.4024	0.6575	1.3314	1.3807	3.6590	-2.2133	-4.0776
4064.0701	2.5128	0.0686	-0.2188	-27.9210	25.1459	2.4055	1.7598	0.8965	0.0357	16.2831	0.4640	0.5809	1.7712	4.3592	-0.6249	-1.8292
4072.0703	0.3712	0.0651	-0.1607	-24.5035	19.8340	2.1531	1.5552	0.6171	0.1261	15.7340	0.2913	0.0433	1.5014	4.2102	1.5517	-1.8512
4080.0704	1.2157	-0.1571	-0.1725	-14.3273	6.2035	1.7205	0.6461	0.5910	0.1240	15.6247	0.7984	0.3330	0.6268	4.8481	-1.5185	-5.6254
4088.0705	2.5447	0.0351	-0.0902	-10.2563	11.8612	0.9675	0.7766	0.3112	0.0783	8.0541	0.3883	-0.3236	1.5652	2.0709	1.3372	-1.8779
4096.0707	0.7010	0.2145	-0.1237	1.5867	17.3324	2.4493	1.3457	0.8214	0.2092	21.6152	0.8763	0.4885	1.4391	2.4504	-0.5926	-5.5619
4104.0708	1.7508	0.0942	-0.0006	14.4153	-1.9090	0.9030	0.1374	0.3215	0.2193	11.5335	0.6149	0.1495	0.8247	1.8870	-0.0965	-4.2150
4112.0710	0.1760	0.2964	0.0566	23.7361	5.5586	0.9315	0.7745	0.3503	0.2686	9.4812	0.4546	-0.1865	1.1915	1.4080	2.1253	-3.3919
4120.0711	-1.5354	0.5258	0.0317	29.9811	12.3833	2.7577	1.7100	1.0267	0.4296	23.0126	0.5925	0.9932	1.3343	3.7725	1.5307	-5.6235
4128.0712	-1.1482	0.5697	0.1111	24.8703	7.1386	2.3215	1.4601	0.7391	0.4602	18.5926	-0.0832	0.7883	1.7091	3.6539	4.9412	-2.2472
4136.0714	-1.7552	0.3987	0.0376	19.5825	6.9098	2.4419	1.2744	0.7763	0.3983	20.0131	0.2536	0.8473	1.2658	3.7040	3.5074	-5.1622
4144.0715	-0.0509	0.2624	0.0217	13.3483	6.0138	1.6163	0.8824	0.6216	0.2221	10.7934	0.1044	0.8259	1.2819	2.6106	3.4806	-4.5099
4152.0716	0.9485	0.0975	0.0107	8.8287	4.3914	0.6243	0.4713	0.3403	0.0869	1.8446	0.0957	0.2985	1.1886	1.6125	3.6047	-4.2301
4160.0718	0.3977	-0.1953	-0.0027	11.9350	-13.1565	0.1525	-0.7151	0.0376	0.1369	4.6500	0.5585	0.0743	-0.0319	1.8813	0.8759	-7.2788
4168.0719	0.8276	0.1486	0.0996	25.1752	-9.9673	0.6247	-0.1433	0.1998	0.3040	8.1119	0.2381	0.2430	0.8743	2.1922	3.2419	-4.8713
4176.0721	2.1736	0.5729	0.1024	43.5338	7.2517	1.9500	1.3264	0.9632	0.4261	16.6533	0.6027	0.9312	2.0448	3.4626	2.0441	-5.1369
4184.0722	2.6034	0.7228	0.1994	49.4182	2.9829	1.2178	1.0484	0.5778	0.4792	14.6495	0.3173	0.3171	1.9109	1.5236	1.3897	0.5072
4192.0723	2.4601	1.0925	0.3577	56.8126	-0.9353	1.2140	1.2952	0.3308	0.7227	19.0487	-0.3341	-0.1288	2.2167	1.5342	2.5062	8.8949
4200.0725	5.2188	1.2566	0.4406	71.4966	-8.6794	1.0667	1.0137	0.3173	0.8718	22.9618	-0.2475	-0.0810	2.5062	1.8149	0.6790	11.6526
4208.0726	4.9346	1.3873	0.4922	81.9729	-5.7944	0.5924	0.9482	0.2132	0.7922	17.9677	-0.3583	-0.0863	2.4966	-1.2817	0.8326	12.5576
4216.0728	3.3712	1.4539	0.4679	89.1253	-5.4571	1.8001	1.2357	0.6774	0.8807	26.7910	-0.1579	0.9702	2.3151	0.1003	0.4890	8.3888
4224.0729	4.8299	1.3288	0.4610	94.6245	-14.5978	1.7476	0.2894	0.5446	0.8918	30.0070	0.1815	1.0995	2.5527	-1.7136	1.0840	3.6292
4232.0730	1.4092	1.3927	0.3678	107.7711	7.3031	2.1768	1.2893	1.0363	0.6638	25.4554	0.7948	1.5135	2.3487	-4.4783	0.4979	-3.5129
4240.0732	-1.9075	1.2669	0.3536	114.5863	9.0577	2.0915	1.8984	1.4120	0.5953	16.3374	0.7682	2.0746	1.3559	-0.5942	0.8944	-7.1303
4248.0733	-2.1418	0.9971	0.4731	110.6938	-17.7981	0.3970	0.2162	0.5217	0.6472	8.0288	0.1859	1.2315	0.2902	-0.8027	2.3967	-3.6373
4256.0734	-3.3143	0.7744	0.4444	110.2200	-19.0965	-1.0844	-0.3657	0.1737	0.3712	-5.1246	0.3307	0.8445	-1.1879	-3.7460	-1.3637	-2.7385
4264.0736	-2.4126	0.6687	0.4527	107.5856	-6.3007	-3.1617	0.3310	0.0459	0.0286	-33.4001	-0.0494	0.0054	-1.2229	-3.1627	-0.6057	1.1942
4272.0737	-2.4230	0.6421	0.4494	105.5304	-4.1566	-3.3566	0.7339	0.0885	0.0490	-36.3928	-0.0598	-0.3506	-1.2357	-0.8502	-0.6632	2.4721
4280.0739	-2.7944	0.2977	0.4058	93.5932	-17.0828	-4.1583	-0.4621	-0.3466	-0.0689	-39.4080	0.0115	-0.5519	-2.4553	-2.0759	-2.9210	1.9921
4288.0740	-2.2931	0.1988	0.3982	79.4398	-12.6177	-5.2656	-0.7765	-0.8392	-0.2784	-50.4546	-0.3550	-1.4072	-2.1840	-5.5217	-0.8969	4.6163
4296.0741	-2.8040	0.1519	0.3077	73.8596	-9.3409	-4.2748	-0.5125	-0.4951	-0.2603	-41.6087	0.0248	-0.8304	-2.4402	-4.2726	-3.3119	2.1816
4304.0743	-1.6995	-0.3024	0.3158	55.1982	-31.3709	-5.8412	-2.3656	-1.2661	-0.4083	-51.6504	-0.4132	-1.2222	-3.3581	-5.5091	-2.5664	3.1620
4312.0744	-1.6843	-0.4188	0.2575	45.5894	-27.6619	-6.0595	-2.5970	-1.4031	-0.5562	-54.2706	-0.3503	-1.3748	-3.3643	-7.7372	-2.5421	2.0666
4320.0745	-3.1401	-0.4515	0.1428	42.0634	-16.3712	-5.1334	-1.7919	-0.8499	-0.6390	-50.7359	0.0573	-0.6204	-3.7885	-6.0981	-5.3136	-1.0200
4328.0747	-3.7902	-0.5655	0.1821	25.6659	-18.0221	-6.1702	-2.0532	-1.3695	-0.7434	-62.3259	-0.7020	-1.4274	-3.6708	-6.8690	-1.1424	2.5757
4336.0748	-3.4361	-0.4325	0.1259	23.3056	-10.6955	-4.8698	-1.4321	-0.9838	-0.6301	-50.0103	-0.3965	-1.0505	-3.1296	-5.7314	-2.2186	1.6378
4344.0750	-2.5006	-0.2680	0.1356	24.8735	-7.7913	-4.1563	-0.9863	-0.7445	-0.5136	-43.2289	-0.4077	-0.7729	-2.5881	-4.4453	-2.3906	2.9640
4352.0751	-3.5323	-0.1292	0.1823	22.3198	-8.2291	-3.7663	-0.9127	-0.9044	-0.3860	-37.6825	-0.7058	-1.0616	-2.2292	-5.1045	-0.1376	4.9158
4360.0752	-3.0341	-0.2014	0.1083	18.2782	-9.5673	-3.0108	-0.9650	-0.6521	-0.3517	-28.9841	-0.3085	-0.5338	-2.4998	-3.9346	-3.0514	3.0126
4368.0754	-2.3782	-0.1923	0.1267	10.8117	-5.0892	-3.5744	-0.7845	-0.8234	-0.4356	-36.8709	-0.7067	-0.9725	-1.9953	-4.3726	-0.6831	5.5449
4376.0755	-3.1198	-0.0319	0.0818	11.2679	1.5511	-2.0186	-0.1058	-0.4038	-0.2704	-22.3280	-0.4012	-0.5295	-1.5236	-3.0205	-1.0333	3.5561
4384.0757	-0.6762	-0.1823	0.0135	4.9499	-1.6460	-1.9461	-0.5656	-0.3887	-0.3039	-18.6730	-0.0152	-0.4391	-1.3884	-3.0458	-3.1423	1.9635
4392.0758	-2.0323	-0.0849	0.0547	6.6229	4.4956	-2.3184	-0.2274	-0.5805	-0.3183	-23.5332	-0.2413	-1.1204	-1.0902	-4.3670	-0.6155	3.3186
4400.0759	-5.6415	0.4765	0.1004	26.1574	14.0589	0.7764	1.7076	0.4210	0.1859	3.0418	-0.0772	0.0388	-0.5676	1.2673	-0.2933	2.3492
4408.0761	-4.0241	0.8013	0.1565	31.9920	18.0640	1.8524	2.5096	0.8160	0.4007	11.8658	-0.3122	0.5458	0.5656	3.7580	1.0490	4.9435
4416.0762	-3.8044	0.6549	0.1496	26.9736	14.4537	1.0881	1.9326	0.5596	0.2530	4.7559	-0.4478	0.4667	0.1641	1.9647	0.8688	5.1695
4424.0763	-4.3295	0.4524	0.1240	14.0502	7.1439	0.9623	1.4342	0.4224	0.2035	3.0350	-0.7031	0.6809	-0.3114	2.7738	1.5402	4.7411
4432.0765	-1.8588	0.1765	0.0689	-3.5653	4.8327	0.0791	0.7877	0.1258	0.0058	-6.0230	-0.8520	0.3550	0.0093	1.8778	2.7571	4.5125
4440.0766	-0.8229	-0.4199	-0.0116	-15.6208	-12.5427	-1.5911	-1.0156	-0.4217	-0.2693	-17.6276	-0.5406	0.0831	-1.4591	0.2746	-0.1194	1.0406
4448.0768	-1.7790	-0.6292	-0.0104	-26.4389	-21.0090	-2.1788	-1.7595	-0.8430	-0.3174	-21.3019	-0.7838	-0.3327	-1.9148	-0.5442	1.4342	0.9042
4456.0769	-1.2114	-0.5790	-0.0478	-30.8535	-14.5821	-1.6522	-1.4013	-0.7104	-0.2946	-17.1002	-0.6637	-0.3872	-1.2762	-0.4436	2.1405	0.1438
4464.0770	0.2527	-0.6988	-0.0670	-29.7294	-16.5982	-2.1437	-1.6460	-0.7677	-0.3426	-20.7111	-0.4199	-0.6423	-1.2423	-0.1195	1.3522	-0.9602
4472.0772	-0.3662	-0.4863	-0.0548	-21.6887	-7.2630	-1.5080	-0.9928	-0.5977	-0.2506	-15.5167	-0.2571	-0.8316	-0.4853	-0.7686	2.8469	-2.0289
4480.0773	-2.0131	-0.3498	-0.0572	-12.6471	-8.7228	-0.1850	-0.7547	-0.2643	-0.0540	-1.4461	0.0431	-0.1944	-0.6393	0.3039	1.8818	-4.6981
4488.0774	-4.6356	-0.0909	0.0247	-6.7874	-8.3943	0.7906	-0.0863	-0.0836	0.1816	5.9454	-0.3934	0.0759	-0.4137	2.4364	4.8976	-3.3049
4496.0776	-4.3954	0.4635	0.0742	10.7854	12.0378	2.4569	1.8860	0.7198	0.3983	14.7461	-0.4296	0.6532	1.3395	4.9042	7.4451	-2.7397
4504.0777	0.3945	0.4111	0.0977	25.8464	5.8982	1.5007	1.2641	0.7497	0.3138	7.9576	-0.0595	0.8500	1.6674	4.3198	4.9120	-3.5203
4512.0779	0.1944	0.3701	0.1189	31.6259	-1.6738	1.0338	0.3438	0.3976	0.2815	9.4256	0.1288	0.6685	1.0949	0.4912	3.1560	-3.9077
4520.0780	-0.8516	0.4469	0.1147	35.9241	-1.4740	1.6549	0.5105	0.5664	0.3612	16.0279	0.2772	0.9975	0.8639	0.8236	2.0409	-4.6496
4528.0781	1.9027	0.2038	0.1617	34.7331	-11.4166	-0.1815	-0.2221	0.1773	0.2193	-1.3711	-0.0002	0.4275	0.7725	1.7136	2.9559	-2.8719
4536.0783	0.3736	0.3160	0.1661	37.0135	-8.7779	0.3286	-0.0457	0.1892	0.2896	4.8665	0.0713	0.3837	0.7064	0.6472	2.8012	-2.8691
4544.0784	-0.8455	0.4100	0.1902	40.4341	-9.4169	0.7090	0.1211	0.2081	0.3986	9.9543	0.0713	0.3333	0.5721	1.0281	2.7055	-2.2128
4552.0786	0.2379	0.2715	0.2207	39.9151	-6.6984	-1.1485	0.0285	-0.2140	0.2061	-9.1875	-0.0973	-0.8768	0.6870	0.1710	4.2412	-0.1080
4560.0787	-0.1015	0.2136	0.1580	35.9723	3.2091	-1.4276	0.4807	-0.1541	0.0728	-14.0720	0.1463	-1.2413	0.5579	-0.1337	2.8424	-0.2775
4568.0788	0.4768	0.1743	0.1674	35.5127	3.8786	-1.9029	0.6334	-0.1818	0.0428	-19.8242	0.0709	-1.5170	0.6007	1.1088	3.0894	0.8411
4576.0790	0.7221	0.4893	0.1818	46.3727	15.9429	-0.9771	1.6284	0.1943	0.1684	-12.4192	0.2691	-1.4285	1.5194	1.3692	3.3193	1.1159
4584.0791	2.6197	0.5496	0.1348	42.8666	18.1476	-0.3557	1.5566	0.2998	0.1984	-3.2436	0.5743	-1.2212	1.9231	0.2206	1.1032	1.3542
4592.0792	3.9341	0.1583	0.1118	30.0553	6.0441	-2.1434	0.0782	-0.4073	-0.0427	-15.5958	0.5145	-1.9441	1.0712	-2.8150	-0.1119	2.1613
4600.0794	2.0370	0.2405	0.0929	31.5488	11.1043	-1.6219	0.4358	-0.2144	-0.0598	-12.6460	0.5388	-1.5100	0.6811	-3.3522	-1.1459	1.7766
4608.0795	2.7493	0.3634	0.0828	29.1251	17.8901	-1.0506	1.0720	0.0831	-0.0346	-10.6819	0.4039	-1.1330	1.2593	-1.9047	-0.5476	2.7547
4616.0797	2.5082	0.3334	0.0417	25.9486	22.7032	-0.9565	1.2491	0.1089	-0.0715	-10.1796	0.5897	-1.3375	1.3424	-2.2736	-0.8212	1.7954
4624.0798	2.1522	0.4955	0.0241	28.4013	24.1393	0.4195	1.5936	0.4518	0.0987	4.1202	0.7892	-0.7093	1.5734	-1.3343	-1.8364	0.8417
4632.0799	3.5200	0.1450	-0.0003	13.2425	9.1608	-0.4447	0.3463	-0.0223	0.0272	0.3092	0.6892	-1.0509	1.0721	-1.4385	-1.9422	0.7602
4640.0801	0.2205	-0.5757	-0.1035	-14.5598	-5.2704	-2.2972	-1.2282	-0.7891	-0.3338	-16.5710	0.5486	-1.6896	-1.2763	-2.8517	-2.9835	-1.5802
4648.0802	-0.2716	-0.9247	-0.1186	-25.5376	-12.9186	-3.5898	-1.8773	-1.0546	-0.5636	-32.7848	0.1578	-1.6649	-2.1474	-2.1455	-1.9063	-2.2274
4656.0803	0.8451	-1.0948	-0.1108	-23.6245	-20.9600	-4.4343	-2.6523	-1.3360	-0.6283	-37.9123	0.2868	-1.9775	-2.4014	-3.1849	-2.2886	-3.3637
4664.0805	-3.2011	-1.1616	-0.1252	-29.6893	-26.1466	-3.8597	-2.8493	-1.4121	-0.5674	-31.3842	0.1792	-1.7313	-3.5259	-3.1429	-2.6604	-4.2360
4672.0806	-2.6009	-1.0590	-0.0766	-29.9945	-28.4149	-3.4615	-2.6353	-1.2356	-0.4853	-30.7579	-0.2853	-1.1562	-3.0223	-1.1140	-0.1957	-3.1352
4680.0808	-0.8628	-0.8926	-0.0940	-19.2527	-24.4815	-2.6763	-2.4373	-0.9440	-0.3934	-20.8444	0.2264	-0.8318	-2.4150	-1.8636	-2.1505	-4.8125
4688.0809	-2.0448	-0.5988	-0.1083	-12.6539	-12.8697	-1.1606	-1.2395	-0.3851	-0.2276	-9.0276	0.4125	-0.3126	-1.9485	0.0167	-2.7662	-4.9776
4696.0810	-1.0107	-0.3423	-0.0700	-6.3395	-4.6898	-0.5509	-0.2533	-0.0350	-0.0952	-6.2843	0.2877	-0.2095	-0.9462	2.4644	-1.3062	-3.1273
4704.0812	-3.0300	-0.1871	-0.0723	-2.7557	-0.7345	0.1758	0.0206	0.0108	0.0014	3.0798	0.4717	-0.2557	-1.1588	1.0975	-2.4952	-2.8564
4712.0813	-3.5780	-0.1312	-0.0431	-7.6981	-1.3037	0.3329	0.1195	-0.0393	0.0417	3.4293	0.0850	-0.2065	-0.9806	1.4991	-0.5960	-1.1511
4720.0815	-0.2039	-0.3371	-0.0336	-12.5431	-14.3350	-0.5571	-0.9777	-0.4190	0.0186	0.5247	0.1266	-0.5795	-0.8703	1.0839	-1.1329	-0.4891
4728.0816	-0.4925	-0.3931	-0.0659	-11.0242	-20.2295	-0.2147	-1.5199	-0.4856	0.0724	9.4899	0.5593	-0.4907	-1.4539	-0.1956	-4.2137	-1.8976
4736.0817	0.5337	-0.1796	-0.0730	-10.2129	-9.6710	0.5460	-0.7212	-0.0996	0.0895	12.4870	0.4506	0.0312	-0.5686	0.3413	-3.4491	-1.1088
4744.0819	1.7910	-0.1862	-0.1257	-17.7416	-4.9680	0.6950	-0.7572	-0.0496	-0.0132	13.6476	0.5202	0.2642	-0.3683	-1.2944	-4.7929	-0.6449
4752.0820	-0.2120	-0.3345	-0.1831	-30.0281	-3.9473	0.6784	-0.8659	-0.1230	-0.1302	11.9015	0.4280	0.3758	-1.1283	-1.8736	-5.4955	-0.9950
4760.0821	0.1746	-0.3771	-0.1678	-36.0434	-3.2233	0.2435	-0.7538	-0.2011	-0.1823	4.9704	0.0767	0.2009	-0.9006	-0.9138	-3.5501	0.4850
4768.0823	0.5526	-0.2397	-0.1054	-22.0816	-13.3600	0.8159	-1.1490	-0.1511	0.0321	15.9436	0.2492	0.5825	-0.9890	-0.7777	-4.8101	0.1884
4776.0824	-0.5072	-0.0867	-0.0607	-15.2106	-17.3778	1.6122	-1.0588	0.0268	0.1887	24.1495	0.1258	1.1898	-1.1007	0.0762	-4.7022	0.3357
4784.0826	-0.7052	-0.0645	-0.0800	-23.8167	-4.0314	1.0234	-0.4169	-0.0035	-0.0088	12.5093	-0.2109	0.8200	-0.7429	-0.8686	-3.0740	2.6498
4792.0827	-0.7413	0.1695	-0.0504	-7.0620	4.6565	1.3524	0.4013	0.2867	0.0860	14.7939	0.0989	0.6901	-0.2971	-0.2212	-3.6788	2.4870
4800.0828	-0.9122	0.2519	-0.0083	-3.9612	-0.3604	1.8755	0.6082	0.3222	0.3292	22.8000	0.1106	0.4184	-0.0583	2.7368	-2.8874	3.4241
4808.0830	-1.4481	-0.0830	-0.0909	-29.8097	-1.5731	1.1448	0.1119	-0.0934	0.1425	15.8809	-0.0699	-0.2365	-0.5368	2.0721	-2.3923	4.0720
4816.0831	-0.3766	-0.1586	-0.1577	-34.1603	4.1300	1.1359	0.1423	-0.0037	0.0210	14.3971	0.1865	-0.1710	-0.2942	1.0584	-3.1655	2.1992
4824.0832	-0.4497	-0.2084	-0.1643	-39.7982	1.4072	1.1804	-0.0576	-0.1567	0.0665	17.1164	0.1834	-0.4849	-0.2563	1.0964	-2.6995	2.4585
4832.0834	-2.5670	-0.2515	-0.1575	-44.1274	-2.8577	1.3682	-0.2477	-0.2833	0.1125	19.8335	0.0266	-0.4930	-0.7763	1.1353	-2.1067	2.4079
4840.0835	-0.7233	0.0714	-0.1389	-37.8093	4.2240	2.7280	0.5372	0.2033	0.2921	31.3403	0.0304	0.1857	0.4952	2.4705	-1.3560	3.0235
4848.0837	0.6817	0.0359	-0.1875	-44.2875	5.1969	2.9513	0.3849	0.1682	0.2958	36.5433	0.2941	0.0147	0.7421	1.7720	-2.8201	3.1025
4856.0838	-1.9622	0.1411	-0.1493	-34.7927	0.1059	3.5695	0.2282	0.1954	0.4252	44.8547	0.3414	0.3893	0.0961	1.0040	-3.4489	2.0461
4864.0839	-2.7044	0.7703	-0.0330	-24.3151	5.3119	6.0649	1.4942	0.7898	0.8700	66.7964	-0.2214	1.4530	1.6048	3.5914	0.3409	5.1735
4872.0841	-0.6614	0.7030	-0.0864	-30.4616	9.5398	5.9500	1.5432	0.8282	0.7947	65.5286	-0.0200	1.2884	2.0656	3.5081	-0.3385	4.8730
4880.0842	-0.1119	0.5348	-0.1405	-22.9427	15.9064	4.6831	1.3572	0.7342	0.5119	52.2999	0.5088	0.8675	1.5553	0.7010	-3.1153	2.3747
4888.0843	-2.4521	0.7822	-0.0683	-15.4375	19.1023	5.2987	2.0613	0.9402	0.6408	54.8419	0.0988	1.2314	1.5896	1.9832	-1.2245	4.1487
4896.0845	-2.9636	0.7127	-0.0081	-11.4090	10.9190	4.6931	1.8261	0.7974	0.6767	48.8627	-0.1604	1.0856	1.2100	3.7263	-0.0320	4.8404
4904.0846	-1.1734	0.9517	0.0089	0.9056	20.8915	4.9412	2.4887	1.0084	0.7405	51.5842	0.1571	0.8201	2.1839	3.2422	-0.4602	5.4062
4912.0848	-0.3778	1.2801	0.0294	11.2901	24.7515	6.4727	3.0750	1.4673	0.9645	67.3411	0.3346	1.5699	2.9390	3.9789	-1.2935	5.5357
4920.0849	0.3048	1.1112	0.0689	11.0074	10.8822	5.6333	1.9984	1.1618	0.8854	61.2702	0.0676	1.8406	2.3116	2.8593	-1.3676	5.6803
4928.0850	-0.3322	0.9854	0.0352	-1.4865	14.2746	5.0842	1.9336	0.9276	0.7430	54.6044	-0.1191	1.3892	2.1420	1.7529	-0.6131	6.7064
4936.0852	-0.6257	0.6957	-0.0105	-13.9029	6.5585	4.6149	1.3317	0.6552	0.6978	52.2915	-0.0574	0.9795	1.5688	2.6353	-0.8493	5.6532
4944.0853	0.0300	0.5597	0.0027	-20.4961	-1.7469	4.0393	0.5211	0.3128	0.6384	49.1495	-0.2731	0.8494	1.3935	1.1155	-0.1103	6.1431
4952.0855	-1.9813	0.6263	-0.0032	-22.0899	4.3234	4.2741	0.9368	0.4516	0.5681	47.0829	-0.5100	1.2454	1.0881	0.6496	0.2444	6.5313
4960.0856	-2.6367	0.1120	0.0427	-25.1583	-15.3500	1.5986	-0.5692	-0.3240	0.3312	23.0134	-0.8161	0.3661	-0.5128	0.5761	0.8664	6.3244
4968.0857	-0.6611	-0.3018	0.0780	-32.2903	-30.9922	-0.8500	-2.1202	-1.2168	0.1433	4.7927	-0.9775	-1.0024	-0.9648	-1.3571	2.1537	7.1995
4976.0859	0.0462	-0.3809	0.0438	-30.9720	-23.3229	-1.5647	-1.8710	-1.2065	-0.0197	-4.9599	-0.7805	-1.3944	-0.8191	-1.8725	1.9644	6.1489
4984.0860	-0.1833	-0.2899	0.0430	-18.4111	-7.9896	-2.1394	-0.9570	-0.9638	-0.1788	-17.4498	-0.6309	-1.6239	-0.4171	-2.2138	2.8362	4.6724
4992.0861	0.0757	0.1821	0.0525	3.5474	8.6999	-0.2766	0.5700	-0.0839	0.0088	-4.5989	-0.2536	-0.6221	0.8285	-0.8387	2.8024	2.2660
5000.0863	0.7843	0.1878	0.0470	8.7338	6.9432	0.0726	0.5945	0.1416	0.0498	-2.0841	-0.1050	-0.1499	0.9570	0.3712	2.4937	0.2883
5008.0864	0.5534	-0.2091	-0.0501	-3.9740	5.8850	-0.7783	-0.0002	-0.0908	-0.1859	-11.8579	0.1341	-0.5442	0.5167	-0.4573	2.9350	-4.1762
5016.0866	0.2448	-0.3344	-0.1342	5.5045	9.9383	-0.2464	0.1634	0.4779	-0.3130	-13.3928	0.6547	0.6253	0.3614	0.4214	2.2400	-12.4876
5024.0867	-0.8772	-0.2073	-0.0843	18.4033	11.9557	-0.1485	0.3999	0.6881	-0.3355	-17.0417	0.4645	1.2616	0.3843	-0.0253	3.8171	-14.1382
5032.0868	-2.7838	0.1662	-0.0463	22.8703	19.2214	1.3948	1.3202	0.9357	-0.0609	-0.8915	0.4090	1.3234	0.9339	0.5775	4.5367	-11.9291
5040.0870	-1.2710	0.2191	0.0324	31.3092	13.1793	0.8865	1.3794	0.9157	0.0430	-4.8476	0.2331	1.1150	1.0893	3.2489	4.8432	-9.2512
5048.0871	1.2768	0.0855	0.0729	32.0122	10.9308	-0.8879	0.9678	0.5750	-0.1526	-22.7274	-0.0096	0.4967	1.1912	2.4354	5.4158	-6.7704
5056.0872	2.2019	0.2689	0.0182	33.1129	17.3511	0.3826	1.2206	0.8908	-0.0824	-8.0922	0.4115	1.0791	1.5798	0.8411	2.5049	-7.2966
5064.0874	1.8139	0.2969	0.0467	25.7883	16.2610	0.1021	1.0382	0.6065	-0.0950	-9.3261	0.0499	0.7427	1.5482	-0.5702	3.3918	-4.0660
5072.0875	0.7389	0.2819	0.0466	14.2080	18.0383	0.1071	1.1657	0.4237	-0.0869	-9.8482	-0.2764	0.3242	1.6727	-0.4866	5.4400	-2.2616
5080.0877	1.2072	0.3525	0.0354	12.6462	17.9223	0.9553	1.3865	0.6535	0.0289	-1.8383	-0.2484	0.7311	2.0664	1.0830	5.7341	-2.8364
5088.0878	1.8263	0.2475	0.0404	4.0186	21.5024	-0.1977	1.2703	0.3127	-0.1534	-14.9888	-0.5753	0.0175	2.2960	-0.4452	7.7875	-0.9363
5096.0879	3.9263	0.0739	0.0069	1.8349	14.1355	-0.7218	0.2774	0.0716	-0.2533	-15.3693	-0.2822	0.0011	2.0859	-2.9488	5.6778	-2.2816
5104.0881	4.9985	-0.1867	0.0331	-0.5839	-5.0088	-1.6600	-1.2013	-0.4053	-0.2838	-18.1007	-0.3270	-0.0945	1.2823	-4.1042	4.6016	-2.4564
5112.0882	3.1795	-0.2669	0.0161	-8.1647	-3.6470	-1.6616	-0.9905	-0.4675	-0.2858	-19.8575	-0.4626	-0.3926	1.0457	-2.9138	5.9489	-2.6367
5120.0884	5.0353	-0.0151	0.0067	2.6378	1.7331	-0.4473	-0.5248	0.0233	-0.1650	-8.0122	-0.1169	0.4235	1.8233	-2.7798	4.2885	-3.7367
5128.0885	4.4419	0.0729	0.0120	-0.7075	10.8805	-0.7723	-0.1370	-0.0415	-0.2858	-14.1575	-0.3871	0.2162	1.9718	-4.6142	5.0551	-1.3680
5136.0886	1.7745	-0.2578	-0.0540	-22.4259	10.1988	-1.3674	-0.1786	-0.3144	-0.4109	-22.5468	-0.6288	-0.4266	1.1218	-2.7613	6.3581	-1.4699
5144.0888	3.7750	-0.5297	-0.0371	-26.8714	-5.1398	-2.4584	-1.3266	-0.7815	-0.4247	-27.3803	-0.6041	-1.0128	0.8265	-2.5756	6.1982	-1.3468
5152.0889	2.7876	-0.3346	-0.0534	-23.6921	10.2617	-2.1045	-0.4321	-0.6353	-0.4419	-26.4408	-0.4639	-1.3841	1.3903	-3.9427	6.7673	-1.0432
5160.0890	2.4374	-0.4220	-0.0811	-28.4271	10.1442	-2.0549	-0.4705	-0.5928	-0.4877	-27.7940	-0.4975	-1.2071	1.2850	-3.4664	7.2467	-2.3588
5168.0892	4.3587	-0.9378	0.0021	-29.8067	-22.0193	-4.7421	-3.0158	-1.6130	-0.6426	-45.2345	-0.7859	-1.9197	-0.0351	-5.4966	7.3918	-2.1608
5176.0893	3.9875	-0.8824	0.0254	-18.3203	-24.1825	-4.6336	-3.0629	-1.5813	-0.5567	-41.8005	-0.4989	-2.0015	-0.1501	-5.6030	6.5950	-3.5320
5184.0895	5.8627	-0.5174	-0.0009	-8.2054	-6.7275	-3.2600	-1.8194	-0.9440	-0.4620	-31.7119	-0.1327	-1.4899	1.2865	-5.3632	6.0659	-4.1493
5192.0896	4.8709	-0.3513	0.0091	2.8198	2.8629	-3.1080	-1.1593	-0.7347	-0.4763	-32.7830	0.0237	-1.4795	1.3962	-6.0218	5.6697	-4.5210
5200.0897	2.8803	-0.2414	0.1090	15.1090	-4.7713	-2.9980	-1.0583	-0.6973	-0.3059	-32.2107	-0.2933	-1.2736	1.0270	-3.8000	7.3386	-3.9142
5208.0899	5.0596	-0.3795	0.1704	16.2548	-18.4604	-4.1358	-2.1431	-1.1339	-0.3424	-39.0485	-0.5119	-1.5606	0.9500	-4.9326	7.9831	-2.6725
5216.0900	4.6213	-0.3270	0.1687	28.5407	-20.1465	-3.8600	-2.2548	-1.0459	-0.2735	-32.8631	-0.0279	-1.4698	0.5634	-5.7047	5.3027	-4.4143
5224.0901	4.9503	0.1541	0.2745	46.9590	-13.8552	-2.6328	-1.1148	-0.5793	0.0248	-22.8102	-0.2206	-1.0499	1.7372	-3.3629	7.2572	-2.0790
5232.0903	6.2476	0.2827	0.2765	53.4556	-6.2165	-2.6148	-0.7004	-0.4394	0.0076	-23.6344	-0.0595	-1.1477	2.3575	-4.0219	7.0685	-1.8520
5240.0904	3.7861	0.1297	0.2349	51.0312	-11.5561	-2.4859	-1.1586	-0.5633	0.0029	-19.4508	0.2169	-1.1512	1.2743	-4.7932	5.0768	-4.0977
5248.0906	3.2074	-0.0140	0.2443	32.9174	-16.3848	-2.8877	-1.4891	-0.8858	-0.0441	-24.6194	-0.4137	-1.4030	1.2297	-4.3028	8.1511	-1.9392
5256.0907	5.0688	-0.4649	0.1204	13.8231	-21.2242	-3.7044	-2.2434	-1.0032	-0.3018	-33.0879	-0.1894	-1.3230	0.5638	-3.7142	5.6784	-4.0794
5264.0908	4.5350	-0.7849	0.0371	-5.6430	-28.2681	-4.0452	-3.0639	-1.2446	-0.4651	-34.9440	-0.2285	-1.1447	-0.4921	-4.5442	3.5486	-4.3767
5272.0910	2.0176	-0.7157	-0.0244	-17.9493	-9.9019	-3.7964	-2.0606	-1.1196	-0.6267	-39.4390	-0.4575	-1.2946	-0.3994	-5.6655	4.7429	-3.2636
5280.0911	0.7679	-0.8390	-0.0339	-8.3889	-10.2445	-4.3525	-1.7765	-0.9792	-0.6635	-46.7265	-0.1432	-1.4512	-1.2567	-2.9962	2.7996	-4.9342
5288.0913	0.5172	-1.0894	0.0465	-13.2332	-31.0781	-5.6254	-2.8452	-1.5714	-0.5969	-53.6756	-0.5657	-2.1350	-2.2076	-1.0398	3.5506	-1.9764
5296.0914	0.1272	-1.1836	-0.0261	-23.4992	-26.3735	-5.5510	-2.7625	-1.5897	-0.6796	-52.7789	-0.3800	-2.3190	-2.4553	-1.5967	1.9807	-2.0432
5304.0915	-0.2696	-1.2001	-0.0309	-18.5273	-27.3432	-5.7035	-2.8243	-1.5478	-0.7097	-53.5459	-0.2104	-2.1836	-3.0073	-1.7938	-0.2156	-2.1000
5312.0917	-0.9149	-1.0874	0.0313	-13.0733	-29.2421	-5.7247	-2.6928	-1.5737	-0.6313	-53.8181	-0.4651	-2.1931	-3.0132	-1.2732	0.7551	-0.3049
5320.0918	0.1861	-0.9323	-0.0135	0.8830	-17.5730	-5.0829	-1.8413	-1.0331	-0.6164	-49.8154	0.1745	-1.8344	-2.5798	-0.3953	-1.9348	-2.6745
5328.0919	0.6403	-0.7465	-0.0297	4.7463	-4.8457	-4.7804	-1.0158	-0.7655	-0.6457	-49.5093	0.2985	-1.8036	-2.1133	-0.7179	-2.9518	-1.3116
5336.0921	-0.1437	-0.6711	-0.0999	-10.0858	5.3900	-3.7303	-0.3106	-0.5186	-0.6352	-42.2588	0.2107	-1.5403	-1.7745	-0.0294	-2.8550	-0.3547
5344.0922	0.5908	-1.1009	-0.1839	-30.9837	-8.3626	-4.2790	-1.5052	-0.8850	-0.7365	-42.9737	0.3152	-1.6831	-2.7363	0.3355	-5.0204	-1.1780
5352.0924	-0.5064	-1.4892	-0.2509	-58.1299	-15.9336	-5.2010	-2.4324	-1.4889	-0.9048	-48.9674	0.0743	-2.4134	-3.7055	-0.8398	-5.2152	0.2704
5360.0925	-0.8830	-1.4663	-0.3504	-74.3205	-2.3711	-4.2562	-1.5604	-1.1965	-0.9306	-43.7343	0.1443	-2.3552	-3.1898	0.3478	-5.0556	0.2039
5368.0926	-0.9389	-1.6715	-0.4065	-89.0875	-3.7975	-4.6217	-1.8414	-1.3761	-1.0347	-46.9958	0.0998	-2.6062	-3.5871	0.4800	-5.6691	0.6786
5376.0928	-3.3883	-1.7550	-0.4429	-98.3236	-2.5164	-4.4652	-1.7835	-1.4438	-1.0726	-46.4057	0.0144	-2.6658	-4.2106	0.3908	-5.7644	0.5443
5384.0929	-2.0193	-1.4729	-0.4061	-87.2371	5.0381	-3.6552	-0.8707	-0.9728	-0.9408	-42.0377	-0.0076	-2.1825	-3.1823	2.4941	-4.7748	1.0545
5392.0930	-1.0676	-1.5726	-0.3698	-86.1953	-4.6466	-4.3995	-1.6138	-1.2274	-0.9877	-46.7279	-0.1610	-2.1674	-3.5926	1.6841	-5.3665	2.1530
5400.0932	-1.4678	-1.5127	-0.3778	-82.1506	-7.5127	-3.7449	-1.8312	-1.1068	-0.9285	-38.3234	0.0157	-1.6000	-3.8517	0.7302	-7.0276	0.9620
5408.0933	0.4107	-1.1787	-0.3768	-72.5279	8.8305	-2.8667	-0.5341	-0.5643	-0.8510	-34.0564	0.1797	-1.3537	-2.4619	1.9227	-6.6507	1.6910
5416.0935	-1.9551	-1.6776	-0.4534	-97.5381	4.0879	-4.4406	-1.2383	-1.1701	-1.1278	-49.7668	-0.0371	-2.3396	-3.8907	1.6167	-6.6294	2.0631
5424.0936	-2.8653	-2.3329	-0.5028	-123.9376	-19.8110	-6.1111	-3.3101	-2.0447	-1.3386	-60.4610	-0.3113	-2.8937	-5.6574	0.5476	-6.9227	1.2077
5432.0937	-0.3275	-2.1686	-0.5069	-115.4533	-11.8181	-5.8645	-2.8672	-1.7655	-1.3424	-59.2732	-0.0678	-2.6990	-4.7348	0.1402	-7.5165	0.9851
5440.0939	-1.7459	-1.7177	-0.4957	-100.5590	7.9553	-4.3831	-1.1803	-1.1640	-1.1697	-49.0017	0.1812	-2.5264	-3.7564	0.9554	-7.0649	0.9570
5448.0940	-1.7319	-1.5835	-0.4774	-100.4381	3.9654	-3.3241	-1.1824	-1.0605	-0.9597	-35.6653	0.1804	-2.2253	-3.4107	1.7445	-6.7268	1.1814
5456.0942	-1.9942	-1.6476	-0.5103	-104.9351	1.0879	-3.0581	-1.4905	-1.0544	-0.9790	-31.8810	0.2583	-1.8871	-3.7873	1.1382	-8.0906	0.4638
5464.0943	-4.9586	-1.2189	-0.4323	-94.3215	9.9858	-1.5848	-0.2653	-0.6531	-0.7333	-21.6593	-0.1059	-1.4192	-3.2078	2.5800	-5.1788	1.8537
5472.0944	-2.8745	-0.5169	-0.3619	-72.6389	21.2269	1.2218	1.2686	0.2697	-0.2794	4.7415	0.0472	-0.2279	-1.1091	5.0954	-4.3937	2.7673
5480.0946	-0.5887	-0.2013	-0.3650	-61.4139	27.2300	2.5140	1.6776	0.6595	-0.1139	20.2847	0.4893	0.2934	-0.1345	4.1297	-6.5440	2.7257
5488.0947	-1.4393	0.0110	-0.2827	-57.2722	18.9735	3.3141	1.3814	0.4777	0.1611	34.3927	0.3013	0.2147	0.0841	3.3244	-5.3849	4.8081
5496.0948	0.6414	0.2766	-0.2565	-51.2660	12.0461	5.0212	1.1643	0.6880	0.4979	58.5086	0.5710	0.8268	0.9046	3.3798	-6.6877	5.0948
5504.0950	1.5480	0.6097	-0.2730	-49.6210	26.3826	6.2496	1.9993	1.0073	0.5801	69.5513	0.6879	1.0562	2.1211	1.7229	-6.4328	6.0623
5512.0951	-0.4622	0.7847	-0.2589	-49.9623	33.7974	6.9289	2.7430	1.2546	0.6138	71.5164	0.3734	1.4821	2.1891	2.4008	-5.1839	7.1784
5520.0953	-0.7450	0.6460	-0.1787	-44.9510	18.7663	5.9167	1.9440	0.9807	0.5932	62.5958	-0.0167	1.6141	1.3566	3.1693	-4.6364	8.1228
5528.0954	-0.7366	0.7849	-0.0823	-30.5164	18.1880	5.3063	2.0035	0.7742	0.6705	58.1680	-0.1079	0.9122	1.7885	2.4095	-2.4129	9.1266
5536.0955	-0.5402	1.0008	-0.0747	-11.1385	23.6693	6.0500	2.5888	1.1665	0.8070	66.4029	0.4678	1.1334	2.0652	2.9499	-4.5364	7.1819
5544.0957	-1.5938	0.9820	0.0261	-2.3887	18.8266	4.6425	2.3879	0.8944	0.7018	50.3833	-0.0612	0.9074	1.4200	2.6661	-3.1924	9.8579
5552.0958	-3.3996	1.0098	0.0915	-1.7320	21.2489	3.9303	2.8639	0.8371	0.6407	37.7070	-0.6789	0.7319	1.1912	4.2162	-0.4280	12.4290
5560.0959	-1.6132	0.9782	0.0617	3.0030	24.1237	3.7721	2.9498	1.0706	0.5430	33.8425	-0.4516	1.1368	1.3436	4.5086	-1.8351	10.8908
5568.0961	-2.2280	0.9319	0.0829	5.9462	28.9565	2.6296	2.8551	0.8105	0.3405	20.0859	-0.6179	0.6462	1.2689	1.6912	-0.2866	10.8516
5576.0962	-4.3822	1.0378	0.0555	4.9771	31.1923	4.0181	3.3847	1.0743	0.5473	34.3962	-0.4028	0.8294	1.2564	3.6263	-0.4588	9.4396
5584.0964	-2.2680	1.2483	0.0974	11.1853	29.7069	4.8669	3.5355	1.2072	0.7806	45.9190	-0.3148	0.8607	2.3887	4.5231	0.7074	9.8910
5592.0965	-0.7736	1.0878	0.0723	15.0105	28.4022	3.9954	2.9531	1.0287	0.6244	38.6311	0.0092	0.5786	2.3842	2.2793	0.1037	7.1796
5600.0966	0.4430	0.8203	0.0104	14.6067	16.1103	3.8308	1.8207	0.9286	0.5744	42.5150	0.5585	0.9162	1.5745	1.3347	-3.6299	3.5150
5608.0968	0.9090	1.3591	0.1773	44.6198	24.5615	4.0258	2.8250	1.2055	0.7423	41.2702	0.2248	1.0637	2.7769	0.9483	-0.7391	6.4323
5616.0969	0.9520	1.9798	0.2311	81.2698	42.8800	6.0028	4.7900	2.3766	0.9711	52.9128	0.6237	2.5393	3.8887	3.5549	-1.7455	4.2832
5624.0971	3.4159	2.4610	0.2041	95.0082	49.0023	9.1645	5.3979	3.2272	1.3348	86.1210	1.2418	4.1383	5.6258	3.3922	-2.8903	0.4038
5632.0972	3.2833	2.9573	0.2719	124.8381	56.8569	10.8306	6.1004	3.7410	1.6011	102.8374	1.6669	4.8168	6.8483	1.7058	-1.8576	-3.0942
5640.0973	3.5691	2.8343	0.3417	143.5328	41.6144	9.9041	5.3049	3.6999	1.5832	95.2648	1.7457	5.2977	5.8074	2.5954	-3.7211	-4.7624
5648.0975	4.1144	2.9859	0.4084	136.9161	38.8344	10.0982	5.0102	3.4440	1.6478	98.4332	1.1245	5.3131	6.5368	0.4929	-0.3662	-1.6005
5656.0976	1.8254	3.1599	0.3640	143.0000	46.7155	11.7107	5.8147	3.9423	1.7992	112.4459	1.5235	5.9023	6.5709	1.6557	-1.3220	-4.7559
5664.0977	2.4434	2.9225	0.3869	134.3786	36.5888	10.7200	5.3924	3.6805	1.7678	102.7161	1.1734	5.5259	6.1635	4.5109	-0.2389	-3.0464
5672.0979	2.4520	3.2833	0.4064	129.5277	53.7464	11.7915	6.6352	3.9357	1.8579	108.0560	0.7547	5.4880	7.7937	4.3000	3.9225	-0.4760
5680.0980	2.4068	3.0220	0.3361	127.8870	41.0018	11.9822	5.5818	3.9245	1.8274	114.5584	1.2577	6.1360	6.6377	3.7780	-0.1757	-4.4567
5688.0982	3.8514	2.2851	0.3959	100.6625	13.9482	7.8793	2.8722	2.3149	1.4073	80.3425	0.2957	4.3092	5.3838	-0.1313	3.4490	-0.5602
5696.0983	3.2633	2.4270	0.3937	111.6355	28.6525	7.8669	3.8510	2.6040	1.3447	74.3546	0.4586	4.1447	5.9786	-0.0785	4.8569	-2.3554
5704.0984	4.6295	2.1673	0.4256	117.5238	5.1417	7.2877	2.4229	2.4023	1.3946	74.6214	0.5930	4.6105	4.9720	1.0840	2.6219	-4.2665
5712.0986	3.7312	1.5637	0.4601	81.6071	-9.6067	4.0493	0.6380	1.0269	0.9752	42.6027	-0.6925	2.9938	4.1339	-2.3448	8.9821	-0.2475
5720.0987	3.3771	1.6479	0.3922	90.6839	11.6013	4.2464	2.0464	1.6068	0.8352	35.2493	-0.2733	3.1000	4.7007	-1.0099	9.0741	-3.8200
5728.0988	7.2679	1.7634	0.4754	99.8866	4.6532	3.8548	1.5286	1.4142	0.9394	36.1104	-0.3331	2.8246	5.7905	-1.9742	10.4873	-2.2664
5736.0990	4.8508	1.2840	0.4045	72.4698	1.1928	2.3116	0.6035	0.7572	0.5796	18.4588	-0.8037	2.1692	4.6859	-4.5370	12.6378	-2.9681
5744.0991	2.9619	0.9090	0.3295	69.4447	-1.4446	1.5150	0.5352	0.8732	0.3809	5.8057	-0.5858	2.3634	3.2586	-1.6088	10.7173	-6.7187
5752.0993	5.3997	1.0447	0.3896	70.4913	-6.1403	1.6938	0.3189	0.6370	0.5963	13.8309	-0.6115	1.6585	4.3849	-1.6565	12.5896	-4.4554
5760.0994	4.3707	0.6498	0.2415	58.0671	-8.4322	1.3492	-0.4398	0.4657	0.3916	13.8226	0.0904	1.4794	3.0497	-3.4899	7.9352	-8.5117
5768.0995	2.4039	0.3033	0.2448	55.0486	-17.6672	-0.4023	-1.2304	0.0557	0.1427	-3.9976	-0.1090	1.2076	1.2982	-4.0149	6.4286	-8.2096
5776.0997	0.0437	0.4650	0.2752	46.8242	-14.1071	0.4338	-0.5477	0.1453	0.2807	1.3824	-0.6413	1.2962	1.4754	-2.1637	9.0405	-5.4121
5784.0998	-0.8547	0.0202	0.1648	27.5431	-19.9953	-0.2309	-1.0509	0.0036	0.0963	-5.4808	-0.4965	1.2024	0.0980	-0.2258	6.2474	-6.6324
5792.0999	-0.9487	-0.1366	0.1923	20.2375	-19.8699	-1.8394	-1.2904	-0.5030	-0.0727	-21.5300	-0.8503	0.0987	-0.0973	-1.2807	7.9830	-3.7361
5800.1001	-1.2501	-0.1624	0.1443	14.3056	-22.1616	-0.8883	-1.2241	-0.2298	0.0012	-12.5026	-0.7520	0.8117	-0.3503	0.5950	6.4812	-4.7758
5808.1002	1.5814	-0.8209	0.1250	0.2684	-51.0425	-3.4114	-3.8323	-1.1036	-0.3033	-29.2331	-0.8290	0.5469	-2.0715	-1.6524	3.2783	-4.7476
5816.1004	0.8115	-0.7837	0.1316	3.4373	-42.8582	-4.2587	-3.8839	-1.4682	-0.4441	-35.9889	-0.7115	-0.4221	-1.9801	-6.2229	3.7079	-4.1947
5824.1005	-1.0293	-0.5092	0.0666	10.4257	-25.5519	-2.2606	-2.0640	-0.5429	-0.2781	-23.2045	-0.2973	0.4175	-1.6291	-1.8266	2.1448	-6.2357
5832.1006	2.3375	-0.5454	0.1369	15.5751	-29.2046	-3.6087	-2.1589	-0.6689	-0.3451	-37.5989	-0.5988	0.0573	-1.1512	-0.1292	3.1984	-3.1823
5840.1008	2.9120	-0.3732	0.1435	30.6202	-21.5123	-3.6465	-1.9843	-0.6071	-0.3765	-36.2218	-0.1552	-0.1069	-0.8617	-3.3205	1.4296	-4.0107
5848.1009	-0.1253	-0.4400	0.1739	35.7754	-28.2132	-3.9630	-2.3198	-0.7730	-0.3762	-38.0532	-0.2109	-0.1003	-2.0773	-3.7502	0.4952	-4.3365
5856.1011	-2.1626	-0.4214	0.3275	44.7634	-34.2474	-5.5342	-2.3870	-1.2731	-0.3618	-54.5823	-0.9379	-1.1278	-2.3351	-3.1998	5.1046	-0.8927
5864.1012	-2.1666	-0.1894	0.3747	60.6864	-34.2578	-4.5663	-1.8654	-0.9136	-0.1229	-44.5137	-0.7222	-0.7789	-1.8817	-1.0038	5.1605	-1.9259
5872.1013	-0.8444	-0.1526	0.4245	69.1217	-45.4535	-4.3429	-2.3022	-0.8718	0.0317	-38.5507	-0.6723	-0.3983	-1.9312	0.3439	4.2320	-1.7836
5880.1015	0.1175	-0.0134	0.4520	79.8989	-39.0481	-4.6465	-1.9513	-0.7947	-0.0021	-42.3279	-0.5601	-0.5631	-1.5457	-0.6481	3.8093	-0.9699
5888.1016	0.4910	-0.0556	0.3897	74.2823	-33.2944	-4.6483	-1.9296	-0.8089	-0.1008	-41.6355	-0.2989	-0.7154	-1.5788	-2.3267	2.0143	-1.1957
5896.1017	-2.0543	-0.4168	0.3761	58.8359	-48.0896	-5.5330	-3.1026	-1.4495	-0.1620	-45.4140	-0.4890	-1.3635	-2.9870	-3.1827	2.0519	-1.1562
5904.1019	-4.5493	-0.4118	0.4207	59.4926	-57.0786	-4.9927	-3.1078	-1.4000	0.0149	-40.0513	-0.7645	-1.0297	-3.6025	-0.2890	3.0649	-1.0505
5912.1020	-3.8369	-0.2503	0.4237	59.0702	-54.3708	-4.0329	-2.5853	-1.0359	0.1244	-32.9274	-0.8966	-0.3454	-3.1077	1.7194	3.1884	-0.0838
5920.1022	-4.8384	-0.4250	0.3786	50.0914	-52.4488	-4.7363	-2.7613	-1.2499	-0.0464	-40.3620	-0.8983	-0.7261	-3.7645	0.5637	2.1946	0.3068
5928.1023	-5.3813	-0.3642	0.3907	47.6741	-50.0931	-4.6407	-2.4951	-1.2771	-0.0082	-39.6106	-1.0329	-0.9442	-3.6638	0.9355	2.7749	1.9427
5936.1024	-3.7645	-0.1914	0.3972	52.2322	-47.1086	-3.9692	-2.1883	-1.0645	0.1044	-31.8610	-0.8807	-0.7441	-2.9542	1.2755	2.2649	2.5176
5944.1026	-4.7468	-0.3498	0.3757	49.1684	-50.7126	-4.4938	-2.6133	-1.2108	-0.0159	-36.8146	-0.8759	-0.6915	-3.8023	0.3765	0.8959	2.0206
5952.1027	-4.4505	-0.3212	0.3654	43.5381	-51.7930	-4.0266	-2.6991	-1.1862	0.0243	-31.5461	-0.9695	-0.4370	-3.6273	0.1983	1.0485	2.4942
5960.1028	-2.3290	-0.5581	0.3002	35.7747	-52.2562	-4.9432	-3.2013	-1.4793	-0.1115	-36.8053	-0.5629	-1.2682	-3.6400	-0.9553	-0.7441	1.9796
5968.1030	-3.6243	-1.0809	0.2682	23.4944	-56.1411	-7.8000	-3.9458	-2.2062	-0.5072	-65.6986	-0.7031	-2.7149	-5.1763	-1.8587	-1.2359	2.9504
5976.1031	-3.7237	-1.0405	0.2929	26.1439	-56.2480	-7.8922	-3.8585	-2.1671	-0.5132	-67.9860	-0.8582	-2.5563	-5.1971	-1.5830	-0.8393	3.6138
5984.1033	-7.5550	-1.1264	0.1083	1.5800	-53.3773	-5.6141	-3.4913	-2.1780	-0.1767	-33.6107	0.2254	-3.5546	-6.1219	0.1630	-6.9104	3.2119
5992.1034	-5.3798	-0.6413	0.0245	7.3529	-17.9462	-3.9150	-1.1596	-1.1842	-0.2050	-26.9600	0.6044	-2.9175	-4.0497	0.5599	-7.3709	3.2243
6000.1035	-5.8360	-0.4541	-0.1696	-11.1775	16.3948	-1.9674	1.1274	-0.2773	-0.2934	-18.4061	0.9935	-2.4477	-3.0227	2.9163	-9.0448	2.7416
6008.1037	-7.6421	-1.0137	-0.0197	-14.5530	-37.4134	-3.7112	-2.1756	-1.4324	-0.1530	-21.9132	0.3230	-2.5242	-5.5858	3.3475	-8.2535	2.8527
6016.1038	-7.2500	-1.1213	0.0841	-10.6642	-69.1511	-3.9152	-4.4137	-2.0615	0.0155	-11.7313	0.0759	-2.0855	-6.5125	0.2055	-8.8556	3.1424
6024.1040	-5.8937	-0.5718	-0.0955	-22.5496	-21.1899	-0.7624	-0.9392	-0.6242	0.0625	4.5785	0.4523	-1.1790	-3.9334	3.9073	-9.0732	3.6302
6032.1041	-5.7263	-0.4963	-0.1348	-29.6720	-11.3095	-0.3971	-0.4089	-0.3983	-0.0386	3.4541	0.2803	-0.7475	-3.6115	3.4849	-8.9676	4.5517
6040.1042	-5.2547	-0.9631	-0.2180	-51.7633	-13.6651	-2.3375	-1.4637	-0.9119	-0.5153	-18.1424	-0.0149	-0.9701	-4.6534	0.1196	-9.8053	4.7717
6048.1044	-3.4911	-1.3131	-0.2141	-57.6391	-34.0980	-3.2570	-2.9161	-1.2603	-0.5700	-22.8483	-0.0847	-0.7947	-5.4143	0.7401	-10.6425	3.6108
6056.1045	-2.8107	-1.4805	-0.1284	-57.4665	-66.6859	-3.5073	-5.2562	-1.9710	-0.3896	-11.6156	-0.2291	-0.6372	-6.2925	-2.2167	-11.3382	3.7010
6064.1046	-3.7170	-1.4289	-0.2694	-71.5029	-31.0393	-3.3122	-2.8868	-1.3910	-0.6263	-23.2821	-0.0831	-1.2232	-5.3964	0.6945	-10.4129	4.0180
6072.1048	-5.2311	-1.2923	-0.1797	-51.0574	-35.3633	-3.2341	-2.5892	-1.2749	-0.4335	-22.0017	-0.0047	-1.3144	-5.5706	2.9466	-9.6049	3.1254
6080.1049	-4.7674	-0.9638	0.0248	-28.4142	-65.1997	-2.3523	-4.5600	-1.7993	0.0006	2.2447	-0.2455	-0.7271	-5.4327	-2.3846	-8.3966	3.9809
6088.1051	-1.9884	-0.3086	-0.0847	-19.1703	-16.3329	0.0049	-1.0533	-0.3216	0.0053	10.0409	0.2629	0.1031	-2.5816	0.4092	-8.6117	3.9044
6096.1052	-2.7795	0.0334	-0.1253	-1.1757	13.6436	0.5958	1.1710	0.5332	-0.0891	4.8279	0.6740	0.4209	-1.9389	1.9833	-10.1097	3.1208
6104.1053	-5.4994	-0.0434	0.0458	13.1187	-6.8889	-0.8841	0.0030	-0.1389	-0.0323	-5.6838	0.0790	-0.0829	-3.0440	0.6784	-7.0877	4.2559
6112.1055	-3.4776	-0.0457	0.1810	27.1057	-30.4499	-1.1643	-1.0240	-0.3665	0.2386	-1.7722	-0.1158	-0.0007	-2.9278	2.9914	-5.4937	4.5848
6120.1056	-0.5368	0.1297	0.1260	20.4644	-23.6656	-0.0615	-1.0339	-0.2305	0.2781	12.0934	0.1361	0.3267	-1.7241	0.0341	-6.4695	4.8538
6128.1057	-0.1272	0.1103	0.0528	11.7437	-5.2674	-0.3177	0.0214	0.0638	0.0477	0.3293	0.0476	0.2840	-1.1678	0.8841	-5.4158	4.8306
6136.1059	-0.2673	0.2619	0.1630	28.1871	-10.1618	-0.6028	0.0436	-0.0005	0.1837	-1.5002	-0.1278	0.0908	-0.9332	1.5214	-3.4679	5.6034
6144.1060	-0.5629	1.0017	0.1477	24.2395	28.3875	1.8180	2.3964	0.4547	0.3744	17.1820	-0.2266	-0.4325	2.2086	-1.8449	1.9219	8.3491
6152.1062	1.4770	0.5566	0.1543	-3.0003	20.2065	-0.0216	1.9554	-0.0895	0.2246	-4.8127	-1.0453	-1.5932	2.7040	2.2920	8.1588	10.3808
6160.1063	4.0874	-0.6680	0.4116	-20.0548	-64.9399	-5.8868	-4.3290	-2.8473	0.0724	-39.7356	-2.4027	-3.7020	-0.0013	-1.1127	14.3167	12.0100
6168.1064	4.5749	-0.2681	0.4458	-15.9166	-48.2908	-4.9611	-3.9122	-2.9337	0.1258	-31.3560	-2.5077	-4.1300	2.3168	-7.4767	20.5641	10.3227
6176.1066	8.3786	0.3592	0.4165	-2.2271	-22.6789	-2.0046	-1.8743	-1.7191	0.3782	-10.5292	-2.1681	-2.7431	5.4675	-5.4940	23.1835	7.2792
6184.1067	12.4750	0.3771	0.4397	-1.2154	-38.7682	-1.2683	-3.2959	-2.0167	0.6179	8.0014	-1.8405	-2.7541	6.6971	-8.1930	24.3289	4.6921
6192.1069	10.0125	0.4999	0.1861	-16.2105	7.2820	0.5812	-0.4452	-1.0627	0.4587	13.0657	-0.9539	-3.0419	7.8409	-6.3669	23.6766	-0.2102
6200.1070	5.7445	-0.0265	0.1396	-34.0523	5.2838	-1.2666	-0.3652	-1.1986	0.0738	-16.9707	-1.6446	-3.0455	5.8303	-2.3120	25.2700	-0.8897
6208.1071	4.1764	-0.3162	0.2936	-27.3148	-26.8930	-3.1349	-2.7460	-2.0564	-0.0265	-30.6848	-2.4632	-2.7385	4.2501	-5.8927	28.0222	-1.4064
6216.1073	5.3102	0.0483	0.1857	-15.1057	-1.2763	-1.0733	-0.9021	-0.9471	0.0142	-17.4394	-1.6677	-1.5748	5.3183	-4.4582	24.5070	-4.5610
6224.1074	6.5722	0.1013	0.1128	-18.2955	6.4982	-0.3256	-0.3183	-0.6136	0.0535	-10.0019	-1.2395	-1.4530	5.6460	-3.0285	21.8242	-4.5737
6232.1075	5.9544	0.3359	0.1235	0.2135	10.1902	0.5930	-0.0240	-0.3380	0.1976	1.7554	-0.6841	-1.1721	5.7575	-4.3296	19.6963	-6.7789
6240.1077	5.4453	0.7429	0.1052	20.1746	31.7367	1.8914	1.9296	0.6081	0.2667	6.8890	-0.2703	-0.3260	6.2168	-1.6895	16.8834	-6.9016
6248.1078	3.8289	0.6675	0.1111	13.8823	28.4179	1.7025	1.9065	0.4614	0.2870	5.6148	-0.4595	-0.5884	5.5963	-0.4975	16.7568	-5.1864
6256.1080	1.1091	0.4216	0.0934	10.3210	20.2400	1.1372	1.4423	0.2580	0.2257	1.0206	-0.4376	-0.7173	4.1293	0.3051	15.2230	-6.1152
6264.1081	0.3630	0.7944	0.1331	20.4381	38.3639	1.7636	3.1904	0.8716	0.2517	-2.1583	-0.7540	-0.1947	4.7691	2.8493	16.0908	-3.0646
6272.1082	1.4194	1.1142	0.1320	28.3593	45.4974	3.3529	3.9757	1.4105	0.4455	12.7485	-0.5485	0.5754	5.6600	3.9644	15.2237	-3.0660
6280.1084	1.9301	0.4530	0.0822	14.7717	16.7825	1.4098	1.3561	0.5877	0.1794	2.8390	-0.4034	0.4793	3.3590	1.0004	10.8150	-4.8959
6288.1085	-0.8310	0.4510	0.1311	16.8452	15.7851	0.7718	1.2663	0.3633	0.0954	-5.0650	-0.7880	0.3567	2.5581	-0.4171	11.6517	-3.4036
6296.1086	-2.2887	1.3186	0.1787	49.1706	42.7214	4.2490	4.3422	1.8208	0.5851	20.9914	-0.3913	1.6439	4.3331	4.9573	11.7431	-3.7990
6304.1088	0.4576	1.4213	0.1643	53.1436	55.4111	3.8363	5.2831	2.1290	0.4928	12.7267	-0.2785	1.4795	5.0362	6.7423	10.4350	-1.3252
6312.1089	0.6373	1.1775	0.0792	41.2940	60.3491	2.9017	5.0737	1.9711	0.2061	1.6785	-0.1673	1.2141	4.4596	5.0483	8.5461	-1.5556
6320.1091	0.1354	0.9483	0.0421	41.0765	41.3779	3.2182	3.6792	1.9723	0.1796	9.3784	0.0565	2.5432	2.8465	4.0441	3.9375	-4.5882
6328.1092	1.9258	0.7032	0.0762	36.6876	28.6324	1.3762	2.1888	1.3214	-0.0615	-4.4026	-0.2330	2.2453	2.1201	0.0039	2.9535	-2.4067
6336.1093	0.5182	0.4901	0.0224	33.0188	25.1138	1.0885	1.8211	1.1977	-0.1265	-5.3698	0.0825	2.0299	1.1922	-0.0818	0.9175	-4.4499
6344.1095	-1.6546	-0.0691	-0.0236	25.5455	-3.3707	0.4330	0.0895	1.0254	-0.2381	-9.0232	0.1075	3.1626	-1.6583	2.2043	-3.7686	-7.8382
6352.1096	0.2684	-0.3250	0.0114	20.0459	-11.9002	-1.5235	-0.7289	0.6454	-0.5107	-29.9428	-0.4100	3.0826	-2.2684	1.6557	-3.7738	-4.9872
6360.1098	3.3978	0.0491	0.2004	31.7337	-16.1586	-1.8639	-0.8276	0.2752	-0.2711	-29.1078	-1.0684	2.3072	-0.3594	0.3143	1.9647	0.3916
6368.1099	5.4071	0.4829	0.3978	42.5798	-26.1267	-1.3373	-1.5611	-0.1877	0.0492	-17.0474	-1.7894	2.0648	1.6366	-4.0237	9.0981	3.3190
6376.1100	6.9794	0.4122	0.2643	27.7402	-13.6559	-0.4989	-1.2783	0.0070	-0.0385	-11.0297	-1.3751	2.0423	2.7978	-5.3054	10.2020	-0.8976
6384.1102	6.8308	-0.0746	0.1021	8.5031	-13.1765	-0.9841	-1.6260	0.0331	-0.3041	-19.0571	-0.9781	2.0736	1.9857	-3.9769	8.4263	-5.8313
6392.1103	4.6494	0.0730	0.1164	23.8392	-5.5303	-0.8352	-1.2506	0.3719	-0.4480	-23.9231	-1.0122	3.0855	1.4788	-6.2114	7.7241	-8.0753
6400.1104	3.3727	0.4424	0.1383	40.3399	-4.5853	1.4015	-0.5525	1.0533	-0.1272	-1.5086	-0.7187	4.4147	1.6033	-4.3023	5.6954	-9.5852
6408.1106	2.6077	0.4554	0.1634	42.8324	-23.7859	2.8051	-1.0021	0.9846	0.3901	24.9900	-0.2070	4.0296	1.1749	0.0295	3.3508	-9.5937
6416.1107	1.1153	0.7958	0.0943	58.7742	8.4786	3.4758	1.1721	1.3776	0.4878	31.1975	0.9241	2.3977	2.1335	0.0558	1.1078	-10.3133
6424.1109	0.1374	0.6730	0.0694	59.9336	20.8275	1.9011	1.7271	1.0918	0.2899	14.2824	1.1949	0.7735	1.8981	-0.5744	0.8449	-9.3963
6432.1110	-0.1329	-0.2016	0.1449	48.7703	-30.7421	-1.3890	-1.9189	-0.3246	0.1489	-4.1868	0.8277	-0.0639	-1.1951	-0.9399	-0.8995	-9.3046
6440.1111	-0.3707	-0.5114	0.0554	40.4828	-29.9270	-2.2870	-2.1399	-0.4247	-0.0664	-13.4795	1.1617	-0.3975	-2.1740	-0.6569	-3.9875	-10.4752
6448.1113	-2.9320	-0.2004	-0.0216	28.4097	1.3775	-0.8275	0.3304	0.2270	-0.0505	-10.2787	0.9880	-0.4858	-1.1831	2.3589	-2.1121	-8.0537
6456.1114	-5.4820	0.1185	0.0657	35.7441	-8.8426	1.2397	0.5188	0.4442	0.4239	14.5902	0.7929	0.1829	-1.1404	4.9349	-0.9972	-7.1009
6464.1115	-3.0781	0.2445	0.0873	44.0915	-7.6154	1.2066	0.4169	0.4189	0.4690	17.7670	1.0475	-0.0343	-0.4409	3.3099	-1.7349	-6.5827
6472.1117	-0.9774	0.2850	0.0611	51.9970	6.4412	0.2197	0.8612	0.4775	0.2319	5.2300	1.3570	-0.4716	0.0251	0.9510	-3.2003	-6.2981
6480.1118	-2.0572	0.4269	0.1445	70.4175	-11.7101	1.2695	0.1798	0.6402	0.5216	21.2965	1.4565	0.6633	-0.7606	1.7674	-5.3256	-7.6236
6488.1120	-0.7375	0.4075	0.1388	54.2907	-15.9242	1.7302	-0.0153	0.6015	0.5740	25.7588	1.0114	0.9786	-0.2756	2.8439	-3.6339	-5.4942
6496.1121	0.4039	0.2133	-0.0428	31.0535	9.3073	1.1660	0.9411	0.7547	0.1699	12.3912	1.2823	0.4141	0.1476	1.8564	-4.9561	-5.6659
6504.1122	-2.1465	0.1823	-0.0304	40.3771	7.4431	0.8719	0.8021	0.7508	0.1023	8.8733	1.3704	0.6655	-0.9525	0.8077	-6.6650	-6.9301
6512.1124	-2.2190	0.4189	0.1471	61.2947	-5.5122	0.7244	0.5056	0.6170	0.3499	10.3502	0.9209	0.7560	-0.7474	1.5949	-3.9811	-4.7652
6520.1125	0.5859	0.8625	0.1491	82.5678	10.4178	2.0967	1.8079	1.2281	0.5886	24.9996	1.6851	0.7083	0.9663	2.4318	-5.4968	-5.4305
6528.1127	1.4709	0.9927	0.0565	74.6670	27.8351	2.9315	2.7291	1.6075	0.5089	29.4909	1.9221	0.9436	1.6738	1.8168	-6.9161	-5.1034
6536.1128	2.3658	0.4711	0.0528	46.4035	5.9932	1.0286	0.8686	0.7360	0.2810	15.1453	1.2200	0.4990	0.4137	0.8336	-6.6197	-1.6360
6544.1129	2.3885	0.1118	0.1214	36.8121	-24.9637	-0.2999	-1.2210	-0.2167	0.3740	14.9840	0.9731	-0.3639	-0.9684	0.1621	-7.4788	1.0802
6552.1131	1.2748	0.4662	0.1085	35.9089	-0.2974	0.5635	0.6410	0.1691	0.4253	17.1871	0.8864	-0.7959	0.1899	1.1079	-5.6838	3.9510
6560.1132	2.0891	0.7912	0.0183	31.2883	34.6394	1.3682	2.7505	0.6751	0.3383	17.5678	1.1743	-1.3735	1.9077	0.6827	-5.1292	5.5791
6568.1133	0.7806	0.6448	-0.0369	7.0309	29.6525	1.8095	2.1615	0.3532	0.3368	25.0648	0.9096	-1.4574	1.5292	-0.6801	-4.7550	6.8088
6576.1135	0.2803	0.3666	-0.0957	-20.7541	27.2026	1.6374	2.1177	0.3797	0.1647	15.9745	0.1611	-0.8420	1.1229	2.3363	-2.6487	8.0020
6584.1136	3.3681	0.0588	-0.0785	-16.7407	15.6325	-0.1588	1.0756	0.0446	-0.0105	0.2771	0.2573	-1.2141	0.8466	2.2307	-3.1797	6.8319
6592.1138	2.5538	-0.0243	-0.0074	-6.3087	2.3624	-1.1013	-0.1969	-0.4471	-0.0646	-3.7923	0.1976	-1.3315	0.0806	-1.9167	-3.1288	5.7183
6600.1139	1.6809	0.1478	-0.0005	-1.8573	14.2817	-0.7238	0.7349	-0.1133	-0.0963	-6.8228	0.0262	-1.0145	0.5809	-1.3060	-1.3432	5.4760
6608.1140	1.9896	-0.1821	0.0596	-5.1410	-14.5409	-1.5124	-1.0254	-0.7602	0.0589	-4.7832	-0.0565	-1.5261	-0.2470	-0.2430	-0.5460	4.5489
6616.1142	-1.9064	-0.5716	0.1339	-18.0771	-48.7025	-2.1073	-3.0883	-1.4522	0.1092	-5.4468	-0.8745	-0.9971	-2.4317	-0.0786	1.0374	4.4395
6624.1143	-3.5395	-0.1811	0.1147	-13.3117	-16.2923	-1.2704	-0.6904	-0.6506	-0.0158	-13.0928	-1.2040	-0.4144	-1.2875	1.3596	3.8511	5.2943
6632.1144	-1.9161	0.0249	0.0625	-14.1105	5.7359	-0.7290	0.7514	-0.2734	-0.0175	-12.6057	-0.9319	-0.9420	0.3010	2.3405	5.2233	5.4519
6640.1146	-0.9474	-0.1226	0.0180	-24.5425	1.2642	-0.6489	0.4205	-0.2728	-0.0469	-11.2769	-0.9361	-0.6870	0.1371	3.3088	4.3610	5.2258
6648.1147	0.3122	0.3339	0.0067	-6.6960	21.7154	0.6507	1.7164	0.3588	0.0203	-1.3845	-0.4599	-0.1818	1.4237	1.6539	2.9216	4.6519
6656.1149	1.0143	0.7121	0.0655	12.6280	22.8278	1.9213	1.9506	0.5964	0.2908	15.8918	-0.1077	0.1263	2.2265	0.2540	2.1881	4.2836
6664.1150	2.1425	0.4215	0.1606	13.3470	-11.7908	1.0697	-0.2037	-0.0129	0.4195	17.3585	-0.4038	0.3321	1.1547	0.5475	2.0747	4.3407
6672.1151	3.9269	0.4366	0.1083	9.2896	-7.4967	1.3971	-0.3117	0.0700	0.3534	21.1067	-0.1902	0.5823	1.6484	-1.3966	1.0938	3.4034
6680.1153	5.5943	0.8807	-0.0316	10.0392	31.4969	3.4861	2.2238	1.1775	0.3172	31.3629	0.4128	1.2467	3.5818	-0.5748	-0.5801	2.4735
6688.1154	5.6895	0.7295	0.0008	16.5450	18.3474	2.9133	1.4911	0.8824	0.4208	32.0556	0.6872	0.6722	3.0306	0.2912	-1.5091	1.4690
6696.1155	2.7460	0.3993	0.0133	5.2555	3.0946	1.8313	0.1762	0.1953	0.3146	25.4421	0.3686	0.1858	1.5517	-1.9100	-0.8189	1.2336
6704.1157	1.3655	0.5998	-0.1147	-13.9968	38.3232	2.9993	2.5239	1.0618	0.0461	18.4675	-0.0895	1.1798	2.4735	-0.0553	1.0042	2.3846
6712.1158	1.3420	0.3803	-0.0959	-18.4569	20.0542	2.7868	1.4442	0.7382	0.1517	22.1929	-0.1159	1.0911	1.8379	1.0098	0.9864	1.4552
6720.1160	1.0375	0.1457	-0.0354	-15.0353	-1.9447	1.8036	-0.1226	0.1607	0.1855	20.4612	-0.1519	0.7915	0.7794	-0.3762	0.4354	0.8489
6728.1161	2.6349	0.6168	-0.1501	-12.2776	39.4995	3.4906	2.5709	1.2297	0.0979	24.7532	0.2714	1.3179	2.8200	0.2618	-0.1812	0.7651
6736.1162	1.3660	0.5221	-0.2129	-26.6874	29.1187	4.7808	1.7727	1.0201	0.3021	46.3256	0.5939	1.2924	2.4268	-0.7099	-1.6989	-0.8016
6744.1164	-1.0346	0.2278	-0.2162	-44.1472	21.3644	3.9953	1.3872	0.8367	0.1172	32.5984	-0.2002	1.7196	1.2625	1.1105	0.3084	0.1276
6752.1165	0.6112	0.3839	-0.2564	-38.7775	45.0209	3.9401	3.0731	1.5165	-0.0775	19.2379	-0.2213	2.1191	2.3453	3.5078	1.3128	-0.1472
6760.1167	0.3236	0.2820	-0.1277	-20.7019	0.6550	4.2020	-0.0015	0.6063	0.3718	46.0411	0.3043	1.8755	1.1386	-1.0571	-1.1036	-3.1223
6768.1168	-1.4293	0.3937	-0.0514	-12.7337	-10.2052	4.8397	-0.3819	0.5460	0.5858	55.5957	0.1221	2.2301	0.8583	-0.9000	0.0451	-3.4598
6776.1169	0.2123	0.4331	-0.1825	-31.5229	13.6191	5.6586	1.2358	1.0683	0.5044	55.1821	0.2497	2.0436	2.2824	2.3110	1.2448	-3.3453
6784.1171	1.8003	-0.1122	-0.1695	-40.6003	-19.9407	3.9412	-1.6974	0.0376	0.4120	51.7196	0.3361	1.5191	0.9072	-1.5816	-0.2393	-5.3082
6792.1172	1.6925	-0.2544	-0.1122	-23.3604	-26.1671	2.4747	-2.0178	-0.0099	0.2667	34.6387	0.3360	1.5803	0.0881	-0.8434	-0.7051	-6.9315
6800.1173	1.4123	-0.1763	-0.1763	-30.8621	-6.5362	2.8045	-0.4412	0.3744	0.2326	30.7339	0.3982	1.1148	0.8092	2.5110	0.1643	-5.8139
6808.1175	0.9104	-0.8375	-0.2763	-62.4262	-10.5975	0.0671	-1.8327	-0.4537	-0.3716	0.8608	-0.0687	0.3882	-0.6673	-1.5521	0.3402	-5.5260
6816.1176	-0.3766	-1.7443	-0.3482	-79.8714	-21.4990	-4.2532	-3.4336	-1.3918	-1.0788	-45.2664	-0.2844	-0.8365	-3.3284	-3.1962	-1.1275	-6.8864
6824.1178	-1.8082	-1.7766	-0.2722	-73.8422	-33.2216	-4.5692	-3.6849	-1.6220	-0.8939	-44.2487	-0.3881	-1.3575	-3.9334	-0.7430	-0.7237	-5.4681
6832.1179	-2.2249	-1.5961	-0.2414	-72.8661	-33.3540	-3.5978	-3.3524	-1.2382	-0.8321	-39.3305	-0.8440	-0.0650	-3.8200	0.4592	0.0609	-4.5576
6840.1180	-3.3481	-2.0662	-0.2441	-85.6126	-54.0843	-5.0410	-4.8447	-1.8095	-0.9791	-50.2581	-1.1346	-0.2195	-5.5585	0.7939	-0.8536	-4.6098
6848.1182	-4.4145	-2.1326	-0.1763	-79.7743	-70.5462	-5.4467	-5.9750	-2.3421	-0.8348	-44.8246	-1.0564	-0.8096	-6.2711	-1.0811	-1.2935	-4.3626
6856.1183	-3.1281	-1.8912	-0.3270	-87.5080	-35.3151	-4.2629	-3.8753	-1.4831	-1.0327	-44.6199	-0.7064	-0.2838	-4.9583	-0.6761	-2.8456	-4.5953
6864.1184	-2.8436	-1.8736	-0.4666	-105.0634	-5.8382	-4.0970	-1.9091	-1.0230	-1.2221	-52.5290	-0.5274	-0.9069	-4.2062	2.3028	-3.5193	-2.5730
6872.1186	-3.6496	-1.6457	-0.3692	-84.4731	-8.4170	-4.0976	-1.8702	-1.0618	-1.0741	-49.3554	-0.4515	-1.0589	-4.2377	1.2686	-3.6475	-1.8128
6880.1187	-3.7705	-1.6442	-0.2491	-72.9731	-35.5624	-4.0541	-3.4189	-1.4678	-0.8129	-38.2510	-0.5783	-0.7537	-5.0278	0.3887	-4.3841	-1.2085
6888.1189	-4.6427	-1.5024	-0.2043	-77.2579	-41.0312	-3.0697	-3.3039	-1.5311	-0.5199	-24.4666	-0.7790	-0.9772	-4.6807	2.2726	-2.7498	0.9805
6896.1190	-3.0114	-1.0790	-0.3166	-78.7646	-3.4289	-1.4059	-1.0060	-0.5792	-0.6308	-19.8751	-0.5128	-0.2871	-2.6813	1.9408	-2.6203	0.6347
6904.1191	0.0845	-1.0390	-0.3748	-82.9201	2.5753	-1.0658	-0.9725	-0.3478	-0.7321	-17.6814	-0.3440	0.2805	-1.9773	0.5860	-4.1421	0.3712
6912.1193	0.2257	-0.7421	-0.3362	-59.0301	4.2712	0.0076	-0.6646	0.0201	-0.5261	-4.4557	0.1872	0.7732	-1.5848	-0.0460	-5.7640	-2.0666
6920.1194	0.2514	-0.6059	-0.3882	-52.3912	14.0015	0.8702	-0.1050	0.3089	-0.4596	4.9659	0.7944	0.7379	-1.1660	-0.6658	-7.5732	-4.2859
6928.1196	-0.4666	-1.0791	-0.4158	-77.3680	-3.2620	-0.3333	-1.3615	-0.3760	-0.5469	-2.4670	0.4402	-0.0266	-2.3222	0.3500	-7.0829	-2.8356
6936.1197	-2.3780	-0.9934	-0.4759	-67.8794	20.0951	-0.5125	0.1960	0.2822	-0.8369	-17.6456	0.5530	0.6202	-2.6246	1.2202	-8.3818	-4.6434
6944.1198	-2.4865	-0.4291	-0.4154	-36.6014	35.0200	0.9766	1.6595	0.9997	-0.5958	-4.8280	1.0092	1.1916	-1.6757	1.6494	-9.7604	-4.9372
6952.1200	-3.4386	-0.1335	-0.1792	-3.2092	-2.0325	2.1411	0.2946	0.7133	0.1325	24.0782	1.1064	1.3576	-2.1544	3.5841	-9.9556	-4.2624
6960.1201	-6.1295	0.0183	-0.1614	23.4303	5.8391	2.1192	1.0377	1.1711	0.0690	19.4667	1.5215	1.9751	-3.1779	3.6238	-13.4673	-6.4994
6968.1202	-8.3627	0.3868	-0.1910	28.2405	35.8663	2.8622	3.3952	1.8793	-0.0040	15.2941	1.4398	2.1916	-2.7593	5.5302	-14.0271	-3.5322
6976.1204	-7.4778	0.6734	-0.1138	28.9672	38.4143	3.6002	4.3879	2.2468	0.1918	18.5475	0.8320	2.6866	-2.0183	9.9987	-12.3293	1.6876
6984.1205	-3.9882	0.4904	-0.0419	30.8269	23.6596	1.5337	2.8670	1.6532	-0.0346	2.6347	0.4737	2.5582	-2.4803	6.4434	-13.5461	5.0424
6992.1207	-3.6503	0.4498	0.0948	39.4547	-4.6769	0.7970	0.7668	0.7487	0.1755	10.9524	0.3664	1.8909	-3.1044	2.1397	-13.5844	6.9151
7000.1208	-4.0588	0.7243	0.1394	47.7299	1.0106	1.8358	1.7235	1.0208	0.4503	21.0291	0.4276	1.6314	-2.1644	4.8870	-11.6088	7.5269
7008.1209	-2.5801	1.0009	0.1429	50.2687	24.7375	1.8313	3.3326	1.3827	0.3647	12.2649	0.2404	1.2799	-0.5567	5.5955	-8.7381	9.7606
7016.1211	-2.4004	1.2320	0.2689	66.2778	11.9617	2.3678	2.7552	1.2798	0.6254	22.7784	0.0361	1.6494	-0.2268	4.5886	-7.0201	10.1343
7024.1212	-1.4306	1.1702	0.3148	74.5288	2.4348	1.8208	2.0587	1.0872	0.6412	20.5002	0.0829	1.5952	-0.3406	3.8364	-6.8436	9.1040
7032.1213	-1.1699	0.9307	0.2625	65.0358	10.9899	0.3487	2.0922	0.8402	0.3193	1.2524	0.0054	0.8379	-0.3521	2.4086	-5.4510	8.4459
7040.1215	-2.3791	0.4792	0.2835	59.8951	-3.2605	-1.7001	0.9496	0.2116	0.1218	-18.2395	-0.2344	0.0301	-1.5402	2.4374	-3.7464	6.8875
7048.1216	-1.9492	0.0258	0.3259	55.4599	-21.4960	-4.1379	-0.6418	-0.6925	-0.0389	-36.4062	-0.3669	-1.3367	-2.4460	1.0765	-2.4022	6.6649
7056.1218	-2.7352	0.3186	0.3305	56.3622	-14.8032	-2.5303	-0.1121	-0.4226	0.1411	-20.9577	-0.3999	-0.8605	-1.5665	0.1672	-0.7613	6.1640
7064.1219	-1.9174	0.7787	0.3985	72.4684	-9.0751	-0.8005	0.7168	0.1888	0.3782	-7.1790	-0.5449	0.3534	-0.3097	0.9741	0.9460	5.9901
7072.1220	1.0597	0.5742	0.3899	72.8790	-11.9287	-2.1899	0.1842	-0.1060	0.2390	-18.6330	-0.3217	-0.4337	-0.0734	0.4047	0.6293	5.6403
7080.1222	-0.4400	-0.0841	0.2792	43.9010	-25.0693	-3.6679	-1.1918	-0.8375	0.0070	-28.9710	-0.2452	-1.4809	-1.6574	0.1449	-0.3271	3.9077
7088.1223	-1.5937	-0.4294	0.3709	36.8189	-53.5536	-5.0813	-3.1549	-1.6461	-0.0185	-37.0849	-0.9152	-1.6448	-2.9869	-0.9904	1.7822	4.6871
7096.1225	-0.1058	0.0192	0.4202	50.7473	-46.1247	-3.5285	-2.5214	-1.2272	0.2013	-21.6602	-0.8464	-0.9638	-1.5308	-2.0958	2.8709	4.7952
7104.1226	-0.6624	0.1688	0.3012	39.9613	-23.1168	-2.2550	-1.1365	-0.7972	0.1854	-13.5894	-0.4745	-1.1299	-0.6076	-1.9147	2.6168	3.9454
7112.1227	-0.7473	-0.2749	0.2994	25.1264	-35.0362	-4.2166	-2.2444	-1.4586	-0.0428	-32.0143	-0.8458	-1.9573	-1.5045	-2.2232	4.0814	4.4746
7120.1229	-0.1450	-0.2121	0.1912	8.6188	-20.2043	-2.8902	-1.1709	-0.9289	-0.0600	-25.4677	-0.8361	-1.3744	-0.6640	0.1093	4.4286	4.0414
7128.1230	0.5870	-0.1713	0.0706	-9.2225	-4.3749	-1.8159	-0.2951	-0.5471	-0.1307	-19.5697	-0.7252	-1.0561	0.0907	0.6749	4.0033	3.9353
7136.1231	2.8532	-0.3248	0.1500	-1.4085	-30.1240	-2.5947	-2.3664	-1.0683	-0.1077	-17.9575	-0.7885	-0.6725	-0.4356	-2.7763	3.2134	2.9109
7144.1233	4.1570	-0.0937	0.0751	-3.5183	-17.7470	-0.9411	-1.6990	-0.6257	-0.0138	-1.6383	-0.3562	-0.1750	0.6213	-3.7297	1.8951	1.6531
7152.1234	5.3206	-0.3321	-0.0378	-17.4029	-2.9740	-2.1968	-1.3924	-0.8191	-0.3376	-16.6107	-0.0343	-1.3150	0.7849	-5.2933	0.9829	1.5194
7160.1236	6.0325	-0.5850	-0.0241	-13.9821	-16.2189	-3.2670	-2.4234	-1.1170	-0.4195	-23.8259	0.0770	-1.4282	-0.0029	-5.6828	-0.1889	-0.0236
7168.1237	4.1940	0.0741	-0.0550	-8.8309	8.7507	0.3232	0.0417	0.0408	-0.0559	3.9675	0.1673	-0.1225	1.5886	-2.2660	0.6970	0.1430
7176.1238	3.2193	0.4600	-0.0010	1.4275	21.5322	1.1834	1.0897	0.3722	0.0314	7.9440	-0.0761	0.2237	2.4385	-2.9050	2.7339	1.6172
7184.1240	2.8929	0.2394	0.0726	5.9213	2.6065	-0.0900	-0.1958	-0.2533	0.0716	2.6782	-0.1310	-0.5524	1.6151	-3.6305	3.1751	1.6323
7192.1241	2.3168	0.2918	0.0300	-0.0685	10.5126	0.6440	0.6572	-0.0699	0.2076	9.4188	0.0865	-1.0813	2.1026	-0.7619	3.6393	1.7977
7200.1242	2.8930	0.7116	0.0096	8.7661	30.7551	2.2682	2.1776	0.7255	0.2568	17.7363	0.1509	-0.0051	3.3374	-0.3559	3.7740	1.5271
7208.1244	1.7216	0.7064	0.0405	8.6591	20.2516	2.5528	1.4562	0.5350	0.3363	24.5805	0.0181	0.3243	2.7780	-1.8289	3.4513	1.5462
7216.1245	-0.0068	0.0941	0.1045	-5.0608	-13.4780	0.1384	-0.9692	-0.6033	0.2142	8.8899	-0.5375	-0.5518	0.6247	-2.5677	4.4067	2.3675
7224.1247	0.9686	0.2840	0.0839	0.8445	5.1884	0.4194	0.4665	-0.0390	0.1385	2.5031	-0.5280	-0.2671	1.5964	-0.4674	5.3941	2.3059
7232.1248	2.5961	0.8244	-0.0041	10.9285	41.2769	2.5239	2.9802	0.8827	0.2924	18.3285	0.3129	-0.4395	3.8748	0.4647	4.4008	1.6464
7240.1249	2.8781	0.5373	0.0285	9.6303	20.6875	1.3296	1.2309	0.2164	0.2418	15.1009	0.3246	-0.8210	2.8011	-2.2813	3.1523	1.2644
7248.1251	2.3253	0.6320	0.0182	7.0959	24.5266	2.1119	1.8199	0.5968	0.2741	17.9519	0.0978	-0.0178	2.8720	-0.1085	3.3827	1.6805
7256.1252	2.5749	0.7025	-0.0310	-1.9279	32.3889	2.9001	2.4531	0.8349	0.3164	23.7020	0.1174	0.0863	3.3693	1.2673	3.4174	2.4085
