Time	Fz	Fpz	C3	C4	T5	T4	O1	O2	F7	F8	F3	F4	T3	T6	P3	P4
0.0000	0.3453	0.6556	0.1393	12.5402	7.5698	-39.0811	0.7995	-1.6302	0.2058	6.5213	-1.1738	-1.2409	0.6485	0.5368	1.7908	17.4021
8.0000	0.5434	0.8226	0.4194	0.0789	-5.1044	61.1909	1.6581	1.5401	0.8713	13.4442	-0.7142	-1.8930	1.8059	1.9717	1.4839	16.1650
16.0000	0.0636	0.1376	0.0635	-1.1155	-1.4741	2.4415	0.1499	-0.0534	0.1087	1.7478	-0.3025	-0.2899	0.1665	0.2570	0.4222	4.1284
24.0000	0.5968	0.9364	0.4070	3.2889	-0.5048	31.9122	1.6977	0.5377	0.7162	8.8538	-1.3403	-1.8214	1.5943	1.8345	2.2094	21.7049
32.0000	0.1170	0.2082	0.1908	-10.7297	-8.8368	25.4965	0.1940	0.3946	0.2746	-0.7994	-0.7553	-0.7628	0.2420	0.6475	1.0024	9.2079
40.0000	0.1292	0.2896	0.0860	0.3095	-0.3232	-32.6032	-0.0042	-1.6461	0.0718	0.3408	-0.9976	-1.3582	0.0025	0.0014	1.4306	13.7019
48.0000	0.4850	0.7203	0.3576	-0.4679	-2.9219	40.8488	1.3887	0.8762	0.6498	6.9792	-0.9502	-1.6421	1.3693	1.5823	1.6606	16.6008
56.0000	0.0636	0.1327	0.1238	-7.8098	-5.7498	16.6895	0.1280	0.3478	0.1295	-2.4870	-0.6416	-0.0774	0.0601	0.4724	0.7283	5.9576
64.0000	0.3836	0.6350	0.2624	2.3263	-0.5379	7.8832	0.9709	-0.2100	0.4374	5.4097	-1.0913	-1.4473	0.9165	1.0630	1.7225	16.8100
72.0000	0.3539	0.4972	0.2798	-2.1276	-3.2252	50.3266	1.1749	1.4908	0.5233	5.1016	-0.4984	-0.7314	1.1318	1.4014	0.9054	8.9827
80.0000	0.2217	0.3843	0.1649	-0.4405	-0.3949	9.2594	0.6465	0.1498	0.2231	1.1037	-0.8193	-0.3207	0.4881	0.7754	1.1030	9.8327
88.0000	0.4526	0.6957	0.3132	2.2831	-0.8662	30.9288	1.3248	0.6606	0.5741	7.4121	-0.8874	-1.3566	1.2758	1.4444	1.5279	15.2541
96.0000	0.2453	0.3461	0.1899	-1.1172	-1.7683	33.4781	0.8233	1.0193	0.3413	2.9336	-0.3804	-0.3934	0.7581	0.9686	0.6464	6.1910
104.0000	0.4498	0.6977	0.3045	2.3150	0.5535	30.0347	1.3939	0.7886	0.4962	4.6671	-1.0412	-0.7795	1.1844	1.5062	1.5909	14.8342
112.0000	0.4254	0.6005	0.3398	-3.7065	-3.7173	57.9765	1.4024	1.7237	0.5776	3.4999	-0.7999	-0.6814	1.2530	1.6907	1.2693	11.7960
120.0000	0.2433	0.3865	0.1959	-3.3063	-1.7756	15.2307	0.6690	0.2605	0.2410	-1.2389	-0.9505	-0.4708	0.4786	0.8425	1.2794	11.1672
128.0000	0.3978	0.6709	0.2936	-0.3427	-1.3089	14.9548	1.0812	0.1014	0.4282	2.9571	-1.3550	-0.9955	0.8932	1.2814	1.9298	17.7829
136.0000	0.2583	0.4186	0.2064	-2.2516	-1.8977	20.2917	0.7617	0.4564	0.3054	1.4022	-0.8307	-0.5027	0.6278	0.9510	1.1664	10.5734
144.0000	0.4626	0.6782	0.2778	3.8258	2.7683	18.2866	1.3367	0.2878	0.4507	3.7858	-0.9952	-1.2739	1.1434	1.2666	1.6505	15.7350
152.0000	0.5002	0.6781	0.3496	0.2043	-0.8218	57.2901	1.6452	1.7331	0.6158	4.6217	-0.7237	-0.8821	1.4678	1.7714	1.2880	12.2720
160.0000	0.2009	0.3169	0.2085	-6.1011	-4.6001	38.0057	0.7097	1.2081	0.2852	-0.8504	-0.7162	0.1777	0.5284	1.0678	0.8606	6.9578
168.0000	0.1599	0.3200	0.2028	-8.3352	-6.2898	19.4584	0.4037	0.3713	0.2225	-2.2486	-1.1119	-0.1236	0.2434	0.8466	1.3136	11.0156
176.0000	-0.0140	-0.0011	0.0744	-8.8559	-5.9132	13.5166	-0.1029	0.3221	0.0125	-5.3545	-0.5307	0.2643	-0.2043	0.2349	0.4881	3.1992
184.0000	0.1073	0.1438	0.0907	-1.8763	-1.1355	12.3835	0.3160	0.3639	0.0897	-2.3253	-0.3964	0.0047	0.1819	0.4074	0.4963	3.8768
192.0000	0.1206	0.1696	0.1222	-2.7873	-2.4874	33.3020	0.5354	1.2120	0.2001	0.6163	-0.1916	0.3746	0.4333	0.7472	0.2082	1.3922
200.0000	-0.1031	-0.1206	-0.0172	-4.5789	-3.1701	11.4685	-0.1848	0.5561	-0.0587	-1.7647	0.0372	0.8579	-0.2229	0.0455	-0.2861	-3.5299
208.0000	0.0493	0.0577	0.0737	-3.9835	-2.8610	19.0379	0.1882	0.6200	0.0882	-1.7693	-0.2034	0.1538	0.1215	0.3600	0.2107	1.3697
216.0000	-0.0151	-0.0642	0.0475	-5.9927	-3.8888	29.0489	0.0938	1.1209	0.0254	-4.0262	-0.0145	0.7407	-0.0177	0.3292	-0.1557	-2.6614
224.0000	-0.0399	-0.0178	-0.0104	-0.1947	-0.4610	3.7385	-0.0077	0.3140	-0.0381	-0.2062	-0.0294	0.7166	-0.0782	0.0997	-0.1297	-1.8568
232.0000	0.0364	0.0767	0.0472	-0.1671	-0.9955	21.8179	0.3197	0.9429	0.1123	2.5493	0.0703	0.6183	0.2802	0.4664	-0.1702	-1.7910
240.0000	-0.0852	-0.1085	-0.0011	-4.5776	-3.1200	22.4571	-0.0276	1.0615	-0.0395	-2.2727	0.0812	1.2552	-0.1340	0.2364	-0.3967	-4.9775
248.0000	-0.0799	-0.0679	-0.0106	-3.5015	-2.4002	3.5386	-0.1697	0.2462	-0.0731	-2.1830	-0.1514	0.7650	-0.2460	0.0334	-0.0433	-1.4083
256.0000	-0.1923	-0.2424	-0.1018	-2.5883	-1.7472	-10.3596	-0.5631	-0.2231	-0.1945	-2.0002	0.1877	0.6687	-0.5260	-0.4585	-0.4677	-4.8594
264.0000	-0.1740	-0.1983	-0.1139	1.0643	-0.2352	-19.7477	-0.5535	-0.5663	-0.1815	0.3846	0.2366	0.4195	-0.4631	-0.5372	-0.4522	-4.1477
272.0000	-0.0613	-0.0634	-0.0354	1.4930	-0.5550	1.3674	-0.1176	0.1584	-0.0032	2.8435	0.2857	0.2731	-0.0247	-0.0741	-0.4034	-3.3286
280.0000	-0.1553	-0.2057	-0.0868	-0.6893	-1.0134	-0.5335	-0.3592	0.2098	-0.1311	-0.1826	0.3610	0.7910	-0.3186	-0.2797	-0.6502	-6.3377
288.0000	-0.0637	-0.0663	-0.0156	-1.1945	-1.6178	6.8193	-0.0953	0.3889	-0.0332	-0.2161	0.0785	0.6456	-0.1140	0.0415	-0.2559	-2.8603
296.0000	-0.0080	-0.0365	0.0296	-2.4355	-1.9633	29.7538	0.2211	1.2864	0.0529	-0.6052	0.2045	0.9295	0.1391	0.3933	-0.4128	-4.6076
304.0000	-0.0555	-0.0695	-0.0041	-2.5552	-1.4095	17.7237	0.0520	0.8976	-0.0364	-1.6262	0.0805	1.1070	-0.0644	0.2239	-0.3398	-4.2619
312.0000	-0.0943	-0.0959	-0.0095	-4.5076	-3.0477	11.3480	-0.1446	0.5814	-0.0640	-2.2005	-0.0586	0.9994	-0.2262	0.1057	-0.2015	-3.0104
320.0000	-0.1504	-0.2191	-0.0894	-1.3536	-0.5671	-2.7457	-0.3750	0.1036	-0.1619	-1.9546	0.3020	0.7132	-0.3722	-0.3365	-0.5679	-5.7923
328.0000	-0.0500	-0.1047	-0.0879	4.9242	3.6698	-11.3024	-0.1197	-0.2752	-0.0760	2.3120	0.4998	-0.1029	-0.0290	-0.3613	-0.5411	-4.1986
336.0000	-0.0518	-0.1038	-0.0881	5.3709	3.8474	-4.5216	-0.0312	0.0578	-0.0516	3.5771	0.6238	0.1467	0.0597	-0.2531	-0.7225	-5.8481
344.0000	-0.1041	-0.1534	-0.1146	5.4690	2.7571	-14.5033	-0.2852	-0.3624	-0.0904	4.0501	0.6266	-0.0142	-0.1137	-0.4770	-0.7343	-5.6799
352.0000	-0.0394	-0.1144	-0.0559	3.1451	0.8842	0.1666	-0.1308	-0.0221	0.0297	4.0253	0.6557	-0.5295	0.0961	-0.2928	-0.6370	-4.3698
360.0000	-0.0171	-0.1130	-0.0548	3.7059	2.5242	8.4373	0.0609	0.4347	0.0093	2.4726	0.7124	-0.0721	0.1680	-0.1481	-0.7636	-6.1601
368.0000	-0.0268	-0.0852	-0.0840	7.1791	3.7897	-10.2164	-0.0823	-0.2994	-0.0069	5.1696	0.7021	-0.4982	0.1212	-0.3779	-0.6696	-4.5249
376.0000	-0.0578	-0.1494	-0.0834	4.5393	1.7049	-5.5510	-0.2147	-0.2322	0.0078	4.8353	0.7952	-0.6992	0.0653	-0.4506	-0.7655	-5.1760
384.0000	-0.0457	-0.1116	-0.0682	3.5742	2.1085	-3.1061	-0.1044	-0.0328	-0.0274	2.6449	0.5576	-0.1797	0.0274	-0.2842	-0.5945	-4.5436
392.0000	-0.0677	-0.1029	-0.0792	3.6095	2.0024	-12.4904	-0.2169	-0.3872	-0.0608	2.8024	0.4133	-0.1844	-0.0821	-0.3707	-0.4502	-3.2540
400.0000	-0.0360	-0.0932	-0.0756	5.3074	3.4306	-3.7193	-0.0241	0.0367	-0.0374	3.0871	0.5903	0.0119	0.0705	-0.2452	-0.6525	-5.1841
408.0000	0.0828	0.0718	-0.0204	9.0832	5.5728	9.2131	0.4676	0.5960	0.0986	6.2427	0.6333	0.0904	0.5116	0.1876	-0.6218	-4.6520
416.0000	-0.0071	-0.0351	-0.0529	5.9910	3.0443	1.1584	0.0903	0.1753	0.0511	6.1308	0.6545	-0.1629	0.2557	-0.1042	-0.6698	-4.7612
424.0000	-0.0122	-0.0608	-0.0546	4.8625	2.7577	-1.8375	0.0117	0.0113	0.0148	3.9776	0.5680	-0.2739	0.1518	-0.1956	-0.5615	-4.0031
432.0000	0.0916	0.0668	-0.0068	7.4545	4.8060	10.4837	0.4464	0.5571	0.1040	4.9354	0.5612	-0.0929	0.4878	0.1788	-0.5083	-3.6718
440.0000	0.0026	-0.0448	-0.0534	5.8826	3.7691	1.9983	0.1316	0.2541	0.0111	3.8014	0.5972	0.0129	0.2109	-0.0960	-0.6324	-4.9425
448.0000	-0.0372	-0.0949	-0.0604	4.0155	1.7146	-4.2293	-0.1157	-0.1103	-0.0118	2.9808	0.5272	-0.2891	0.0360	-0.2848	-0.5364	-3.8890
456.0000	-0.0184	-0.0695	-0.0444	3.6119	1.7203	2.5914	0.0051	0.1686	0.0221	3.4078	0.5399	-0.1631	0.1351	-0.1414	-0.5611	-4.1902
464.0000	-0.0280	-0.0712	-0.0549	3.5032	2.4271	-2.0351	-0.0170	0.0449	-0.0241	2.3184	0.4386	-0.0052	0.0568	-0.1750	-0.4838	-3.8253
472.0000	-0.0055	-0.0713	-0.0369	3.1570	1.6049	1.8034	-0.0058	0.0880	0.0129	1.9528	0.4776	-0.2999	0.1047	-0.1720	-0.4609	-3.3921
480.0000	0.0075	-0.0625	-0.0321	3.5126	1.9212	6.5419	0.0792	0.2823	0.0422	2.8141	0.5713	-0.2846	0.1995	-0.1018	-0.5556	-4.1178
488.0000	-0.0397	-0.0811	-0.0611	3.3748	2.0838	-5.8457	-0.0969	-0.1449	-0.0259	2.7673	0.4390	-0.1798	0.0201	-0.2551	-0.4606	-3.3759
496.0000	-0.1264	-0.1878	-0.0876	-0.1021	-0.6491	-15.1907	-0.4932	-0.6001	-0.1099	0.4083	0.3167	-0.2884	-0.3258	-0.5477	-0.3792	-2.8252
504.0000	-0.1407	-0.2078	-0.0560	-4.7535	-3.6789	-9.7591	-0.5899	-0.5044	-0.1189	-2.8537	0.0593	-0.2095	-0.4698	-0.4874	-0.1398	-1.2850
512.0000	-0.1444	-0.2078	-0.0526	-5.7238	-3.6998	-10.2773	-0.5907	-0.4819	-0.1597	-4.9304	-0.0936	0.0441	-0.5554	-0.4580	-0.0243	-0.8305
520.0000	-0.1314	-0.1858	-0.0885	-1.0323	-0.3329	-21.0351	-0.5366	-0.7745	-0.1886	-2.9995	0.0461	-0.0221	-0.4947	-0.5755	-0.1377	-1.4745
528.0000	-0.0724	-0.1044	-0.0575	0.9458	0.4412	-8.6822	-0.2392	-0.2595	-0.0820	0.0924	0.1954	0.0613	-0.1845	-0.2875	-0.2709	-2.3308
536.0000	-0.0626	-0.1003	-0.0156	-2.5193	-1.9405	8.3391	-0.1330	0.3573	-0.0294	-1.0780	0.1405	0.3605	-0.1210	-0.0310	-0.2731	-2.8366
544.0000	-0.0586	-0.0932	-0.0019	-4.3157	-2.9411	3.2773	-0.2260	0.0524	-0.0468	-3.0128	-0.0773	0.1166	-0.2280	-0.0956	0.0066	-0.4401
552.0000	-0.0306	-0.0656	-0.0033	-2.4339	-1.3545	3.1006	-0.1118	0.0953	-0.0410	-2.6002	-0.0255	0.1232	-0.1400	-0.0596	-0.0247	-0.6768
560.0000	0.0378	0.0226	0.0064	1.6478	1.6921	9.0493	0.2280	0.4468	0.0256	0.3250	0.1503	0.2367	0.1717	0.1593	-0.1754	-1.7382
568.0000	-0.0142	-0.0458	-0.0075	-0.5225	-0.4482	5.7902	-0.0164	0.1977	0.0220	0.7760	0.2075	-0.0834	0.0441	-0.0248	-0.2228	-1.7239
576.0000	-0.1121	-0.1903	-0.0335	-5.7161	-3.7965	-1.4236	-0.4613	-0.1987	-0.0901	-3.6832	0.0505	-0.1441	-0.3833	-0.3493	-0.1254	-1.3651
584.0000	-0.0496	-0.1020	-0.0129	-3.9378	-2.0753	-5.7692	-0.3017	-0.3760	-0.0740	-3.9362	-0.1128	-0.3156	-0.2839	-0.2706	0.1350	0.9837
592.0000	-0.0887	-0.1577	-0.0382	-3.8650	-2.4246	-7.7613	-0.4279	-0.4539	-0.0861	-2.8679	0.0481	-0.3906	-0.3352	-0.4021	-0.0537	-0.3933
600.0000	-0.0794	-0.1343	-0.0124	-5.5788	-3.3712	-1.6126	-0.3585	-0.1820	-0.0939	-4.9496	-0.1489	0.0012	-0.3687	-0.2345	0.0885	0.1360
608.0000	-0.0244	-0.0315	0.0099	-3.2520	-1.7110	0.6701	-0.1087	-0.0018	-0.0514	-3.4510	-0.2300	0.2174	-0.1858	-0.0066	0.1833	0.8996
616.0000	-0.0858	-0.1128	-0.0499	-1.1108	-0.7623	-9.2415	-0.3135	-0.3430	-0.0868	-0.7023	0.0828	0.0064	-0.2552	-0.3006	-0.1530	-1.3601
624.0000	0.0324	0.0292	0.0201	-0.2803	-0.0393	2.1174	0.0708	0.0199	0.0258	-0.5676	-0.0569	-0.1703	0.0580	0.0555	0.1146	1.0623
632.0000	0.0120	-0.0077	0.0018	0.0774	0.4000	3.8607	0.0595	0.1492	0.0096	-0.2390	0.0809	-0.0196	0.0529	0.0248	-0.0755	-0.6735
640.0000	-0.0994	-0.1343	-0.0662	-0.5176	-0.6797	-14.5679	-0.4101	-0.6062	-0.0813	0.6475	0.1868	-0.3340	-0.2642	-0.4425	-0.2108	-1.3133
648.0000	-0.0559	-0.0762	-0.0019	-4.5002	-3.0657	-4.0787	-0.2999	-0.3223	-0.0395	-2.3799	-0.1548	-0.2574	-0.2503	-0.1881	0.1629	1.3785
656.0000	-0.1072	-0.1496	-0.0300	-5.9774	-3.0957	-6.8719	-0.4332	-0.3391	-0.1341	-5.0810	-0.2047	0.1283	-0.4576	-0.2985	0.1086	0.1810
664.0000	-0.0644	-0.0788	-0.0201	-3.7053	-2.2532	-16.2256	-0.4126	-0.8088	-0.0871	-2.9675	-0.2528	-0.4768	-0.3597	-0.3613	0.3090	2.7959
672.0000	-0.0556	-0.1006	-0.0153	-3.9189	-2.1359	-6.5421	-0.3144	-0.3979	-0.0737	-3.5254	-0.1154	-0.2930	-0.2884	-0.2721	0.1298	0.9759
680.0000	-0.0652	-0.1004	-0.0457	-1.3377	-0.0210	-12.3142	-0.2891	-0.4912	-0.1061	-2.2231	-0.0144	-0.1296	-0.2739	-0.3294	-0.0059	-0.1715
688.0000	-0.0228	-0.0322	-0.0114	-1.2523	-0.9830	-10.6266	-0.2233	-0.5766	-0.0123	-0.0256	-0.0486	-0.6097	-0.1213	-0.2427	0.1468	1.9067
696.0000	-0.1067	-0.1700	-0.0470	-4.3026	-2.2040	-7.4394	-0.4303	-0.3641	-0.1170	-3.4259	0.0162	-0.0904	-0.3844	-0.3792	-0.0863	-1.0472
704.0000	-0.0099	-0.0005	0.0115	-2.9124	-0.9871	-3.4395	-0.0802	-0.1777	-0.0463	-2.9568	-0.2926	0.0723	-0.1569	-0.0119	0.2922	2.0466
712.0000	-0.0292	-0.0288	-0.0168	-0.9749	0.0054	-6.7114	-0.1200	-0.2458	-0.0580	-1.3696	-0.1054	0.0541	-0.1465	-0.1136	0.0845	0.5079
720.0000	-0.0743	-0.1068	-0.0918	2.9235	2.9646	-22.4385	-0.2887	-0.7566	-0.1369	0.2777	0.2018	-0.1795	-0.2331	-0.4843	-0.2222	-1.6283
728.0000	0.0443	0.0544	0.0277	-0.1289	-0.1190	1.9610	0.0973	-0.0309	0.0611	0.7727	-0.0460	-0.3522	0.1262	0.0803	0.1453	1.6875
736.0000	-0.1177	-0.1591	-0.0404	-4.6499	-2.8684	-4.3302	-0.4126	-0.1812	-0.1181	-3.3660	-0.0472	0.2535	-0.4016	-0.2795	-0.0910	-1.4276
744.0000	-0.0852	-0.0925	-0.0791	0.8673	1.1899	-30.6055	-0.4544	-1.2206	-0.1376	-0.2325	-0.0381	-0.5450	-0.3545	-0.5792	0.0924	1.3974
752.0000	-0.0112	-0.0485	-0.0212	0.2266	0.2552	-5.2318	-0.1203	-0.3111	0.0022	0.7502	0.1764	-0.5578	-0.0114	-0.2165	-0.0951	-0.1348
760.0000	-0.0645	-0.1111	-0.0478	0.0388	0.3114	-2.5294	-0.1728	-0.0002	-0.0845	-1.2117	0.1866	0.2489	-0.1712	-0.2043	-0.2932	-2.9023
768.0000	0.0396	0.0585	0.0077	1.9235	1.1603	-2.8446	0.0990	-0.1602	0.0552	2.4134	0.0527	-0.3818	0.1574	0.0203	0.0477	1.1077
776.0000	-0.0856	-0.1517	-0.0659	-0.3788	0.2171	-4.6369	-0.2641	-0.1521	-0.0713	0.2688	0.3532	-0.0997	-0.1611	-0.3364	-0.4240	-3.4576
784.0000	-0.0394	-0.0333	-0.0337	0.6029	0.7139	-11.2257	-0.1532	-0.3734	-0.0733	-0.4752	-0.0486	0.0670	-0.1609	-0.1808	0.0178	0.0529
792.0000	0.0105	0.0115	0.0469	-4.3338	-2.7014	13.1235	0.0572	0.4241	0.0352	-2.2618	-0.1944	0.2094	-0.0042	0.2204	0.1649	0.8797
800.0000	-0.1024	-0.1849	-0.0496	-4.0949	-1.4259	-1.5405	-0.3359	-0.0370	-0.1398	-4.7314	0.0669	0.2708	-0.3691	-0.3010	-0.2040	-2.6156
808.0000	0.0536	0.0493	0.0310	-0.6966	-0.0921	-0.9402	0.0632	-0.1997	0.0426	-0.7922	-0.1244	-0.5363	0.0746	0.0158	0.2700	2.7341
816.0000	0.0364	-0.0231	0.0364	-2.6540	-0.5976	22.8203	0.2385	0.9060	0.0250	-3.4180	0.0732	0.4276	0.1122	0.2740	-0.1430	-2.1754
824.0000	0.1483	0.1649	0.0372	6.0687	5.3830	11.5383	0.6424	0.6465	0.0765	1.1221	0.0928	0.3080	0.4683	0.4248	-0.0337	-0.5510
832.0000	0.2191	0.2745	0.0935	6.6859	4.3825	26.7788	0.9238	1.1133	0.2653	6.3145	0.2461	-0.0371	0.8723	0.7583	-0.0901	-0.0325
840.0000	0.1487	0.1737	0.0801	3.0628	3.3532	42.2497	0.9336	1.9924	0.1481	1.2418	0.1806	1.3858	0.6507	0.9401	-0.3406	-4.3066
848.0000	0.3649	0.5221	0.2300	4.0202	3.5887	57.5802	1.6301	2.4298	0.3902	3.7163	-0.3539	1.1248	1.2314	1.7150	0.4403	2.8772
856.0000	0.1464	0.2019	0.1411	-3.1880	-1.1666	51.7991	0.8791	2.1686	0.2028	-0.5676	-0.1782	1.3813	0.5850	1.1416	0.0275	-1.3867
864.0000	0.0348	0.1147	0.0473	-1.2024	0.0066	7.0029	0.2557	0.4776	-0.0305	-3.0532	-0.5089	1.0942	-0.0203	0.4292	0.3737	1.6552
872.0000	0.0342	0.1395	0.0655	-2.1359	-2.4513	3.9305	0.1199	0.1007	0.0798	1.1391	-0.4460	0.2357	0.0722	0.3497	0.4569	3.8231
880.0000	-0.1596	-0.1639	-0.0571	-4.5067	-2.4898	-2.9415	-0.3896	0.1169	-0.1843	-3.9640	-0.1483	1.1873	-0.5040	-0.1557	-0.1804	-3.2103
888.0000	0.0855	0.1933	0.0506	2.4359	1.5678	-5.8222	0.2778	-0.1175	0.0118	-0.5994	-0.5313	0.3932	0.0880	0.3192	0.5731	4.4049
896.0000	-0.1208	-0.1463	-0.0660	-0.9735	-1.3279	-6.4609	-0.3648	-0.1982	-0.0701	1.4701	0.2625	0.1182	-0.2352	-0.3124	-0.3943	-3.2383
904.0000	-0.2031	-0.2217	-0.1217	-1.1092	-0.6815	-24.2825	-0.6581	-0.7354	-0.2384	-1.5664	0.0598	0.5590	-0.6193	-0.5966	-0.3084	-3.2985
912.0000	-0.0347	0.0256	0.0317	-3.7176	-3.7778	-3.4773	-0.1909	-0.2020	-0.0230	-2.0532	-0.4696	0.2654	-0.2376	0.0630	0.4223	3.1094
920.0000	-0.3229	-0.4116	-0.1669	-5.3146	-3.5139	-23.1577	-1.0451	-0.6841	-0.3491	-4.9164	0.1734	0.8743	-0.9837	-0.8705	-0.5882	-6.4147
928.0000	-0.0283	0.0309	-0.0445	3.8962	2.2776	-22.9323	-0.1414	-0.7476	-0.0861	1.3379	-0.1502	0.0787	-0.1539	-0.2121	0.1446	1.3832
936.0000	-0.0301	-0.0550	-0.0187	0.9507	-0.1069	8.8386	0.0179	0.4527	0.0063	1.2906	0.2892	0.3646	0.0451	0.0356	-0.4034	-3.6590
944.0000	-0.0802	-0.1105	-0.0790	3.6813	2.3047	-2.7836	-0.0924	0.2023	-0.0993	1.2791	0.3959	0.7083	-0.1004	-0.1705	-0.6056	-5.7125
952.0000	0.1857	0.2814	0.1409	1.2999	-0.9200	31.3520	0.7321	1.1190	0.2965	4.8926	-0.1169	0.0240	0.7021	0.8639	0.2473	2.6333
960.0000	-0.2368	-0.3366	-0.0878	-7.7398	-4.6561	7.7040	-0.6026	0.4887	-0.2169	-5.5552	0.2030	1.2479	-0.6403	-0.3285	-0.6403	-7.4107
968.0000	-0.0349	0.0262	0.0005	-1.4551	-1.0435	-13.8846	-0.1825	-0.4785	-0.1009	-3.0756	-0.5086	0.4059	-0.3072	-0.0505	0.4508	3.0807
976.0000	0.0149	0.0070	0.0730	-5.6171	-4.5555	27.5890	0.1366	0.9590	0.1005	-1.5517	-0.0853	0.3795	0.1001	0.4016	0.0085	-0.5582
984.0000	-0.1887	-0.2734	-0.1291	-1.1312	0.7340	-13.5742	-0.5173	-0.2392	-0.2623	-3.8275	0.2616	0.8165	-0.5611	-0.5461	-0.5640	-6.0882
992.0000	0.1195	0.1954	0.0914	0.0677	-1.3707	2.3146	0.2374	-0.1726	0.1649	2.1363	-0.3401	-0.7332	0.2837	0.2936	0.5842	5.9975
1000.0000	-0.2834	-0.4771	-0.1052	-10.8781	-7.1959	7.6399	-0.9164	0.2348	-0.2254	-7.1830	0.4259	0.4900	-0.7947	-0.6662	-0.7885	-8.1036
1008.0000	-0.0268	-0.0726	-0.0449	1.3801	1.5595	-13.2957	-0.1842	-0.5037	-0.0969	-2.0502	0.0585	-0.2435	-0.1838	-0.3277	-0.0309	-0.2681
1016.0000	0.0906	0.0015	0.0808	-2.2715	-2.8365	39.3250	0.3574	1.2721	0.2281	1.5863	0.4827	-0.4630	0.4815	0.3920	-0.3953	-2.7997
1024.0000	-0.3337	-0.5988	-0.2183	-3.5218	-1.3794	-6.2013	-0.9853	0.0135	-0.3603	-5.8786	1.0011	0.7000	-0.8506	-1.0699	-1.4610	-13.8884
1032.0000	0.1568	0.1605	0.0451	6.7655	2.8762	1.4710	0.3763	-0.1497	0.2009	5.8123	0.3028	-1.2659	0.5511	0.1068	0.0284	2.2380
1040.0000	-0.1364	-0.3918	-0.0998	-0.9633	-0.7419	34.4690	-0.1642	1.4729	-0.0301	0.0971	1.3792	0.4044	0.0248	-0.2869	-1.6808	-14.8166
1048.0000	0.6288	0.9689	0.4332	3.5286	-1.2773	30.4242	1.6944	0.4103	0.7157	6.7677	-1.5274	-1.9490	1.5486	1.8475	2.4543	23.6449
1056.0000	0.1213	0.1889	0.0263	6.2083	3.9936	-10.1424	0.3285	-0.4023	0.0882	3.8097	-0.0804	-0.5594	0.3359	0.1262	0.2963	3.5781
1064.0000	0.0941	0.1241	0.0303	4.0244	1.8605	4.0018	0.3025	0.0605	0.1603	5.7790	0.2315	-0.6685	0.4352	0.1712	-0.0518	0.9646
1072.0000	-0.0552	-0.1034	-0.0166	-2.5881	-1.5709	7.0174	-0.1317	0.2846	-0.0374	-1.6832	0.1321	0.2511	-0.1269	-0.0654	-0.2376	-2.5048
1080.0000	0.0954	0.1565	0.0027	6.3718	4.4874	-15.7763	0.2361	-0.5967	0.0500	3.7654	-0.0483	-0.5830	0.2574	0.0020	0.2506	3.2227
1088.0000	0.0821	0.0757	0.0551	0.1575	-0.7020	18.1027	0.2926	0.5287	0.1834	3.7807	0.2454	-0.5304	0.4132	0.2790	-0.1157	-0.0035
1096.0000	-0.0813	-0.0896	-0.0497	-0.6594	0.1756	-9.8192	-0.2388	-0.2346	-0.1334	-2.3135	-0.0676	0.4832	-0.3035	-0.2110	-0.0712	-1.3655
1104.0000	0.1420	0.2485	0.0626	4.7986	2.8288	-4.2317	0.4303	-0.1651	0.1157	3.1670	-0.3044	-0.2581	0.3652	0.3478	0.4931	4.8595
1112.0000	-0.0306	-0.0694	-0.0143	-0.2557	-0.6181	11.6639	0.0100	0.4987	0.0267	1.4284	0.3376	0.2002	0.0712	0.0311	-0.4290	-3.6955
1120.0000	-0.0659	-0.0453	-0.0703	3.4043	1.9229	-20.7435	-0.2432	-0.6902	-0.0819	2.5668	0.1209	-0.0839	-0.1576	-0.3404	-0.1478	-0.7802
1128.0000	-0.0326	-0.0392	-0.0284	0.7141	0.0738	-6.6011	-0.1416	-0.2895	-0.0033	1.9669	0.1551	-0.2969	-0.0321	-0.1818	-0.1338	-0.5553
1136.0000	-0.0213	-0.0372	-0.0333	1.7704	1.8680	-1.1670	0.0229	0.1281	-0.0613	-0.4567	0.1246	0.4139	-0.0388	-0.0429	-0.2191	-2.3581
1144.0000	0.1608	0.2698	0.0791	5.1387	2.8274	9.5420	0.6254	0.4356	0.1792	4.8931	-0.1392	0.0492	0.5547	0.5795	0.2690	2.8269
1152.0000	-0.0657	-0.0785	-0.0196	-2.1784	-1.7304	3.7090	-0.1548	0.1625	-0.0173	0.4398	0.1166	0.2260	-0.1033	-0.0553	-0.2214	-2.0420
1160.0000	0.0131	0.0448	-0.0108	1.8451	1.6122	-13.6744	-0.0274	-0.5066	-0.0398	-0.1238	-0.1751	-0.1435	-0.0581	-0.0998	0.2352	2.1582
1168.0000	0.1069	0.1366	0.0714	0.4103	0.0265	15.4220	0.3865	0.5073	0.1487	1.8385	-0.0403	-0.1789	0.3712	0.3990	0.1500	1.6475
1176.0000	-0.0816	-0.1062	-0.0314	-3.0605	-1.3857	-2.0866	-0.2388	-0.0272	-0.0965	-2.6256	-0.0448	0.3792	-0.2741	-0.1509	-0.0853	-1.4295
1184.0000	0.1192	0.1827	0.0652	1.8807	1.2367	0.2870	0.3260	-0.0671	0.0936	0.6980	-0.3066	-0.2970	0.2565	0.2878	0.4770	4.4339
1192.0000	0.0628	0.0237	0.0489	-1.2325	-0.9434	20.7905	0.2516	0.6945	0.1150	0.2661	0.1803	-0.1678	0.2709	0.2593	-0.1296	-0.9629
1200.0000	-0.0235	-0.0252	-0.0389	1.5900	1.5118	-17.3903	-0.1770	-0.6707	-0.0747	-0.3667	-0.0424	-0.2963	-0.1537	-0.2872	0.0931	1.0839
1208.0000	0.0767	0.1170	0.0298	2.6654	1.1785	-3.8943	0.1690	-0.2598	0.0949	3.0289	-0.0374	-0.5973	0.2361	0.0831	0.2121	2.8067
1216.0000	0.0052	-0.0238	0.0329	-3.2369	-2.2570	18.9073	0.0946	0.6622	0.0688	-0.3272	0.1103	0.1297	0.1076	0.2050	-0.1534	-1.5176
1224.0000	0.0341	0.0804	0.0652	-4.4707	-2.4162	6.8438	0.0945	0.1889	0.0165	-3.4398	-0.5098	0.2904	-0.0506	0.2872	0.5113	3.6091
1232.0000	-0.0560	-0.0311	0.0351	-7.4107	-4.3653	6.5159	-0.1605	0.2469	-0.0760	-5.8351	-0.5386	0.7815	-0.3351	0.1577	0.3798	1.7034
1240.0000	-0.0280	0.0240	0.0253	-3.8640	-1.7631	3.5010	0.0007	0.2798	-0.0812	-4.4363	-0.5040	1.0179	-0.2278	0.2322	0.3308	1.2156
1248.0000	0.0811	0.1609	0.0772	-1.2203	-0.2477	13.8156	0.3933	0.6426	0.0513	-1.7506	-0.4550	0.7862	0.1612	0.5534	0.4026	2.3621
1256.0000	-0.0555	-0.0307	0.0255	-5.9101	-3.2761	11.2512	-0.0535	0.5518	-0.0723	-4.7951	-0.3967	1.1071	-0.2528	0.2430	0.1706	-0.2943
1264.0000	0.0054	0.0786	0.0429	-3.2777	-1.4319	3.6696	0.0945	0.2457	-0.0376	-3.3116	-0.5471	0.8401	-0.1208	0.3108	0.4359	2.4353
1272.0000	0.0459	0.0949	0.0364	0.1058	0.6371	8.3329	0.2700	0.4461	0.0244	-0.4781	-0.2091	0.5859	0.1229	0.3400	0.1529	0.6163
1280.0000	-0.0410	-0.0053	-0.0166	-0.3149	-0.1783	-7.9890	-0.1180	-0.2043	-0.0723	-0.9994	-0.2033	0.4122	-0.1839	-0.0448	0.1172	0.4824
1288.0000	-0.0598	-0.0350	-0.0149	-2.2477	-1.9192	-12.1248	-0.2949	-0.5362	-0.0571	-0.8449	-0.2243	-0.0971	-0.2583	-0.1938	0.2142	1.8746
1296.0000	-0.0951	-0.1253	-0.0339	-3.9874	-2.5730	-9.7322	-0.4179	-0.4758	-0.0938	-2.5282	-0.0910	-0.1457	-0.3613	-0.3302	0.0486	0.2881
1304.0000	-0.0137	-0.0081	-0.0188	0.4659	0.6264	-15.0241	-0.1616	-0.5955	-0.0783	-1.9689	-0.1992	-0.1675	-0.1932	-0.2107	0.2417	2.0055
1312.0000	0.0351	0.0356	-0.0196	4.6132	2.7256	-8.3453	0.0721	-0.3045	0.0204	2.6368	0.1862	-0.4075	0.1378	-0.1088	-0.0885	0.0011
1320.0000	-0.0266	-0.0259	-0.0453	3.3274	1.5297	-11.5703	-0.1201	-0.4314	-0.0034	3.6124	0.2577	-0.3764	0.0186	-0.2388	-0.2183	-0.9768
1328.0000	-0.0331	-0.0141	-0.0408	2.3155	1.4838	-14.2337	-0.1320	-0.4666	-0.0610	1.0660	0.0095	-0.0069	-0.1094	-0.1978	-0.0223	-0.0082
1336.0000	0.0353	0.0334	0.0090	1.6860	1.1816	5.5123	0.1719	0.2648	0.0336	0.8396	0.0995	0.0832	0.1493	0.1209	-0.0946	-0.8106
1344.0000	0.0993	0.1026	0.0687	-0.1223	0.0253	22.3092	0.4277	0.8348	0.1325	0.6388	0.0381	0.1114	0.3655	0.4497	0.0035	-0.0751
1352.0000	0.1165	0.1280	0.0538	2.3141	2.2966	17.3589	0.5122	0.7414	0.1074	0.9608	0.0569	0.1997	0.4048	0.4364	-0.0107	-0.2502
1360.0000	0.1392	0.1672	0.0526	4.7659	3.2441	14.7310	0.5724	0.6326	0.1498	3.5204	0.1585	-0.0368	0.5278	0.4358	-0.0554	-0.0556
1368.0000	0.0952	0.1231	0.0591	1.7981	0.6904	19.8286	0.4490	0.8158	0.1361	2.3475	0.0809	0.2498	0.3987	0.4661	-0.0663	-0.5803
1376.0000	0.0539	0.0970	0.0538	-0.4081	-0.6612	14.3226	0.2815	0.6067	0.0742	0.2693	-0.1469	0.4576	0.1857	0.3964	0.1086	0.4592
1384.0000	0.0514	0.0934	0.0561	-1.1683	-1.0961	11.2540	0.2204	0.4336	0.0647	-0.4338	-0.2240	0.3079	0.1312	0.3413	0.2164	1.4484
1392.0000	0.1398	0.1823	0.0906	1.1817	1.1290	24.2096	0.6190	1.0212	0.1320	-0.0386	-0.1495	0.5250	0.4314	0.6570	0.1638	0.7639
1400.0000	0.2893	0.3874	0.1795	3.3354	2.5121	44.7114	1.2296	1.8277	0.3080	2.4213	-0.2189	0.6534	0.9497	1.2649	0.3239	2.2388
1408.0000	0.1836	0.2615	0.1206	2.2675	1.5034	35.9673	0.8859	1.5323	0.2249	2.8206	-0.0714	0.7497	0.6937	0.9604	0.0701	0.0793
1416.0000	0.1010	0.1849	0.0628	2.6043	1.2629	13.8962	0.4849	0.6454	0.1322	3.3653	-0.0977	0.4092	0.4002	0.5333	0.1075	0.8926
1424.0000	0.1171	0.1812	0.0982	-0.9316	-0.6525	21.6374	0.4963	0.8276	0.1453	0.4438	-0.2646	0.3604	0.3628	0.6251	0.2973	2.1623
1432.0000	0.1086	0.1193	0.0634	0.5105	1.5564	19.6707	0.5002	0.8550	0.0725	-1.4812	-0.1043	0.4905	0.3081	0.4905	0.1002	0.0770
1440.0000	0.1652	0.2320	0.0847	3.8111	2.2667	14.1440	0.6105	0.5428	0.1802	3.3095	-0.0796	-0.1054	0.5432	0.5464	0.2306	2.4332
1448.0000	0.0513	0.0796	0.0620	-1.9717	-1.5965	19.3514	0.2749	0.7275	0.1059	0.5991	-0.0802	0.3067	0.2237	0.4150	0.0573	0.2131
1456.0000	0.1422	0.1684	0.0864	0.4267	1.4216	21.4966	0.5857	0.8559	0.1224	-0.6734	-0.1543	0.2752	0.4114	0.5767	0.2174	1.3942
1464.0000	0.2516	0.2860	0.1571	1.2747	0.8853	35.5246	0.9000	1.2154	0.2911	1.5925	-0.1026	-0.2744	0.7865	0.8729	0.3353	3.2036
1472.0000	0.1254	0.1140	0.0931	-1.1692	-0.6328	29.2431	0.5042	1.0464	0.1617	-0.4148	0.0123	0.0642	0.4199	0.5451	0.0535	0.2386
1480.0000	0.2708	0.3379	0.1431	3.9280	3.0594	26.1929	0.9570	0.8956	0.2950	3.7812	-0.0994	-0.4525	0.8637	0.8313	0.3905	4.1546
1488.0000	0.1667	0.1838	0.0987	0.9027	1.0234	26.4682	0.6429	0.9199	0.2190	2.5093	0.0680	-0.2474	0.6073	0.5982	0.0886	1.2342
1496.0000	0.0737	0.0974	0.0449	0.1489	0.4679	4.7657	0.2255	0.1262	0.0625	-0.1755	-0.1586	-0.1362	0.1711	0.2129	0.2497	2.2166
1504.0000	0.1795	0.2352	0.1195	0.3604	-0.4205	15.2733	0.5059	0.3171	0.2360	2.5755	-0.2077	-0.7701	0.5264	0.5050	0.4901	5.2373
1512.0000	-0.0101	-0.0483	0.0182	-3.7245	-2.3438	7.3829	-0.0822	0.1217	0.0272	-1.3884	0.0153	-0.2781	-0.0332	-0.0169	0.0149	0.2233
1520.0000	0.0718	0.1118	0.0529	-1.4935	-0.6662	-8.1630	0.0369	-0.5472	0.0415	-1.5082	-0.4373	-0.6760	0.0175	0.0386	0.6475	6.0243
1528.0000	0.0557	0.0422	0.0635	-4.1480	-2.3009	10.4207	0.0934	0.1685	0.0732	-2.3450	-0.2124	-0.4022	0.0764	0.1678	0.3301	2.8910
1536.0000	0.0260	0.0175	0.0324	-2.6880	-0.8667	5.4739	0.0655	0.1574	-0.0072	-3.2966	-0.2256	0.0948	-0.0357	0.1175	0.2385	1.4870
1544.0000	0.1930	0.2684	0.1415	-0.9864	-0.9207	14.9525	0.5335	0.3226	0.2033	-0.2198	-0.5024	-0.4996	0.4363	0.5994	0.7663	6.9500
1552.0000	0.0395	0.0266	0.0603	-3.8021	-2.3094	19.1841	0.1759	0.6670	0.0586	-2.6105	-0.1419	0.2487	0.0866	0.3130	0.1209	0.3912
1560.0000	0.1780	0.3051	0.1287	0.6775	0.1960	11.1346	0.5835	0.3628	0.1670	0.6376	-0.6045	0.0733	0.4089	0.6881	0.7682	6.5093
1568.0000	0.0855	0.1656	0.0983	-3.2923	-2.3041	13.1318	0.2919	0.4091	0.1055	-1.0802	-0.5055	0.2154	0.1663	0.4995	0.5577	4.3706
1576.0000	-0.0486	-0.0190	-0.0158	-1.7503	-0.0498	-6.4707	-0.1028	-0.0782	-0.1254	-3.7241	-0.3430	0.7788	-0.2797	-0.0008	0.1944	0.4041
1584.0000	0.2487	0.3975	0.1557	3.1319	1.6029	14.0285	0.8157	0.4543	0.2438	2.6072	-0.5772	-0.1513	0.6474	0.8464	0.8359	7.5459
1592.0000	0.0379	0.0254	0.0292	-0.4020	0.0169	16.5061	0.2440	0.6818	0.0598	0.0876	0.1061	0.2984	0.1920	0.2695	-0.1469	-1.5951
1600.0000	0.1460	0.2513	0.0650	4.8181	3.1623	1.5888	0.5220	0.1209	0.1263	3.4495	-0.2429	-0.0232	0.4285	0.4487	0.3863	3.7301
1608.0000	0.1808	0.2842	0.1383	-0.0466	-0.6225	24.4685	0.6743	0.8440	0.2428	2.7193	-0.3341	0.0315	0.5778	0.8028	0.4793	4.3350
1616.0000	-0.0457	-0.0434	-0.0200	-1.3306	0.4598	2.4888	-0.0023	0.3257	-0.1059	-3.1655	-0.1308	0.9509	-0.1792	0.0732	-0.0653	-1.9417
1624.0000	0.2609	0.4345	0.1608	3.9334	2.2749	16.6412	0.9286	0.6296	0.2619	3.7258	-0.5786	0.0762	0.7318	0.9703	0.8075	7.2107
1632.0000	-0.0177	-0.0354	0.0141	-2.9572	-1.1776	18.9021	0.1297	0.8240	0.0178	-0.8176	0.0947	0.6565	0.0593	0.2504	-0.2451	-2.9000
1640.0000	-0.0609	-0.0111	-0.0389	-0.4664	0.7850	-20.6490	-0.2324	-0.6767	-0.1408	-2.0694	-0.3639	0.3503	-0.3296	-0.1999	0.2948	1.9508
1648.0000	-0.0081	0.0918	0.0929	-8.0980	-6.5022	8.3618	-0.0775	0.1532	0.0455	-2.9528	-0.7654	0.4193	-0.1767	0.3691	0.7205	5.3694
1656.0000	-0.3242	-0.3854	-0.1194	-10.4796	-5.8922	-12.3794	-0.9741	-0.2166	-0.3890	-9.9724	-0.2958	1.6849	-1.1305	-0.5720	-0.2432	-4.9714
1664.0000	0.0401	0.1745	0.0523	-1.0334	-0.6482	-13.4077	0.0521	-0.4956	-0.0299	-2.0863	-0.8177	0.3557	-0.1344	0.2223	0.8514	6.6687
1672.0000	-0.1942	-0.2339	-0.0361	-9.5504	-5.8066	8.9745	-0.4920	0.4943	-0.1913	-7.0307	-0.2204	1.4018	-0.6327	-0.0956	-0.1839	-3.8669
1680.0000	-0.1696	-0.1383	-0.0989	-0.7000	0.7365	-22.8984	-0.4453	-0.4676	-0.3002	-4.8638	-0.3271	1.4425	-0.6628	-0.3271	-0.0233	-2.2176
1688.0000	0.1004	0.2259	0.1028	-0.5451	-1.6555	14.6925	0.4131	0.5656	0.1523	2.0861	-0.4410	0.4298	0.3068	0.6396	0.4641	3.7676
1696.0000	-0.3726	-0.5236	-0.1901	-6.8340	-3.3693	-4.0740	-0.9543	0.3040	-0.4118	-7.4857	0.4352	1.9412	-1.0262	-0.7251	-1.1091	-12.3272
1704.0000	0.0359	0.1176	-0.0283	7.6160	4.3872	-18.3596	0.1337	-0.4922	-0.0208	3.7619	-0.0419	0.1257	0.1039	-0.0210	0.0727	1.0046
1712.0000	-0.0471	-0.1363	-0.0438	0.8783	0.2155	10.3498	-0.0598	0.4451	0.0063	1.5650	0.5909	-0.0083	0.0587	-0.1425	-0.6745	-5.5653
1720.0000	0.0526	0.0137	-0.0361	7.3026	5.2523	4.6686	0.3237	0.4030	0.0281	3.4427	0.5479	0.0985	0.3296	0.0398	-0.5545	-4.4404
1728.0000	0.2440	0.2808	0.0990	8.0511	4.9082	31.5194	1.0163	1.2951	0.2978	6.9351	0.3882	-0.1198	0.9819	0.7998	-0.2105	-0.9176
1736.0000	-0.0479	-0.1137	-0.0659	3.9260	2.1483	5.4790	-0.0035	0.3906	-0.0085	3.4146	0.6710	0.1863	0.1060	-0.1484	-0.7873	-6.4792
1744.0000	0.0515	0.0693	0.0221	2.7789	0.5189	4.7870	0.1729	0.1623	0.0913	3.0173	0.1322	-0.2082	0.2335	0.1357	-0.0657	0.0245
1752.0000	0.0117	-0.0096	0.0325	-1.6673	-1.6393	21.7048	0.1762	0.8795	0.0614	-0.2942	0.1342	0.4777	0.1370	0.2910	-0.2365	-2.5898
1760.0000	-0.0613	-0.0985	-0.0549	1.3684	0.9398	-6.1553	-0.1733	-0.1226	-0.0845	-0.3391	0.2096	0.1875	-0.1548	-0.2376	-0.3006	-2.7837
1768.0000	0.1799	0.1647	0.0952	2.5259	1.2912	24.7261	0.6106	0.8276	0.2053	1.4031	0.1344	-0.4241	0.5811	0.4993	0.0584	1.0008
1776.0000	0.1318	0.0903	0.0701	1.8116	1.5172	35.2829	0.6457	1.4351	0.1600	0.7218	0.3240	0.3531	0.5450	0.5831	-0.3259	-3.1769
1784.0000	0.1004	0.1342	0.0546	2.2741	0.9662	12.8571	0.3909	0.4750	0.1412	3.0541	0.0589	-0.1143	0.3921	0.3627	0.0311	0.7294
1792.0000	0.0800	0.0397	0.0621	-1.7427	-0.8930	22.6570	0.3064	0.7716	0.1065	-1.2417	0.0769	-0.0671	0.2634	0.3219	-0.0250	-0.3828
1800.0000	0.0834	0.0515	0.0297	1.8863	2.0461	14.5068	0.3610	0.6165	0.0562	-0.6019	0.1463	0.1221	0.2714	0.2519	-0.1189	-1.2920
1808.0000	0.0569	0.0522	0.0057	3.6736	1.7401	2.3422	0.1783	0.0413	0.0968	3.9444	0.2890	-0.5087	0.2898	0.0372	-0.1715	-0.4542
1816.0000	-0.0797	-0.1878	-0.0792	1.2391	0.5885	-7.3011	-0.3297	-0.3274	-0.0653	0.5569	0.5435	-0.5318	-0.1479	-0.5033	-0.5456	-4.0226
1824.0000	0.0098	-0.0690	-0.0253	1.9546	0.9633	-1.9352	-0.0729	-0.2099	0.0251	1.1058	0.3969	-0.7961	0.0785	-0.2646	-0.2742	-1.3989
1832.0000	0.0083	-0.0931	-0.0366	2.4427	1.7467	2.8413	-0.0113	0.0104	0.0394	2.0863	0.5997	-0.7704	0.1637	-0.2523	-0.4978	-3.2202
1840.0000	-0.0261	-0.1363	-0.0818	4.4961	3.2201	-9.6847	-0.1605	-0.4212	-0.0223	2.7114	0.6987	-0.8992	0.0558	-0.4997	-0.5971	-3.8268
1848.0000	-0.0875	-0.1867	-0.0469	-2.2708	-2.6809	-3.3430	-0.4377	-0.3695	-0.0084	0.6818	0.4258	-0.8620	-0.1745	-0.4726	-0.3762	-2.2082
1856.0000	-0.2096	-0.3457	-0.0906	-7.2943	-5.0004	-11.0495	-0.8570	-0.5986	-0.1951	-5.4631	0.1851	-0.2661	-0.7024	-0.7496	-0.3221	-3.1094
1864.0000	-0.0970	-0.1979	-0.0613	-2.7280	-1.4686	-12.2689	-0.4917	-0.6233	-0.1202	-3.4006	0.1604	-0.5503	-0.3813	-0.5573	-0.1484	-1.1084
1872.0000	-0.1051	-0.2160	-0.0534	-3.4987	-2.4164	-0.3809	-0.4215	-0.1456	-0.0702	-1.9638	0.3421	-0.3617	-0.2751	-0.4260	-0.3912	-3.2017
1880.0000	-0.1030	-0.1738	-0.0534	-2.9101	-1.7847	-8.4095	-0.4299	-0.3879	-0.1152	-2.9493	0.0957	-0.1435	-0.3650	-0.4157	-0.1581	-1.5470
1888.0000	-0.0631	-0.1384	-0.0362	-2.5011	-1.2771	-5.3557	-0.3148	-0.3302	-0.0682	-2.3364	0.1323	-0.4000	-0.2336	-0.3506	-0.1212	-0.9100
1896.0000	-0.1163	-0.2242	-0.0676	-3.5849	-1.5601	-7.2258	-0.4706	-0.3576	-0.1342	-3.7212	0.2113	-0.2297	-0.3925	-0.5016	-0.2777	-2.5866
1904.0000	-0.0653	-0.0867	-0.0356	-1.7569	-0.8773	-13.5278	-0.3274	-0.5753	-0.0993	-2.3503	-0.1070	-0.1720	-0.3053	-0.3218	0.0994	0.7624
1912.0000	-0.1272	-0.1583	-0.0770	-1.6200	-0.7954	-17.9282	-0.4866	-0.6698	-0.1475	-1.4470	0.0420	-0.0158	-0.4176	-0.4789	-0.1326	-1.2316
1920.0000	-0.0201	-0.0388	-0.0262	0.5655	0.5498	-9.5016	-0.1446	-0.4054	-0.0406	-0.2791	0.0398	-0.3041	-0.0993	-0.2194	0.0021	0.3113
1928.0000	0.0710	0.0657	0.0399	0.6872	0.3220	11.7513	0.2560	0.3883	0.0998	1.2254	0.0934	-0.2064	0.2669	0.2206	-0.0143	0.2024
1936.0000	-0.0809	-0.1059	-0.0624	0.4167	0.4025	-9.9805	-0.2622	-0.3421	-0.0664	1.3288	0.2324	-0.0862	-0.1600	-0.3123	-0.2888	-2.1616
1944.0000	-0.0540	-0.0804	-0.0439	-0.0507	-0.6021	-17.5744	-0.3653	-0.8619	-0.0290	1.4117	0.1262	-0.8792	-0.1683	-0.4479	-0.0116	1.0389
1952.0000	-0.0883	-0.1916	-0.0499	-3.3667	-1.7556	-3.8532	-0.3945	-0.2997	-0.0745	-2.2974	0.2618	-0.4864	-0.2666	-0.4353	-0.2662	-2.0511
1960.0000	-0.0796	-0.1234	-0.0631	-1.0470	0.2998	-18.3131	-0.3812	-0.7566	-0.1221	-1.8145	0.0330	-0.3684	-0.3181	-0.4680	-0.0210	0.0115
1968.0000	-0.1081	-0.1556	-0.0822	-0.7317	-0.1537	-23.9347	-0.5251	-1.0253	-0.1225	-0.3836	0.1293	-0.6433	-0.3653	-0.6232	-0.0947	-0.1249
1976.0000	-0.2051	-0.3043	-0.1497	-1.3937	0.1131	-30.9333	-0.8083	-1.1829	-0.2481	-2.0637	0.3082	-0.3599	-0.6418	-0.9351	-0.4083	-3.2797
1984.0000	-0.1085	-0.1376	-0.0464	-3.8258	-2.8261	-19.2583	-0.5678	-0.9430	-0.0992	-1.7779	-0.0995	-0.6006	-0.4262	-0.5145	0.1335	1.6026
1992.0000	-0.1719	-0.2549	-0.0420	-8.8661	-6.2195	-4.5031	-0.7067	-0.3751	-0.1371	-5.3592	-0.0731	-0.0868	-0.6100	-0.4746	-0.0536	-0.9955
2000.0000	-0.0276	-0.0376	-0.0090	-2.4130	-0.8063	-11.0420	-0.2171	-0.5151	-0.0786	-3.3117	-0.2529	-0.2033	-0.2489	-0.2047	0.2891	2.2716
2008.0000	0.0517	0.0744	0.0310	-0.0886	0.1313	-1.4466	0.0976	-0.1650	0.0491	0.2719	-0.1517	-0.3685	0.1005	0.0766	0.2698	2.7062
2016.0000	-0.1125	-0.1379	-0.0716	-1.0192	-0.1733	-13.9263	-0.3785	-0.4548	-0.1365	-1.1911	0.0651	0.1811	-0.3467	-0.3759	-0.1816	-1.8323
2024.0000	0.0859	0.1685	0.0457	1.5684	0.9941	-9.1251	0.1721	-0.4612	0.0719	1.7379	-0.3484	-0.4778	0.1625	0.1430	0.5342	5.2799
2032.0000	0.0151	0.0322	0.0153	-0.8360	-0.0078	1.8696	0.0716	0.0796	0.0060	-0.5623	-0.1230	0.1180	0.0214	0.1020	0.1218	0.8402
2040.0000	0.0159	0.0822	-0.0442	5.9895	4.9279	-23.3381	0.0586	-0.6716	-0.0885	1.3907	-0.1484	0.1803	-0.0313	-0.1225	0.1654	1.4390
2048.0000	0.1699	0.2777	0.0638	6.7939	3.7372	-1.7717	0.5373	-0.1091	0.1919	6.6408	-0.0733	-0.6078	0.5745	0.3785	0.3314	4.2789
2056.0000	-0.0585	-0.0394	-0.0196	-1.1960	-0.7666	2.0205	-0.0758	0.2024	-0.0345	0.5332	0.0145	0.5482	-0.0941	0.0328	-0.1598	-1.8322
2064.0000	0.0229	0.1700	0.0330	-0.0896	-0.0551	-20.1621	-0.0146	-0.7346	-0.0467	-0.9537	-0.7938	0.2845	-0.1668	0.1277	0.8312	6.7378
2072.0000	0.0372	0.0957	0.0366	-0.7802	-0.8104	-6.6418	0.0150	-0.3702	0.0312	-0.0606	-0.3551	-0.2740	0.0006	0.0744	0.4608	4.2224
2080.0000	0.0169	0.0512	-0.0012	1.4229	1.1456	-8.1535	0.0250	-0.2931	-0.0100	0.5500	-0.1301	-0.0679	0.0042	-0.0126	0.1726	1.6271
2088.0000	0.1199	0.2345	0.0941	-0.3657	-0.6156	-2.2169	0.2777	-0.2419	0.1101	0.3996	-0.6163	-0.3083	0.1946	0.3717	0.8095	7.2690
2096.0000	-0.0441	-0.0482	0.0032	-4.3467	-2.2211	-3.1202	-0.2038	-0.1910	-0.0643	-3.4884	-0.2732	0.0955	-0.2531	-0.0838	0.2375	1.5000
2104.0000	0.0656	0.1473	0.0595	-1.4375	-0.8936	-8.0095	0.0723	-0.4608	0.0384	-1.0279	-0.5632	-0.3164	0.0071	0.1523	0.7140	6.2977
2112.0000	-0.0028	0.0244	0.0447	-5.4873	-3.5198	-4.1271	-0.1735	-0.3802	-0.0117	-3.6804	-0.5146	-0.2570	-0.2121	0.0010	0.5885	4.8329
2120.0000	-0.0388	-0.0328	-0.0417	0.4174	1.3121	-21.7270	-0.2452	-0.8144	-0.1287	-2.4629	-0.2289	-0.1210	-0.2908	-0.3219	0.2515	1.9950
2128.0000	0.1395	0.2470	0.0483	6.1801	3.3355	-11.0090	0.3636	-0.4723	0.1241	4.7494	-0.2229	-0.6082	0.3775	0.2191	0.4716	5.2552
2136.0000	-0.0891	-0.1197	-0.0808	1.8438	1.2295	-15.0525	-0.3065	-0.5061	-0.0911	1.5784	0.2880	-0.1327	-0.1919	-0.4109	-0.3420	-2.5283
2144.0000	0.0268	0.0607	-0.0275	4.6311	2.7757	-21.5244	-0.0563	-0.8945	0.0098	3.5917	0.0360	-0.7975	0.0650	-0.2518	0.1444	2.5499
2152.0000	-0.0060	-0.0213	0.0212	-2.8834	-2.7474	0.5878	-0.1533	-0.2108	0.0454	-0.1622	-0.0447	-0.5837	-0.0427	-0.0862	0.1402	1.7850
2160.0000	-0.1335	-0.2121	-0.0613	-5.3949	-2.4423	-13.1279	-0.5647	-0.5834	-0.1842	-5.8104	-0.0914	-0.0428	-0.5588	-0.5106	0.0013	-0.6454
2168.0000	0.1154	0.1410	0.0652	0.0388	0.3308	-3.0119	0.1912	-0.3636	0.0898	-0.6275	-0.3073	-0.8415	0.1839	0.1170	0.5704	5.6195
2176.0000	-0.1227	-0.2357	-0.0795	-2.4730	-1.4598	-10.8492	-0.5327	-0.5395	-0.1186	-2.1499	0.3301	-0.5140	-0.3722	-0.6045	-0.3567	-2.7550
2184.0000	-0.0989	-0.1433	-0.0926	1.1176	0.0581	-37.5293	-0.6710	-1.7078	-0.1018	1.4863	0.1607	-1.4490	-0.3726	-0.8643	0.0305	2.0387
2192.0000	-0.0607	-0.1408	-0.0206	-4.2295	-3.4658	-11.8322	-0.5044	-0.8562	-0.0183	-1.5662	0.0741	-1.2801	-0.2697	-0.5240	0.0982	1.9885
2200.0000	-0.1879	-0.3488	-0.1079	-5.9348	-2.4639	-18.8747	-0.8220	-0.8468	-0.2681	-8.1322	0.1154	-0.3025	-0.7651	-0.8619	-0.2155	-2.5237
2208.0000	0.0850	0.0760	0.0318	1.1652	0.3841	-11.1120	-0.0031	-0.7596	0.0786	0.6530	-0.0902	-1.3580	0.1244	-0.1644	0.4106	4.9721
2216.0000	-0.0941	-0.2133	-0.0903	1.0397	1.0395	-4.7135	-0.3101	-0.1471	-0.0931	-0.1089	0.5892	-0.2477	-0.1717	-0.4843	-0.6569	-5.3559
2224.0000	-0.0338	-0.0414	-0.1077	8.3819	5.9298	-30.5525	-0.1650	-1.0017	-0.1056	3.8285	0.3620	-0.4306	-0.0569	-0.5204	-0.3053	-1.6201
2232.0000	-0.0232	-0.0564	-0.0310	1.3709	-0.3067	-7.3589	-0.1986	-0.4780	0.0603	4.3701	0.3853	-0.9942	0.0708	-0.3105	-0.2492	-0.5133
2240.0000	-0.2792	-0.4570	-0.1571	-6.0659	-2.8337	-12.6461	-0.9299	-0.4043	-0.3115	-6.4591	0.4365	0.3936	-0.8423	-0.8971	-0.7573	-7.6241
2248.0000	-0.0030	0.0205	-0.0044	0.0790	-0.3483	-17.9002	-0.2077	-0.8314	-0.0329	-0.6163	-0.2490	-0.5748	-0.1597	-0.2354	0.3760	3.7584
2256.0000	-0.3234	-0.4919	-0.1756	-6.4732	-4.5069	-22.0531	-1.1895	-0.9205	-0.2858	-3.5740	0.5267	-0.2055	-0.9113	-1.1304	-0.7786	-6.7673
2264.0000	-0.3127	-0.4271	-0.2059	-2.9792	-1.1937	-47.9609	-1.2559	-1.8168	-0.3944	-4.6688	0.1920	-0.2514	-1.0759	-1.3300	-0.3808	-3.4295
2272.0000	-0.1122	-0.1504	-0.0440	-4.1553	-3.7227	-20.7751	-0.6493	-1.0940	-0.0815	-1.4155	-0.0719	-0.9014	-0.4422	-0.5913	0.1529	2.1313
2280.0000	-0.4587	-0.7113	-0.2705	-8.3691	-3.9455	-36.6983	-1.6404	-1.3314	-0.5249	-9.1892	0.5830	0.2450	-1.4407	-1.6350	-1.0171	-9.9527
2288.0000	-0.0135	-0.0001	-0.0214	0.0517	0.1103	-28.1901	-0.3375	-1.2882	-0.0744	-1.4977	-0.3093	-0.9006	-0.2683	-0.4286	0.4969	5.0276
2296.0000	-0.2040	-0.3363	-0.0747	-8.1621	-5.4333	0.2392	-0.7257	-0.0950	-0.1680	-5.3769	0.2201	0.1342	-0.6185	-0.5496	-0.4336	-4.4798
2304.0000	-0.2024	-0.2776	-0.1265	2.7146	1.9604	31.0108	0.0635	2.1264	-0.2097	-0.7630	0.8228	3.2412	-0.1921	0.2157	-1.6294	-17.3511
2312.0000	-0.0733	-0.0614	-0.0081	1.8897	-0.0142	55.6974	0.5731	2.9804	0.0140	2.3029	0.6040	3.3440	0.2815	0.9100	-1.3297	-14.5569
2320.0000	-0.3848	-0.5167	-0.1873	-2.2651	-1.6401	48.0671	-0.2461	3.0651	-0.3334	-2.9141	1.1197	4.7128	-0.5454	0.1839	-2.3692	-25.4240
2328.0000	-0.1086	-0.0278	-0.0390	3.1569	2.0990	38.6061	0.5129	2.5955	-0.1420	-0.4812	0.1720	4.2067	0.0047	0.8793	-1.0327	-13.2270
2336.0000	0.0933	0.2390	0.1453	-1.0752	-1.3473	79.3326	1.2375	3.8839	0.1748	0.7576	-0.1508	4.0239	0.6588	1.8297	-0.5277	-8.6798
2344.0000	0.1145	0.3569	0.1360	0.4346	1.5874	50.4559	1.1966	2.8584	0.0534	-1.6246	-0.8043	4.0990	0.4410	1.7270	0.1999	-2.8065
2352.0000	0.2182	0.6370	0.1826	4.2897	2.9086	14.3930	1.1958	1.1907	0.1479	3.5105	-1.4739	2.7532	0.5586	1.6608	1.2654	8.4097
2360.0000	0.0596	0.4118	0.0961	1.8636	1.0919	6.8520	0.6894	0.9495	0.0177	2.7398	-1.1759	2.9273	0.1682	1.2038	0.7919	4.1513
2368.0000	0.3051	0.8003	0.2254	6.0774	4.8284	7.8494	1.4449	0.9767	0.1585	2.5522	-1.9177	2.8413	0.6530	1.8847	1.8011	12.7550
2376.0000	0.3670	0.8759	0.2864	4.9436	3.1281	26.4995	1.6962	1.5758	0.3116	5.0148	-1.8380	2.6748	0.9620	2.2217	1.7800	13.0254
2384.0000	0.2937	0.8178	0.2450	4.7600	3.5013	21.8211	1.5695	1.6097	0.2073	4.0468	-1.8810	3.4230	0.7531	2.1596	1.6402	10.9714
2392.0000	0.4896	1.1591	0.4048	3.5838	2.7011	37.3885	2.2184	2.1423	0.3711	2.4650	-2.7340	3.7663	1.1280	3.0055	2.6350	18.8392
2400.0000	0.3633	0.9011	0.3304	0.3108	1.1175	41.0667	1.8273	2.2570	0.2781	0.6272	-2.2278	3.6983	0.8634	2.5850	1.9991	13.2560
2408.0000	0.4735	1.0598	0.3505	5.3528	5.3473	33.7802	2.1665	2.0091	0.3336	2.8657	-2.3095	3.3538	1.1543	2.7219	2.2485	15.9998
2416.0000	0.5239	1.1842	0.4461	2.3814	2.0229	64.7159	2.5595	3.3112	0.4554	2.8357	-2.5738	4.4739	1.3841	3.4522	2.3470	15.6422
2424.0000	0.3226	0.9275	0.3329	0.3277	0.5212	52.4933	1.9619	3.0109	0.2626	1.7094	-2.3004	5.0330	0.8650	2.9315	1.8019	10.3544
2432.0000	0.3706	1.0383	0.3596	0.6431	1.3015	42.8993	2.0406	2.5885	0.2742	1.6481	-2.6562	4.8213	0.8909	3.0032	2.2665	14.5409
2440.0000	0.2884	0.9828	0.3807	-4.8663	-2.1637	69.0777	2.1194	3.9455	0.1997	-2.6411	-2.8882	6.8640	0.6925	3.4798	2.0647	10.1563
2448.0000	0.3592	1.1401	0.4058	-0.9234	0.9476	70.9888	2.5105	4.2796	0.2156	-1.4683	-3.1037	7.6187	0.8964	3.8592	2.2237	10.8689
2456.0000	0.4393	1.1917	0.4247	2.4248	2.9846	81.4712	2.8106	4.6613	0.3195	1.1130	-2.7799	7.2753	1.2471	4.0043	1.9985	9.5765
2464.0000	0.4012	1.1056	0.3968	3.7495	3.5701	100.3944	2.9424	5.6355	0.3220	2.4429	-2.3005	8.0992	1.3604	4.1499	1.2989	2.8993
2472.0000	0.4690	1.2394	0.4413	4.8083	4.2611	106.5543	3.2360	5.9019	0.4104	4.6778	-2.4420	8.2319	1.6075	4.4801	1.4796	4.5768
2480.0000	0.2936	0.9727	0.3454	0.8984	2.2352	94.5124	2.6153	5.4510	0.2233	1.3000	-2.2413	8.3359	1.0680	3.8942	1.1106	0.9488
2488.0000	0.3517	1.0593	0.3549	4.1475	4.7850	93.3492	2.8455	5.4954	0.2466	2.4337	-2.2625	8.4038	1.2376	4.0272	1.1735	1.5409
2496.0000	0.4580	1.2650	0.4642	2.3728	3.0627	115.0827	3.3208	6.3351	0.4009	3.3524	-2.6560	8.9364	1.5722	4.7281	1.5683	4.4370
2504.0000	0.4594	1.4190	0.5292	-2.6677	-0.0755	103.0005	3.2430	5.8473	0.3474	-0.4887	-3.7075	9.5136	1.2766	4.9845	2.5945	12.1672
2512.0000	0.8464	2.0678	0.7340	2.3785	4.3790	80.3352	4.1104	4.5346	0.6315	2.6342	-5.0395	7.7406	1.9923	5.6777	4.6648	32.0141
2520.0000	0.9547	2.1937	0.7645	4.1341	5.9855	59.4357	4.1153	3.3173	0.7278	4.7819	-5.2093	5.9037	2.1712	5.4413	5.2740	39.3825
2528.0000	0.9995	2.2935	0.8064	3.1067	5.0486	52.7425	4.1316	2.9100	0.7656	4.4826	-5.5828	5.5230	2.1779	5.5105	5.7790	44.0573
2536.0000	1.1814	2.5575	0.9584	0.6284	3.8737	81.3837	4.8180	3.9381	0.9538	2.9412	-6.1132	5.8907	2.6328	6.3725	6.4040	48.7189
2544.0000	1.0377	2.3967	0.8801	-1.3746	3.0575	65.7138	4.3563	3.4888	0.7590	-0.1418	-6.1900	6.4638	2.1313	5.9868	6.2795	46.7398
2552.0000	1.1153	2.5594	0.8991	2.7483	5.6755	52.4364	4.5401	2.9593	0.8171	3.2754	-6.3876	6.0399	2.3282	6.0649	6.6429	50.7310
2560.0000	1.2646	2.6883	0.9832	3.6554	6.7263	81.1318	5.1373	3.9916	1.0078	4.7028	-6.1985	5.8736	2.8848	6.5921	6.5712	50.3646
2568.0000	1.1885	2.6996	0.9604	2.4498	5.7344	62.9687	4.8733	3.4247	0.8858	3.2663	-6.6797	6.4836	2.5237	6.4982	6.9288	52.6843
2576.0000	1.1617	2.7985	0.9654	1.8509	4.9029	42.0012	4.7025	2.6281	0.8409	4.0889	-7.2487	6.6040	2.3174	6.4751	7.5093	57.7034
2584.0000	1.1713	2.7255	0.9685	0.7391	4.5342	55.0819	4.7537	3.0719	0.8634	2.6477	-6.9671	6.4638	2.3907	6.4701	7.2296	55.2258
2592.0000	1.1636	2.7473	0.9770	0.2651	3.7328	53.9209	4.7280	3.0379	0.8629	2.7364	-7.0970	6.6093	2.3497	6.5191	7.3362	56.0126
2600.0000	0.8598	2.3506	0.8050	-3.4714	0.7526	26.9987	3.6751	2.0767	0.5853	1.3864	-6.7110	6.7685	1.5191	5.5420	6.6671	50.1099
2608.0000	0.5818	1.8375	0.6157	-6.1629	-1.0929	7.6939	2.6260	1.3118	0.2927	-3.0268	-5.8982	6.4035	0.7271	4.3455	5.6472	41.2872
2616.0000	0.6141	1.7250	0.6063	-4.4510	-0.3478	28.0771	2.7624	2.0163	0.3685	-2.5374	-5.1710	5.9281	0.9868	4.2840	4.9643	35.9268
2624.0000	0.4524	1.3707	0.4541	-1.3747	0.9962	26.6515	2.2932	2.0299	0.2836	0.9217	-3.9309	5.4829	0.8539	3.5428	3.5917	25.1350
2632.0000	0.1882	0.9364	0.2492	0.7729	1.4796	4.9528	1.4152	1.3432	0.0454	2.2091	-2.9355	5.3322	0.2856	2.4706	2.3589	15.0296
2640.0000	-0.0508	0.3998	0.0660	0.9280	1.3110	19.1161	0.8192	2.0799	-0.1291	1.3351	-1.4157	5.5942	-0.0458	1.6636	0.4850	-1.3566
2648.0000	-0.3489	-0.2314	-0.1555	0.1103	0.0899	21.8987	-0.1048	2.2320	-0.3363	1.0076	0.2377	5.2382	-0.5487	0.4887	-1.4640	-17.6374
2656.0000	-0.4842	-0.4670	-0.2171	-3.2846	-2.7327	26.3637	-0.5201	2.4066	-0.4260	-0.7879	0.6180	5.4289	-0.8586	0.1482	-2.0212	-22.7959
2664.0000	-0.4829	-0.5549	-0.2086	-4.8616	-3.1151	51.1257	-0.3429	3.4819	-0.4341	-4.1419	0.8954	6.1072	-0.7964	0.3451	-2.4563	-27.7127
2672.0000	-0.4724	-0.6171	-0.2173	-3.8955	-3.1275	56.1421	-0.3673	3.5644	-0.3953	-3.5565	1.2475	5.5842	-0.7063	0.2091	-2.7371	-29.5244
2680.0000	-0.4730	-0.7086	-0.2193	-4.9750	-4.6219	64.6715	-0.4612	3.6569	-0.3193	-2.3823	1.6767	4.7433	-0.6008	0.0364	-3.0574	-31.2684
2688.0000	-0.5386	-0.9541	-0.3201	-2.5567	-2.7700	54.0202	-0.8451	3.0832	-0.3845	-2.0392	2.4881	3.5261	-0.7120	-0.7072	-3.7541	-35.9246
2696.0000	-0.7421	-1.3011	-0.5059	0.1981	-1.5148	13.5601	-1.7876	1.4056	-0.5925	-0.4125	3.2160	2.2319	-1.2638	-1.9721	-4.4369	-40.1003
2704.0000	-0.8726	-1.6265	-0.6088	-1.0835	-2.6422	10.1152	-2.3404	1.1018	-0.6794	-1.3240	4.0237	1.3595	-1.5333	-2.7146	-5.2524	-46.2701
2712.0000	-0.7263	-1.6104	-0.5645	0.7119	-1.2084	18.3423	-2.1226	0.9975	-0.5331	-1.7966	4.4139	-0.4039	-1.1537	-2.8394	-5.2490	-44.5932
2720.0000	-0.6084	-1.5243	-0.5429	3.6758	0.6906	1.0580	-2.1158	-0.1489	-0.4004	1.4730	4.5395	-2.6304	-0.8775	-3.1678	-4.8819	-38.7659
2728.0000	-0.6550	-1.6797	-0.5792	0.7685	-1.7443	-18.6656	-2.6873	-1.4350	-0.4043	1.0012	4.7601	-4.6243	-1.1073	-3.9029	-4.7958	-36.0041
2736.0000	-0.6823	-1.7622	-0.5830	-2.6878	-4.4831	-36.6510	-3.1416	-2.4943	-0.4653	-3.1947	4.5255	-5.7586	-1.4523	-4.3845	-4.3632	-31.6570
2744.0000	-0.5475	-1.6203	-0.5499	2.2536	-0.3837	-32.2644	-2.6850	-2.3306	-0.3567	-0.6534	4.6622	-6.2058	-1.0152	-4.1631	-4.3182	-30.5516
2752.0000	-0.3681	-1.4709	-0.4737	5.0706	1.6123	-15.3034	-2.1612	-1.9535	-0.1153	3.4028	4.9750	-7.4212	-0.3639	-3.8679	-4.3028	-28.7451
2760.0000	-0.3995	-1.5432	-0.4407	-1.6964	-4.1427	-22.4675	-2.6159	-2.7068	-0.1057	-0.2167	4.6790	-8.5566	-0.6643	-4.1847	-3.8195	-23.8891
2768.0000	-0.4088	-1.5979	-0.4292	-5.2330	-6.4667	-27.8799	-2.8573	-3.1734	-0.1279	-3.5728	4.5227	-9.2327	-0.8541	-4.4136	-3.5436	-21.2682
2776.0000	-0.3186	-1.4945	-0.3924	-4.0679	-4.5960	-26.5130	-2.5933	-3.1706	-0.0792	-4.0360	4.3877	-9.5026	-0.6593	-4.2512	-3.2776	-18.8212
2784.0000	-0.3116	-1.4244	-0.4014	-1.5953	-2.5188	-32.2339	-2.4719	-3.1916	-0.1109	-2.9887	4.2431	-8.9736	-0.6379	-4.1320	-3.2016	-18.5659
2792.0000	-0.2617	-1.3320	-0.3783	0.4097	-1.3206	-27.1495	-2.2274	-2.9306	-0.0438	-0.5661	4.2477	-8.8337	-0.4162	-3.8970	-3.1914	-18.3256
2800.0000	-0.2011	-1.2664	-0.3217	-1.8032	-2.5839	-18.0218	-2.0716	-2.7096	0.0201	-2.1873	4.0469	-8.9947	-0.3104	-3.6840	-2.9095	-15.9987
2808.0000	-0.1518	-1.2244	-0.2941	-1.5157	-2.3626	-11.4467	-1.9158	-2.5087	0.0739	-2.1430	4.0644	-9.1516	-0.1640	-3.5577	-2.8658	-15.4913
2816.0000	-0.1493	-1.1608	-0.2930	-0.2660	-1.9411	-17.2973	-1.8894	-2.6955	0.0959	0.4296	3.9674	-9.1097	-0.1162	-3.5006	-2.7608	-14.2766
2824.0000	-0.1980	-1.1261	-0.3065	-1.2683	-2.0736	-32.6892	-2.0396	-3.1426	-0.0159	-1.4195	3.4788	-8.4828	-0.4041	-3.5199	-2.3766	-11.8214
2832.0000	-0.0810	-0.9894	-0.2328	-0.9347	-1.3196	-16.9078	-1.6032	-2.5456	0.0807	-2.4101	3.3122	-8.3499	-0.1029	-3.0846	-2.1391	-10.1309
2840.0000	0.0272	-0.8584	-0.1437	-2.2349	-2.5795	2.9528	-1.2269	-1.9080	0.2323	-2.0814	3.1819	-8.4579	0.2296	-2.6302	-1.9108	-8.0912
2848.0000	0.0319	-0.8205	-0.1528	-1.0318	-1.7104	-10.6152	-1.3014	-2.4642	0.2115	-1.4612	3.0308	-8.7498	0.1744	-2.7531	-1.6826	-5.7356
2856.0000	0.0915	-0.7283	-0.1482	2.5353	0.9690	-16.2122	-1.1150	-2.6611	0.2552	1.0787	3.0516	-9.0331	0.3724	-2.7004	-1.5976	-4.3994
2864.0000	0.1345	-0.6066	-0.0894	1.3915	0.1975	-0.2359	-0.7856	-1.8898	0.3119	1.0958	2.7629	-8.1044	0.5298	-2.1731	-1.4295	-3.9402
2872.0000	0.1157	-0.5554	-0.0620	-1.3788	-1.5874	2.6119	-0.7661	-1.6912	0.2924	-0.1742	2.3781	-7.3992	0.4254	-1.9377	-1.1617	-2.5208
2880.0000	0.0941	-0.5086	-0.0500	-3.3027	-2.4361	-2.2738	-0.8011	-1.7881	0.2387	-1.8378	1.9612	-6.8295	0.2632	-1.8194	-0.8311	-0.4682
2888.0000	0.1903	-0.2932	0.0071	-0.2119	0.3672	7.4903	-0.2421	-1.0640	0.2624	-1.9924	1.5387	-5.5384	0.5062	-1.1756	-0.5312	0.7057
2896.0000	0.5622	0.9873	0.4417	-3.3288	0.0845	50.3610	2.0580	1.9061	0.4696	-3.0694	-2.3078	1.3850	1.2166	2.5693	2.6386	20.4981
2904.0000	0.8980	1.3909	0.5915	4.1800	5.6730	74.8904	3.2106	2.7541	0.7994	1.8577	-2.3278	0.6818	2.2662	3.4449	3.0453	25.1681
2912.0000	0.8920	1.3286	0.5899	3.1054	4.1214	79.3023	3.0989	2.6906	0.8818	4.1920	-1.9859	-0.1638	2.3682	3.2852	2.8188	24.4005
2920.0000	0.8174	1.2786	0.5801	-0.4335	1.3603	65.9000	2.7341	2.1436	0.7625	0.0808	-2.4284	0.0736	1.9378	3.0909	3.1930	26.8765
2928.0000	0.9542	1.4933	0.6731	0.7814	1.9037	80.6418	3.2476	2.7052	0.9092	1.4179	-2.7047	0.2316	2.3334	3.6606	3.5609	29.9697
2936.0000	0.8336	1.3034	0.5945	-0.8245	1.1028	72.3759	2.8324	2.3554	0.8279	2.1173	-2.3332	-0.0328	2.0865	3.2050	3.1196	26.6145
2944.0000	0.8306	1.2786	0.5799	-1.2181	1.1600	54.8530	2.5931	1.4907	0.7783	0.2846	-2.4778	-0.8299	1.9077	2.8637	3.4229	29.8084
2952.0000	0.8176	1.2143	0.5800	-2.4854	0.4007	64.1567	2.5889	1.8780	0.7532	-2.2061	-2.3830	-0.5632	1.8543	2.8819	3.2544	27.7473
2960.0000	0.6352	1.0248	0.4695	-2.3862	-0.1103	46.0709	2.0538	1.4017	0.5735	-1.5929	-2.2001	0.0267	1.3911	2.4118	2.8224	23.6320
2968.0000	0.6312	1.0247	0.4303	1.2529	2.1290	31.7745	1.9757	0.8488	0.5642	1.2944	-2.0271	-0.4544	1.4199	2.1735	2.7339	23.7700
2976.0000	0.6296	0.9825	0.4165	2.6040	3.1838	43.2004	2.1067	1.4147	0.5737	1.8863	-1.7104	-0.1095	1.5364	2.2552	2.3273	19.9891
2984.0000	0.6303	1.0355	0.4399	2.1110	2.0148	47.9640	2.1758	1.6543	0.6054	2.9116	-1.8521	0.2854	1.5720	2.4608	2.4053	20.3913
2992.0000	0.5403	0.9204	0.3848	0.8320	1.3533	33.4940	1.8012	1.0787	0.5001	1.7893	-1.8327	0.1494	1.2614	2.0816	2.3454	19.9279
3000.0000	0.4117	0.7998	0.2852	2.4000	2.7534	7.5520	1.3667	0.2656	0.3161	1.6567	-1.8149	0.4415	0.8483	1.6021	2.1935	18.4020
3008.0000	0.4979	0.9008	0.3264	4.6326	3.9379	18.6251	1.7019	0.6858	0.4254	3.8169	-1.7241	0.3420	1.1765	1.8836	2.1776	18.6003
3016.0000	0.4965	0.8079	0.3328	2.7102	2.8273	38.3904	1.7700	1.4024	0.4642	2.6325	-1.3619	0.3595	1.2749	1.9422	1.7694	14.8916
3024.0000	0.4256	0.7705	0.3047	1.7989	1.7150	28.4776	1.5316	1.0723	0.4011	2.9133	-1.4829	0.5948	1.0559	1.8033	1.8066	15.0597
3032.0000	0.4221	0.7700	0.2982	2.0683	2.1806	26.6812	1.5315	1.0357	0.3839	2.7248	-1.4988	0.6670	1.0365	1.7899	1.8102	14.9946
3040.0000	0.3852	0.7233	0.2858	0.8318	1.5855	27.2576	1.4465	1.1259	0.3288	0.9449	-1.5452	1.0274	0.8980	1.7610	1.7648	14.0147
3048.0000	0.3874	0.7363	0.3039	-0.3194	0.0586	27.2903	1.3909	1.0322	0.3539	0.8976	-1.6429	0.8481	0.8756	1.7695	1.8995	15.3501
3056.0000	0.3739	0.6161	0.2655	0.5725	1.1231	29.9920	1.3123	1.0663	0.3451	0.7436	-1.1670	0.3350	0.9075	1.5046	1.4693	12.1571
3064.0000	0.3244	0.5580	0.2185	1.8620	1.8165	19.4557	1.1237	0.6655	0.3138	2.8789	-0.9753	0.0756	0.8318	1.2465	1.2805	11.1256
3072.0000	0.3191	0.5266	0.2166	0.8187	1.1714	17.2540	1.0255	0.4708	0.3122	2.1850	-0.9548	-0.2868	0.7834	1.1247	1.3180	11.7299
3080.0000	0.3633	0.5110	0.2384	0.3946	1.4779	29.8739	1.1891	0.9356	0.3308	-0.3146	-0.8479	-0.2706	0.8821	1.2308	1.2256	10.5417
3088.0000	0.3514	0.5258	0.2555	-0.9523	-0.3160	34.8402	1.1770	1.0964	0.3749	1.0510	-0.8801	-0.1791	0.9095	1.3379	1.2289	10.6647
3096.0000	0.2334	0.3436	0.1760	-2.6084	-0.8957	16.8541	0.6721	0.3631	0.2261	-1.1715	-0.7651	-0.4581	0.4945	0.7784	1.0715	9.3780
3104.0000	0.2293	0.3340	0.1446	-0.0258	1.3750	6.7340	0.6450	0.0769	0.1556	-1.9536	-0.7610	-0.3838	0.4183	0.6365	1.0610	9.1171
3112.0000	0.3464	0.4852	0.2194	1.8606	1.8575	31.2277	1.1784	1.0286	0.3478	1.8620	-0.6190	-0.2750	0.9411	1.1912	0.9688	8.6405
3120.0000	0.3610	0.4420	0.2061	2.7847	2.6318	32.2902	1.1703	0.9563	0.3840	3.0141	-0.3098	-0.8909	1.0481	1.0411	0.7590	7.6114
3128.0000	0.2602	0.2915	0.1317	2.4787	1.9178	9.0979	0.6325	-0.0788	0.2807	2.8807	-0.1644	-1.6458	0.6975	0.4149	0.6703	7.6825
3136.0000	0.2064	0.1919	0.1272	-1.1342	-0.6924	14.5896	0.4402	0.0777	0.2413	0.1592	-0.1535	-1.5130	0.5092	0.3283	0.5825	6.4484
3144.0000	0.2232	0.2711	0.1436	-0.3360	0.2832	17.0470	0.6288	0.3902	0.2099	-0.8520	-0.4257	-0.6508	0.5129	0.6022	0.7352	6.7308
3152.0000	0.2017	0.2786	0.1089	3.1736	2.0384	11.6065	0.6397	0.3247	0.2084	2.8171	-0.2308	-0.4815	0.5776	0.5605	0.4887	4.9529
3160.0000	0.2277	0.2044	0.0975	4.2064	2.7773	18.8574	0.6663	0.4514	0.2664	3.7124	0.2544	-1.2485	0.7484	0.3988	0.1212	2.6748
3168.0000	0.2081	0.1950	0.0827	4.2787	2.5476	6.9141	0.4924	-0.0832	0.2380	3.8217	0.1644	-1.5936	0.6288	0.2060	0.2704	4.3485
3176.0000	0.0429	0.0319	0.0031	1.9849	0.4085	-11.0495	-0.0754	-0.6932	0.0786	2.9916	0.1284	-1.2487	0.1273	-0.2305	0.1255	2.7498
3184.0000	0.0318	-0.0005	-0.0023	1.2227	0.6186	-8.0054	-0.0656	-0.4965	0.0279	0.5400	0.0928	-0.8861	0.0457	-0.2112	0.0880	1.7258
3192.0000	0.1138	0.1286	0.0574	1.7661	0.8630	5.8549	0.3000	0.0752	0.1265	1.5469	-0.0334	-0.5961	0.3228	0.2135	0.2286	2.7161
3200.0000	0.0547	0.0421	0.0429	-0.4951	-1.1180	11.9614	0.1538	0.3096	0.1151	1.4681	0.1100	-0.4073	0.2276	0.1626	-0.0125	0.4668
3208.0000	-0.0230	-0.0571	-0.0313	0.6693	0.2797	-12.4811	-0.2203	-0.5960	-0.0348	-0.0280	0.0943	-0.6211	-0.1160	-0.3273	-0.0014	0.6443
3216.0000	-0.0150	-0.0465	-0.0502	3.2564	1.8963	-19.4828	-0.2181	-0.8388	-0.0414	1.3233	0.1842	-0.8078	-0.0805	-0.4255	-0.0503	0.5997
3224.0000	0.0428	0.0095	0.0104	2.0056	0.6776	10.1046	0.1671	0.3413	0.0915	2.5603	0.3386	-0.3242	0.2577	0.0759	-0.2763	-1.7321
3232.0000	0.0538	0.0756	0.0370	0.3332	0.1360	10.3379	0.2397	0.3917	0.0842	1.4746	0.0075	0.0453	0.2242	0.2602	0.0209	0.2932
3240.0000	0.0622	0.0732	0.0568	-1.8259	-0.7540	13.7019	0.2466	0.4927	0.0613	-1.5449	-0.1736	0.1816	0.1467	0.3185	0.1919	1.2068
3248.0000	0.1191	0.1182	0.1015	-2.1918	-0.9316	34.3653	0.5619	1.3346	0.1395	-1.8156	-0.0914	0.5481	0.3845	0.6754	0.0699	-0.3069
3256.0000	0.1135	0.1435	0.1003	-2.3489	-1.0124	26.6324	0.4959	1.0100	0.1277	-1.4892	-0.2408	0.4370	0.3267	0.6265	0.2505	1.4154
3264.0000	0.1113	0.1139	0.1070	-3.4932	-1.6240	31.6376	0.4945	1.2124	0.1037	-3.8617	-0.2699	0.6242	0.2665	0.6513	0.2406	0.8139
3272.0000	0.1671	0.2407	0.1180	1.4930	1.2891	37.2067	0.8666	1.6616	0.1726	0.5459	-0.1754	1.1586	0.5829	0.9867	0.0937	-0.4359
3280.0000	0.1725	0.3187	0.1211	2.8079	1.6224	28.4774	0.8716	1.3277	0.2042	3.6862	-0.3069	1.0509	0.6347	1.0209	0.2665	1.5930
3288.0000	0.1963	0.2842	0.1677	-1.3674	-0.6516	48.6700	0.9834	2.0518	0.2140	-1.2514	-0.3882	1.3813	0.6229	1.2377	0.2932	0.7822
3296.0000	0.2222	0.3166	0.1709	0.4771	0.7514	54.2721	1.1637	2.3741	0.2362	-0.2270	-0.2897	1.6445	0.7620	1.3807	0.1612	-0.5043
3304.0000	0.1248	0.2408	0.1080	0.9435	0.5989	34.7545	0.7946	1.6739	0.1391	0.9911	-0.2948	1.6320	0.4779	1.0267	0.1057	-0.7293
3312.0000	0.1266	0.2781	0.1155	1.6249	0.7375	35.7426	0.8630	1.8307	0.1223	0.6509	-0.4313	2.1150	0.4606	1.1595	0.1673	-0.7402
3320.0000	0.2201	0.4018	0.1746	2.4837	0.8409	47.8237	1.1894	2.1951	0.2714	3.5256	-0.4078	1.8002	0.8222	1.4807	0.2654	0.7506
3328.0000	0.2066	0.2974	0.1855	-2.1399	-1.4226	56.4046	1.0588	2.3332	0.2578	-0.5969	-0.3519	1.4472	0.7081	1.3630	0.2447	0.3731
3336.0000	0.2994	0.4017	0.2284	-0.6690	0.5973	65.4480	1.4276	2.7584	0.2916	-2.1802	-0.4885	1.7176	0.9142	1.6725	0.4133	1.2699
3344.0000	0.3197	0.4444	0.2345	0.7755	1.2015	67.3433	1.5326	2.8468	0.3428	0.3269	-0.4047	1.6631	1.0586	1.7610	0.3507	1.1137
3352.0000	0.1221	0.2073	0.1083	-0.0427	0.1548	35.8350	0.7463	1.6647	0.1239	-0.5977	-0.2849	1.5182	0.4257	0.9651	0.1103	-0.7882
3360.0000	0.0097	0.1573	0.0109	3.3723	1.5217	-5.4567	0.2071	0.1028	-0.0062	2.9869	-0.3517	1.0367	0.0596	0.3436	0.2103	1.1547
3368.0000	-0.1389	-0.0703	-0.0785	0.7734	-0.1157	-21.4524	-0.3928	-0.5897	-0.1452	1.6121	-0.1127	0.6822	-0.3798	-0.2773	-0.0935	-1.1826
3376.0000	-0.2040	-0.2208	-0.1379	0.4384	0.5239	-29.9518	-0.6695	-0.9045	-0.2672	-1.4921	0.0721	0.5618	-0.6431	-0.6690	-0.3170	-3.3592
3384.0000	-0.1501	-0.0944	-0.1213	4.0475	2.3599	-32.5500	-0.4477	-0.9389	-0.1955	2.4946	0.0369	0.5501	-0.4104	-0.4833	-0.2271	-2.0611
3392.0000	-0.2501	-0.1982	-0.1720	3.4315	1.6287	-35.6395	-0.6778	-0.8901	-0.2872	2.3749	0.1356	1.1661	-0.6423	-0.6252	-0.5194	-5.1616
3400.0000	-0.1947	-0.1562	-0.1434	4.5993	2.1156	-23.4301	-0.4425	-0.4162	-0.2152	3.0825	0.2671	1.1844	-0.4218	-0.4214	-0.6270	-6.0535
3408.0000	-0.1212	-0.1441	-0.0912	3.1064	1.1930	-1.5760	-0.1878	0.2719	-0.0970	2.6116	0.4778	0.8510	-0.1424	-0.1931	-0.7529	-6.9218
3416.0000	-0.2604	-0.3484	-0.1963	2.6987	1.3883	-27.2447	-0.7846	-0.7201	-0.2850	0.6656	0.6275	0.5364	-0.6320	-0.8914	-0.9513	-8.4680
3424.0000	-0.3229	-0.4001	-0.2392	3.0941	0.9115	-40.9709	-1.0655	-1.3286	-0.2929	4.0248	0.7729	0.0395	-0.7287	-1.1921	-1.0581	-8.3742
3432.0000	-0.3662	-0.5158	-0.2348	-2.0703	-1.6476	-28.1044	-1.1779	-0.8908	-0.3304	-0.1234	0.8099	0.2664	-0.8829	-1.2043	-1.1872	-10.2677
3440.0000	-0.4392	-0.5967	-0.2877	-2.6176	-1.4678	-54.1798	-1.5976	-1.9001	-0.5059	-4.2001	0.5185	0.1421	-1.3438	-1.6625	-0.8959	-8.1210
3448.0000	-0.5741	-0.6752	-0.3590	-2.0712	-2.7208	-77.2360	-2.0788	-2.6935	-0.6141	-1.8077	0.4563	0.3422	-1.7133	-2.0328	-0.9568	-8.4234
3456.0000	-0.6721	-0.7516	-0.4201	-1.2570	-2.2757	-88.0086	-2.3098	-2.8775	-0.7380	-1.8631	0.4551	1.0412	-1.9832	-2.2085	-1.1478	-10.7230
3464.0000	-0.5638	-0.6612	-0.3728	0.3129	-1.0174	-78.5632	-1.9968	-2.6508	-0.6191	-0.7378	0.5587	0.4553	-1.6449	-2.0231	-1.0737	-9.4046
3472.0000	-0.4618	-0.6451	-0.2927	-2.4598	-2.6222	-43.4361	-1.5991	-1.4779	-0.4550	-2.0299	0.8302	0.2147	-1.2520	-1.6228	-1.2690	-11.1066
3480.0000	-0.4117	-0.5417	-0.2792	-0.4145	-0.9944	-57.6151	-1.5471	-2.0542	-0.4649	-2.1878	0.5200	-0.0704	-1.2491	-1.6407	-0.8348	-7.1158
3488.0000	-0.3949	-0.4549	-0.2944	2.2574	0.4387	-86.3959	-1.7205	-3.3210	-0.4635	0.8661	0.2873	-1.0363	-1.2943	-1.9300	-0.3784	-1.7696
3496.0000	-0.2983	-0.3650	-0.2581	4.3821	2.2036	-79.6926	-1.4199	-3.1387	-0.3675	2.1572	0.3750	-1.4664	-0.9878	-1.7590	-0.3209	-0.7218
3504.0000	-0.2057	-0.2326	-0.1969	4.9422	1.6806	-77.1636	-1.2276	-3.2473	-0.2345	4.3261	0.2390	-2.1435	-0.7305	-1.5741	0.0152	3.1022
3512.0000	-0.2705	-0.3564	-0.1997	-0.7570	-2.2306	-79.3807	-1.6065	-3.5721	-0.2830	0.5289	0.1370	-2.5792	-1.0377	-1.8481	0.1420	4.1634
3520.0000	-0.1313	-0.2597	-0.1581	2.4812	0.9830	-72.1364	-1.2080	-3.3884	-0.1954	0.0443	0.2522	-3.1948	-0.6812	-1.6970	0.2371	5.4574
3528.0000	-0.1240	-0.2669	-0.1544	2.5800	0.3742	-67.3481	-1.1966	-3.3264	-0.1077	3.3690	0.5152	-3.6954	-0.5146	-1.7124	0.0473	4.7794
3536.0000	-0.2667	-0.4645	-0.1996	-3.9431	-3.1394	-73.1290	-1.7039	-3.5438	-0.2901	-2.9914	0.3219	-3.2126	-1.0861	-2.0425	0.0508	3.5396
3544.0000	-0.0975	-0.3007	-0.1420	0.5985	0.4177	-67.3558	-1.2179	-3.4274	-0.1600	-1.7891	0.3729	-3.9239	-0.6285	-1.8027	0.2576	6.1056
3552.0000	-0.1162	-0.3784	-0.1497	-0.0058	-1.0628	-56.2979	-1.2712	-3.1425	-0.0680	1.4871	0.8533	-4.4399	-0.4736	-1.8774	-0.1890	3.2365
3560.0000	-0.1366	-0.3870	-0.1350	-3.3452	-2.5888	-58.4689	-1.3710	-3.2168	-0.1463	-3.0816	0.4622	-4.0509	-0.7148	-1.8535	0.1413	5.0744
3568.0000	-0.0567	-0.2846	-0.0895	-2.8335	-1.9430	-52.0086	-1.1112	-3.0343	-0.0605	-2.2663	0.3792	-4.2632	-0.4806	-1.6220	0.3283	6.9586
3576.0000	-0.1875	-0.4521	-0.1489	-5.9351	-3.9831	-58.1591	-1.5253	-3.2178	-0.1826	-4.0871	0.4545	-3.9314	-0.8564	-1.9346	0.0856	4.3654
3584.0000	-0.0680	-0.2675	-0.1068	-1.3975	-0.5411	-61.5305	-1.1354	-3.2530	-0.1460	-3.9675	0.1748	-3.8420	-0.6224	-1.6578	0.4717	7.5464
3592.0000	0.0870	-0.1147	-0.0212	1.5513	1.0172	-19.8555	-0.3360	-1.5868	0.1236	1.6191	0.6656	-3.6211	0.1798	-0.8998	0.0083	3.9623
3600.0000	0.1720	0.0330	0.0854	-1.9306	-1.0121	13.4600	0.1942	-0.1770	0.2342	-0.2169	0.3225	-2.4517	0.4572	-0.0912	0.2105	4.1771
3608.0000	0.2187	0.2076	0.1068	0.9089	1.3998	1.9964	0.4112	-0.3923	0.1947	-0.2636	-0.2158	-1.7448	0.4616	0.1735	0.7117	7.7438
3616.0000	0.0393	0.0334	-0.0341	4.1433	3.3422	-23.0671	-0.0795	-1.0715	0.0229	3.5323	0.1593	-1.3271	0.1055	-0.3796	0.1181	2.8504
3624.0000	0.1345	0.1732	0.0504	2.8075	2.0971	-9.5000	0.2331	-0.6329	0.1275	2.6716	-0.1498	-1.2548	0.3194	0.0416	0.4994	5.8737
3632.0000	0.2388	0.2598	0.1478	-0.4082	0.3882	22.3251	0.6844	0.5352	0.2511	-0.0434	-0.2600	-0.8936	0.6203	0.6120	0.6101	5.9982
3640.0000	0.2382	0.2754	0.1475	-0.1076	0.9350	25.3336	0.7682	0.7511	0.2451	0.1691	-0.2728	-0.5363	0.6505	0.7190	0.5600	5.2277
3648.0000	0.3795	0.4600	0.2356	1.1108	1.2136	37.3614	1.1950	1.0709	0.4110	1.8143	-0.4270	-0.9453	1.0550	1.1309	0.9017	8.7175
3656.0000	0.2541	0.2513	0.1544	-0.2826	0.5612	31.9858	0.8000	0.9119	0.2957	0.8589	-0.0652	-0.8817	0.7579	0.7058	0.4061	4.3350
3664.0000	0.2047	0.2247	0.1169	-0.1089	0.6471	9.3198	0.4836	-0.0194	0.2110	0.5273	-0.2540	-1.2546	0.4950	0.3596	0.6500	6.8203
3672.0000	0.2941	0.3108	0.1888	-1.3034	-0.1021	31.4122	0.8515	0.7845	0.3242	-0.1804	-0.2918	-1.1083	0.7816	0.7848	0.7186	7.0929
3680.0000	0.3178	0.3602	0.1995	0.5391	1.5077	45.5344	1.1695	1.6017	0.3357	0.3546	-0.2306	-0.1389	0.9501	1.1412	0.4952	4.2239
3688.0000	0.3478	0.4417	0.2247	0.9729	0.8337	38.6596	1.1610	1.2131	0.3902	2.1620	-0.4159	-0.5695	1.0031	1.1613	0.7972	7.4990
3696.0000	0.1586	0.1506	0.1237	-3.5866	-1.5225	26.9209	0.4951	0.7708	0.1886	-1.7670	-0.2038	-0.4366	0.4185	0.5413	0.3991	3.5232
3704.0000	0.1826	0.2299	0.1155	-0.5802	1.0236	16.2156	0.5949	0.4987	0.1503	-1.3300	-0.3919	-0.1969	0.4257	0.5792	0.5895	4.9714
3712.0000	0.2472	0.2736	0.1657	-1.0614	-0.2780	32.2164	0.7920	0.9482	0.2893	0.4439	-0.2216	-0.6357	0.7094	0.7850	0.5228	5.0356
3720.0000	0.0750	0.0458	0.0763	-4.3158	-2.0691	20.1501	0.2340	0.5947	0.0908	-2.9579	-0.1471	-0.1479	0.1637	0.3131	0.2242	1.6164
3728.0000	0.1188	0.1950	0.0995	-2.1620	-1.1988	3.8588	0.2780	-0.0475	0.1040	-1.4189	-0.5768	-0.3144	0.1746	0.3748	0.7615	6.6092
3736.0000	0.0719	0.0464	0.0654	-3.2371	-1.7447	13.3731	0.1634	0.2980	0.0874	-2.1272	-0.1280	-0.4081	0.1436	0.1996	0.2524	2.2462
3744.0000	0.1331	0.1436	0.0652	1.3828	1.9072	9.7753	0.4304	0.3214	0.0925	-0.7790	-0.1403	-0.2069	0.3210	0.3324	0.2883	2.4995
3752.0000	0.2722	0.3322	0.1506	3.6242	2.1759	27.4878	0.9210	0.8791	0.3180	4.0534	-0.0714	-0.6292	0.8719	0.8133	0.3899	4.3658
3760.0000	0.1003	0.0301	0.0479	0.4582	0.7681	24.6425	0.3951	0.8479	0.1414	0.7406	0.3667	-0.3457	0.4196	0.2793	-0.2673	-1.9277
3768.0000	0.1590	0.2008	0.0646	4.1803	2.9116	2.6803	0.4622	0.0175	0.1339	2.0680	-0.1060	-0.5602	0.4268	0.2990	0.3420	3.7021
3776.0000	0.1429	0.1387	0.0980	-0.5658	-0.9651	21.9391	0.4280	0.5878	0.2154	1.7865	0.0447	-0.6869	0.4802	0.4155	0.1702	2.3074
3784.0000	0.0685	-0.0107	0.0738	-5.4632	-2.7043	24.3701	0.1825	0.6877	0.0885	-4.2376	-0.0250	-0.3305	0.1396	0.2367	0.1156	0.6943
3792.0000	0.2448	0.2580	0.1744	-2.4883	-1.5534	27.5808	0.6580	0.6452	0.2715	-1.4994	-0.3634	-0.9468	0.5883	0.6693	0.7265	6.8496
3800.0000	0.1484	0.0614	0.1096	-3.7446	-2.1297	31.9285	0.4046	0.8429	0.2122	-1.6516	0.1410	-0.9243	0.4481	0.3687	0.1025	1.4879
3808.0000	0.1210	0.0510	0.0596	-1.6628	0.4066	5.3040	0.1877	-0.1297	0.0772	-3.4058	-0.0833	-1.1113	0.1845	0.0150	0.3756	3.8299
3816.0000	0.0842	0.0029	0.0552	-3.0905	-2.3082	-0.2026	-0.0881	-0.5666	0.1167	-1.5850	0.0014	-1.8258	0.1066	-0.2119	0.3806	4.8791
3824.0000	-0.0784	-0.2507	-0.0333	-6.1670	-4.3530	-6.6053	-0.6263	-0.7878	-0.0281	-3.5436	0.3205	-1.6954	-0.3228	-0.7127	-0.1129	0.3331
3832.0000	0.1213	0.0187	0.0569	-1.8001	-0.6596	-0.3803	0.0199	-0.5653	0.1113	-2.5480	0.0306	-1.9432	0.1715	-0.2122	0.4018	5.0290
3840.0000	0.1109	-0.0602	0.0548	-2.9731	-1.6411	13.8797	0.0385	-0.0720	0.1584	-2.0374	0.3950	-2.0640	0.2726	-0.2066	0.0135	1.8735
3848.0000	-0.0372	-0.2236	-0.0480	-3.3303	-1.7058	-19.0506	-0.6081	-1.3274	-0.0418	-3.4012	0.3454	-2.2996	-0.2794	-0.8972	0.0125	2.0367
3856.0000	0.0714	-0.0726	-0.0044	0.2706	0.2883	-19.4890	-0.3043	-1.3909	0.0506	-1.4934	0.2476	-2.6708	0.0067	-0.6972	0.2727	4.8521
3864.0000	0.0950	-0.0695	0.0019	1.9961	1.4889	1.2323	0.0084	-0.4114	0.1147	0.5735	0.6111	-2.0787	0.2842	-0.3967	-0.2124	0.3195
3872.0000	0.1278	0.0481	0.0080	4.8193	3.1137	-10.7090	0.0942	-0.8323	0.1388	3.4785	0.4119	-2.1756	0.3709	-0.3362	0.0567	3.1213
3880.0000	0.1061	-0.0195	0.0060	3.2676	1.5780	-5.2161	-0.0051	-0.7018	0.1466	2.7610	0.5557	-2.3297	0.3300	-0.4120	-0.0946	1.8873
3888.0000	0.0845	-0.0607	0.0060	1.5042	0.8203	0.9080	-0.0186	-0.4139	0.1144	0.7539	0.5374	-1.9596	0.2524	-0.3649	-0.1637	0.6483
3896.0000	0.1701	0.0878	0.0755	0.8520	0.4594	8.7763	0.2752	-0.1554	0.2016	0.7632	0.2125	-1.8780	0.4518	0.0108	0.2318	3.9124
3904.0000	0.1552	0.0525	0.0978	-2.0308	-1.3759	26.1405	0.3575	0.5998	0.1961	-1.7964	0.1912	-1.1629	0.4251	0.2415	0.1004	1.6961
3912.0000	0.1700	0.1590	0.1346	-3.1664	-2.4733	23.2659	0.4156	0.5232	0.2045	-1.9640	-0.2542	-0.7856	0.3878	0.4631	0.5226	4.9153
3920.0000	0.1345	0.1456	0.1263	-4.5197	-3.3180	17.7798	0.2863	0.3233	0.1643	-2.5917	-0.4059	-0.6446	0.2446	0.4064	0.6343	5.6727
3928.0000	0.1825	0.1879	0.1033	0.9558	1.1531	15.4278	0.5329	0.4378	0.1429	-1.6987	-0.2256	-0.4192	0.4088	0.4462	0.4496	3.9468
3936.0000	0.3811	0.4518	0.1982	6.1287	3.9747	32.5737	1.2487	1.0491	0.3855	3.6387	-0.1704	-0.8090	1.1177	1.0425	0.6123	6.3401
3944.0000	0.3475	0.3946	0.2315	0.5867	0.2415	54.6430	1.2656	1.8900	0.4124	1.4896	-0.1838	-0.2188	1.0839	1.2925	0.4740	4.2534
3952.0000	0.3610	0.4824	0.2418	1.2270	1.3498	47.4874	1.3553	1.7646	0.3614	0.3082	-0.5736	0.3396	1.0132	1.4405	0.8102	6.4137
3960.0000	0.4461	0.6218	0.2857	3.6483	2.9354	56.4505	1.7354	2.1878	0.4545	2.5720	-0.6304	0.5555	1.3244	1.8102	0.8987	7.2038
3968.0000	0.4346	0.6386	0.3172	1.0172	1.5354	75.0554	1.9249	3.1306	0.4334	-0.0994	-0.8294	1.8354	1.3000	2.2215	0.8612	5.1989
3976.0000	0.4828	0.8099	0.3631	2.0187	1.7220	72.1681	2.1318	3.1207	0.4680	1.1092	-1.2961	2.3217	1.3822	2.5625	1.3166	8.7596
3984.0000	0.4300	0.7738	0.3535	0.5644	0.2128	74.9884	2.0347	3.3008	0.4495	1.5305	-1.3002	2.7482	1.2876	2.5940	1.1999	7.4053
3992.0000	0.4368	0.8547	0.3862	-0.6932	-0.4305	78.1288	2.1592	3.5966	0.4087	-0.9617	-1.7553	3.7026	1.1977	2.9016	1.5200	8.8385
4000.0000	0.4488	0.9295	0.3860	0.7794	0.5887	66.2008	2.1610	3.1650	0.3971	0.1915	-1.9805	3.6623	1.1798	2.8966	1.7885	11.3507
4008.0000	0.4067	0.8753	0.3435	2.3666	1.9834	64.1144	2.1194	3.2400	0.3469	1.0823	-1.7817	3.9964	1.1373	2.8079	1.4884	8.5728
4016.0000	0.6089	1.1958	0.4776	5.3115	3.4880	92.0073	2.9888	4.4406	0.5613	3.4238	-2.1040	4.6802	1.7795	3.7710	1.8580	11.2297
4024.0000	0.5729	1.1767	0.4829	2.7037	1.7313	96.3805	2.9283	4.6231	0.5584	3.2697	-2.1818	4.9860	1.7100	3.8452	1.8536	10.8748
4032.0000	0.3931	0.9996	0.3771	0.4608	0.9114	62.6366	2.2173	3.3943	0.3124	0.4689	-2.3965	5.1274	1.0278	3.1813	1.9367	11.1998
4040.0000	0.4660	1.1238	0.4253	1.2344	0.8684	60.9053	2.3702	3.2257	0.3819	1.1193	-2.6543	4.8173	1.1638	3.3453	2.3259	14.9143
4048.0000	0.4261	1.0216	0.4001	-0.0123	0.2900	64.0700	2.2406	3.3155	0.3560	0.2717	-2.4218	4.7123	1.0893	3.1863	2.0603	12.6414
4056.0000	0.4029	0.9951	0.3494	3.0022	2.5619	44.9234	2.0722	2.5965	0.2892	1.2230	-2.3518	4.3296	0.9811	2.8585	2.0519	13.1201
4064.0000	0.3424	0.8416	0.2877	3.9337	2.3945	36.6886	1.7398	2.1121	0.2791	3.2557	-1.8336	3.3968	0.9053	2.3636	1.6191	10.6692
4072.0000	0.1994	0.5282	0.1671	3.2493	1.9728	19.4984	1.0665	1.2533	0.1544	2.6281	-1.1552	2.2785	0.5364	1.4593	0.9866	6.3833
4080.0000	0.2227	0.4645	0.1199	7.2031	4.6646	3.7805	0.9151	0.4270	0.1669	4.6553	-0.7152	0.8388	0.6113	0.9597	0.8031	6.5526
4088.0000	0.1432	0.2516	0.0621	5.5051	3.2745	3.9591	0.5523	0.2490	0.1407	4.4885	-0.1591	0.0712	0.4745	0.4841	0.2768	2.8324
4096.0000	0.1076	0.1458	0.0800	-0.0397	-0.9398	10.2861	0.2902	0.2219	0.1465	1.2532	-0.1698	-0.4180	0.2979	0.3285	0.3320	3.3840
4104.0000	0.0913	0.0458	0.0566	-0.5018	-1.0931	8.9907	0.1345	0.0479	0.1230	-0.2255	0.0682	-0.9495	0.2257	0.0605	0.1569	2.2308
4112.0000	-0.0596	-0.2032	-0.1053	4.3031	2.5150	-18.4856	-0.3961	-0.8534	-0.0653	1.7313	0.7393	-1.2834	-0.1081	-0.7724	-0.5962	-3.5307
4120.0000	-0.0698	-0.2299	-0.1066	4.0478	1.2549	-18.1541	-0.4973	-0.9783	-0.0127	3.8019	0.9117	-1.7826	-0.0637	-0.8755	-0.7026	-3.6483
4128.0000	-0.0860	-0.3513	-0.0844	-1.2576	-1.4651	8.3104	-0.4551	-0.0250	0.0063	-0.0292	1.1435	-1.5167	-0.0568	-0.7434	-1.0351	-7.3168
4136.0000	-0.0112	-0.2894	-0.0974	4.3085	3.3342	7.6755	-0.1425	0.0800	0.0288	1.8279	1.3906	-1.6154	0.2177	-0.6864	-1.2129	-8.5381
4144.0000	-0.0796	-0.3487	-0.1558	6.7083	3.2786	-12.0453	-0.4937	-0.7601	0.0136	6.1437	1.6120	-2.2841	0.1011	-1.1055	-1.3712	-8.5711
4152.0000	-0.3739	-0.7416	-0.2950	-0.6806	-1.5891	-37.7341	-1.6004	-1.7734	-0.2960	0.3705	1.6518	-2.0920	-0.8834	-2.0418	-1.6749	-11.9704
4160.0000	-0.2370	-0.5879	-0.2206	0.3401	-0.0061	-26.1828	-1.1476	-1.3631	-0.2099	-1.2636	1.4315	-2.1345	-0.5825	-1.6510	-1.3293	-9.2661
4168.0000	-0.2163	-0.5577	-0.2240	2.8416	1.5865	-19.3183	-0.9520	-0.9798	-0.1641	1.4914	1.6515	-1.9050	-0.3801	-1.5023	-1.5888	-11.3780
4176.0000	-0.3262	-0.6385	-0.3140	4.3312	2.9438	-49.9322	-1.3925	-2.0819	-0.3071	2.9327	1.6198	-2.0547	-0.7311	-2.0088	-1.5907	-10.9543
4184.0000	-0.1584	-0.4416	-0.2097	4.4952	3.1402	-34.7214	-0.9067	-1.7349	-0.1059	4.3996	1.4737	-2.7596	-0.2490	-1.5667	-1.1863	-6.6661
4192.0000	-0.3299	-0.6413	-0.2513	-3.0490	-1.7014	-36.0691	-1.4349	-1.7298	-0.2759	-0.9139	1.2637	-1.9298	-0.8358	-1.7970	-1.2535	-8.7134
4200.0000	-0.4389	-0.6666	-0.2851	-6.3431	-4.0672	-70.2635	-2.0081	-3.0813	-0.4622	-4.6711	0.5318	-1.8354	-1.4658	-2.1897	-0.5559	-3.2225
4208.0000	-0.3967	-0.6539	-0.2821	-4.4263	-2.5473	-65.0550	-1.8507	-2.8940	-0.4143	-3.4590	0.7585	-2.0818	-1.2765	-2.1525	-0.7221	-4.2657
4216.0000	-0.4505	-0.7156	-0.3319	-2.3860	-0.7154	-63.1697	-1.8351	-2.5461	-0.4809	-2.5378	1.0025	-1.3230	-1.3119	-2.1605	-1.1564	-8.6250
4224.0000	-0.2692	-0.4402	-0.2116	-0.5280	-0.3230	-48.3172	-1.2416	-2.0710	-0.2805	-0.5082	0.6536	-1.4795	-0.8134	-1.5233	-0.6207	-3.6974
4232.0000	-0.4102	-0.6751	-0.3219	0.5434	0.6025	-51.4978	-1.5785	-1.9975	-0.4054	0.2954	1.2718	-1.1283	-1.0430	-1.9507	-1.4515	-11.0123
4240.0000	-0.6257	-0.8951	-0.4792	2.7286	1.9271	-83.5424	-2.2461	-2.9516	-0.6451	2.0088	1.5338	-0.6718	-1.5981	-2.6582	-1.9571	-15.4436
4248.0000	-0.5331	-0.7894	-0.3831	-0.1010	-0.5005	-59.7619	-1.9090	-2.1464	-0.5182	0.3970	1.3242	-0.5144	-1.3562	-2.1685	-1.7092	-13.7643
4256.0000	-0.6236	-0.9578	-0.4357	-1.9113	-0.8819	-54.6257	-2.0962	-1.8028	-0.6303	-2.5444	1.5703	0.0705	-1.5871	-2.3407	-2.1528	-18.5320
4264.0000	-0.6042	-0.9079	-0.4511	1.0155	0.6684	-70.7001	-2.1584	-2.5158	-0.6057	0.6251	1.5865	-0.6440	-1.5288	-2.5295	-2.0135	-16.1694
4272.0000	-0.5852	-0.9432	-0.4401	-0.2851	0.2357	-62.0898	-2.1143	-2.2918	-0.5680	-0.0602	1.7553	-0.9598	-1.4444	-2.5315	-2.1305	-16.9657
4280.0000	-0.7657	-1.1579	-0.5468	-2.9742	-1.1258	-91.4727	-2.8496	-3.4328	-0.7845	-2.4325	1.7196	-1.0988	-2.0792	-3.2483	-2.1940	-17.5610
4288.0000	-0.8122	-1.1828	-0.5439	-6.6775	-4.7867	-114.5950	-3.3445	-4.6633	-0.8265	-4.2505	1.2978	-2.0642	-2.4424	-3.6487	-1.6021	-11.6763
4296.0000	-0.7387	-1.1417	-0.5363	-3.5993	-1.9194	-112.6415	-3.1135	-4.5635	-0.8117	-5.0024	1.4035	-2.2549	-2.2697	-3.6036	-1.6207	-11.7886
4304.0000	-0.5859	-0.9732	-0.5144	4.0863	3.1522	-114.7446	-2.6649	-4.7453	-0.6358	1.8066	1.7578	-3.3729	-1.6763	-3.4999	-1.6680	-10.2154
4312.0000	-0.5772	-1.0395	-0.4912	0.7812	0.0448	-108.2749	-2.8223	-4.8727	-0.5402	2.1397	1.9772	-4.5025	-1.6181	-3.6699	-1.7074	-9.3639
4320.0000	-0.0854	-0.0437	-0.0311	-3.2251	-0.6794	-12.5337	-0.2464	-0.3558	-0.1423	-3.0451	-0.3808	0.6379	-0.3695	-0.1131	0.2350	1.0157
4328.0000	0.0988	0.1609	0.0720	-3.9061	1.8449	26.9474	0.6593	1.1246	0.1416	1.9933	-0.1155	0.5586	0.4980	0.7203	0.0955	0.4315
4336.0000	0.0647	0.1721	0.0681	-1.8849	0.5968	22.1375	0.5430	1.0820	0.0919	1.5271	-0.2876	1.1615	0.3249	0.7367	0.1448	0.2038
4344.0000	0.0764	0.2092	0.0783	-2.6453	1.3125	25.6035	0.6763	1.3086	0.0824	0.8869	-0.4164	1.5613	0.3584	0.9028	0.2214	0.3559
4352.0000	0.0368	0.1485	0.0388	-2.9051	1.8914	14.2475	0.4771	0.7995	0.0464	1.7411	-0.3027	1.0924	0.2612	0.6161	0.1610	0.4636
4360.0000	-0.0565	0.0485	-0.0117	-1.9199	0.3185	-2.8178	0.0389	0.1615	-0.0637	0.7587	-0.3327	1.1090	-0.1105	0.2275	0.1222	0.0527
4368.0000	0.1820	0.2798	0.1508	0.0521	-0.2226	43.4200	0.9260	1.8749	0.2060	0.0694	-0.3303	1.3275	0.6069	1.1567	0.2341	0.5214
4376.0000	0.1957	0.2611	0.1505	0.2465	0.2651	45.6405	0.9576	1.9502	0.1970	-1.1842	-0.2695	1.2616	0.6175	1.1323	0.1898	0.0271
4384.0000	-0.1957	-0.1369	-0.1134	-1.8854	0.4219	-30.1935	-0.5585	-0.8612	-0.2621	-1.3844	-0.2724	0.9424	-0.6301	-0.4416	-0.0061	-1.0662
4392.0000	-0.1490	-0.1063	-0.0768	-1.3485	-0.6513	-16.3177	-0.3992	-0.4178	-0.1515	0.3964	-0.0858	0.7191	-0.4003	-0.2661	-0.1411	-1.7957
4400.0000	0.1041	0.0781	0.1016	-0.3476	-2.6449	37.6813	0.4554	1.4564	0.1489	-1.7937	0.0530	0.5889	0.3338	0.6156	-0.1124	-1.9034
4408.0000	0.0703	-0.0177	0.0682	-1.5715	-2.5977	25.2573	0.1823	0.8560	0.0605	-4.9449	0.0473	0.0689	0.0939	0.2384	-0.0350	-1.1028
4416.0000	-0.0149	-0.1005	-0.0094	-1.6585	-0.7793	7.7163	-0.0736	0.2137	-0.0091	-1.9913	0.2401	-0.2188	-0.0343	-0.1217	-0.2384	-2.0970
4424.0000	-0.0887	-0.1653	-0.0566	-1.1086	-1.1495	-6.5623	-0.3703	-0.3157	-0.0766	-0.9993	0.2711	-0.2914	-0.2483	-0.4091	-0.3080	-2.4297
4432.0000	-0.0362	-0.1449	-0.0257	-2.4059	-0.8287	3.9206	-0.1820	0.0316	-0.0412	-2.8318	0.2686	-0.3738	-0.1215	-0.2600	-0.2563	-2.1909
4440.0000	-0.0108	-0.1016	-0.0221	-1.8396	0.8157	14.0779	0.0766	0.4927	0.0409	1.0770	0.5032	-0.2762	0.1709	-0.0415	-0.5039	-3.9178
4448.0000	-0.1971	-0.2664	-0.1348	1.8053	-1.3029	-29.8875	-0.8278	-1.1339	-0.1940	0.3318	0.3638	-0.3237	-0.5902	-0.8810	-0.4728	-3.5470
4456.0000	-0.0368	-0.1633	-0.0273	1.2074	-1.8138	-0.4484	-0.3148	-0.1175	-0.0719	-4.2306	0.2773	-0.3355	-0.2504	-0.3868	-0.2769	-2.5872
4464.0000	0.1500	0.0196	0.0885	-2.0860	-0.1182	43.3940	0.5846	1.4545	0.2114	-1.0322	0.4891	-0.5035	0.5901	0.4617	-0.3463	-2.7337
4472.0000	-0.1929	-0.2623	-0.1272	-1.6535	-1.1421	-29.0271	-0.7931	-1.1792	-0.1901	-0.4043	0.2582	-0.5001	-0.5733	-0.8501	-0.3233	-2.1876
4480.0000	-0.1651	-0.1956	-0.1237	-0.4736	1.3787	-24.7919	-0.5232	-0.7975	-0.2057	-0.3537	0.1714	0.1796	-0.4586	-0.5973	-0.3247	-2.9107
4488.0000	0.1169	0.1119	0.0418	1.4590	4.1550	32.5447	0.7652	1.4521	0.1551	3.5673	0.3938	0.5389	0.6557	0.6426	-0.4329	-3.8959
4496.0000	-0.0670	-0.0705	-0.0554	3.2974	0.9779	-6.5547	-0.1461	-0.0159	-0.0938	0.3514	0.1628	0.6060	-0.1673	-0.1555	-0.3291	-3.3571
4504.0000	0.0001	-0.0086	0.0112	1.1326	-0.5422	10.7078	0.0939	0.5815	-0.0240	-1.9855	0.0020	0.7681	-0.0271	0.1762	-0.1487	-2.3418
4512.0000	0.1409	0.1555	0.0864	-0.1509	2.1411	38.9756	0.8147	1.6706	0.1682	1.1283	0.1185	0.8055	0.6145	0.8277	-0.1768	-2.3130
4520.0000	-0.0421	0.0036	-0.0558	1.1171	4.1922	-3.1732	0.1611	0.2267	-0.0730	2.3009	0.0941	0.8739	0.0497	0.0971	-0.2726	-2.9060
4528.0000	0.1205	0.1619	0.0737	1.3333	2.1337	33.8177	0.7501	1.5352	0.1523	2.2538	0.1021	0.9547	0.5645	0.7905	-0.1981	-2.4787
4536.0000	0.2368	0.2565	0.1729	0.5440	-0.0959	60.7663	1.1204	2.4373	0.3012	0.6030	0.0565	0.9323	0.8702	1.2483	-0.0789	-1.7429
4544.0000	0.0353	0.0570	0.0236	-0.1849	0.9040	12.4592	0.2788	0.5902	0.0457	0.7657	0.0105	0.4589	0.1933	0.3081	-0.0692	-0.9942
4552.0000	0.0717	0.0915	0.0579	0.1448	-0.3540	20.0807	0.3601	0.8107	0.1091	0.9418	0.0132	0.3463	0.2932	0.4320	-0.0323	-0.5637
4560.0000	0.2009	0.2216	0.1509	-1.2895	-0.0178	50.7367	0.9560	2.0200	0.2377	-0.6737	-0.0746	0.8125	0.7011	1.0755	0.0616	-0.5568
4568.0000	0.2000	0.2169	0.1137	-4.2010	3.7817	48.2157	1.1069	1.8672	0.2774	3.5044	0.1829	0.2205	0.9507	1.0278	-0.0923	-0.7162
4576.0000	0.0322	0.0394	0.0035	-1.8472	2.2289	13.6945	0.3294	0.5085	0.1256	5.3569	0.3400	-0.2465	0.4207	0.2409	-0.2920	-1.5715
4584.0000	-0.0507	-0.0218	-0.0242	2.3409	-0.8287	-7.6000	-0.1800	-0.1752	-0.0498	0.7064	-0.0231	0.3745	-0.1671	-0.1012	-0.0795	-0.9313
4592.0000	0.2735	0.2755	0.1867	1.5448	-0.1909	54.5634	1.0727	2.0585	0.3085	-0.6425	-0.0235	0.3847	0.8497	1.1287	0.1337	0.4640
4600.0000	0.4059	0.3705	0.2558	0.2237	1.2660	80.0704	1.6088	2.8976	0.4841	0.6208	0.1878	-0.0663	1.3780	1.5485	0.0800	0.5306
4608.0000	-0.0095	-0.0075	-0.0241	1.5046	0.9786	-10.7452	-0.1001	-0.4467	-0.0162	1.2385	0.0517	-0.3616	-0.0318	-0.1853	0.0106	0.6444
4616.0000	-0.1386	-0.1265	-0.0871	1.9621	-1.4989	-37.2253	-0.7273	-1.4594	-0.1777	-0.6449	-0.1378	-0.3355	-0.5898	-0.7110	0.1161	1.3742
4624.0000	0.3785	0.3538	0.2467	-0.4585	0.3675	67.6403	1.3910	2.3664	0.4185	-1.4022	-0.0480	-0.1921	1.1486	1.3625	0.3379	2.6318
4632.0000	0.5480	0.4958	0.3224	-3.6667	4.1520	103.5743	2.2364	3.5959	0.6882	3.5978	0.3707	-0.8311	2.0244	2.0032	0.1287	2.0221
4640.0000	0.1246	0.0964	0.0607	-1.5756	1.1533	20.6542	0.4539	0.5041	0.2381	4.9396	0.3576	-1.1149	0.6189	0.3011	-0.0936	0.9092
4648.0000	-0.0266	-0.0161	-0.0161	2.6651	-1.4940	-19.1120	-0.3410	-0.8527	-0.0389	-0.0112	-0.1115	-0.5217	-0.2318	-0.3402	0.1967	2.2632
4656.0000	0.0172	0.0034	-0.0072	0.2356	0.9229	-11.6360	-0.0856	-0.5654	-0.0267	-1.1355	-0.0943	-0.5718	-0.0634	-0.1975	0.2242	2.3598
4664.0000	0.1439	0.1129	0.0609	-1.5222	2.5751	17.9057	0.5231	0.4584	0.1873	2.4626	0.2063	-0.9384	0.5722	0.3187	0.0558	1.6684
4672.0000	0.4065	0.3734	0.2438	1.9407	1.2226	68.4537	1.4598	2.3115	0.5061	2.6767	0.2516	-0.7710	1.3699	1.3257	0.1444	2.0960
4680.0000	0.2097	0.1873	0.1379	3.6017	-1.6503	26.9653	0.5282	0.7927	0.2334	-0.7026	-0.0209	-0.5757	0.5044	0.5139	0.2624	2.6123
4688.0000	0.0111	0.0334	0.0000	5.8152	-1.2869	-24.0679	-0.3219	-1.0244	-0.0527	-1.4134	-0.2601	-0.5035	-0.2689	-0.3412	0.3824	3.6385
4696.0000	0.2573	0.2738	0.1550	7.1370	-0.3001	20.1797	0.6345	0.6506	0.1909	-2.7923	-0.3113	-0.2327	0.4604	0.6001	0.5540	4.4684
4704.0000	0.2986	0.3241	0.2392	3.7347	-4.7344	38.9631	0.7316	1.2669	0.2581	-6.1833	-0.6208	0.1015	0.4632	0.9478	0.8341	6.0398
4712.0000	0.1498	0.2178	0.1596	1.9899	-5.9546	11.1831	0.1637	0.2205	0.1155	-5.2764	-0.7720	0.0841	0.0018	0.4668	0.8998	6.8573
4720.0000	0.0384	0.0984	0.0403	2.4012	-2.0202	-18.6349	-0.1884	-0.8391	-0.0366	-3.1185	-0.5845	-0.2724	-0.2454	-0.1037	0.7064	5.9360
4728.0000	0.0116	0.0643	0.0213	2.6800	-2.3059	-26.4908	-0.3494	-1.1749	-0.0706	-3.3312	-0.5850	-0.4563	-0.3630	-0.2808	0.7222	6.2547
4736.0000	0.1626	0.2105	0.1288	2.3539	-2.7954	6.6061	0.2531	0.0206	0.1279	-2.9943	-0.5444	-0.3967	0.1559	0.3590	0.7642	6.4829
4744.0000	0.1720	0.2287	0.1208	0.4900	-0.8539	7.3448	0.3874	0.0561	0.1411	-1.7868	-0.5153	-0.4905	0.2794	0.4218	0.7645	6.7338
4752.0000	0.0327	0.1237	0.0251	-0.1994	-0.1264	-22.8870	-0.1118	-1.0273	-0.0209	-0.7201	-0.5994	-0.5090	-0.1387	-0.0873	0.7721	7.0689
4760.0000	-0.0256	0.0809	-0.0300	-0.7401	1.9470	-33.8360	-0.2117	-1.3460	-0.0878	0.8924	-0.5311	-0.4196	-0.2190	-0.2531	0.6523	6.2054
4768.0000	0.0059	0.1004	-0.0138	-1.0389	2.0748	-26.8283	-0.0910	-1.1555	-0.0164	2.4810	-0.3909	-0.7181	-0.0403	-0.1691	0.5769	6.0515
4776.0000	0.1580	0.2057	0.1068	0.4168	-0.8881	6.4839	0.3356	-0.0526	0.1813	0.8891	-0.3131	-0.8817	0.3538	0.3315	0.6087	6.1650
4784.0000	0.1633	0.2108	0.1126	-0.3286	-0.5697	7.6768	0.3814	0.0571	0.1400	-1.5044	-0.4597	-0.5600	0.2907	0.3951	0.7117	6.3925
4792.0000	-0.0944	-0.0029	-0.0623	-1.7868	0.6460	-42.4816	-0.5021	-1.6899	-0.1620	-0.2904	-0.5510	-0.4124	-0.4708	-0.4983	0.6202	5.8100
4800.0000	-0.1526	-0.0562	-0.0935	-1.2291	-0.0799	-47.7755	-0.6894	-1.8461	-0.1951	0.9331	-0.4576	-0.2967	-0.5935	-0.6431	0.4561	4.4859
4808.0000	0.0708	0.1768	0.0613	-1.2804	0.1265	0.6470	0.2646	0.0056	0.0700	0.9370	-0.4686	0.1278	0.1620	0.3680	0.5373	4.5769
4816.0000	0.0487	0.1601	0.0461	-1.4521	0.5264	0.0662	0.2506	0.0476	0.0502	1.3838	-0.4328	0.3158	0.1400	0.3605	0.4507	3.7118
4824.0000	-0.2520	-0.1412	-0.1406	0.4152	-1.6059	-61.0500	-1.0598	-2.1909	-0.3302	-0.7769	-0.5638	0.3234	-0.9925	-0.8954	0.3844	3.0765
4832.0000	-0.2712	-0.1612	-0.1296	2.1329	-4.1155	-65.2567	-1.2629	-2.3156	-0.3985	-4.4863	-0.7929	0.6947	-1.2687	-0.9745	0.5404	3.5577
4840.0000	-0.1268	-0.0576	-0.0338	1.1591	-4.0882	-31.1541	-0.6755	-1.0781	-0.2301	-5.5938	-0.6849	0.7396	-0.7860	-0.4008	0.5074	2.9615
4848.0000	-0.2321	-0.1959	-0.1114	-0.0813	-4.0720	-52.3210	-1.1351	-1.9720	-0.3359	-5.2330	-0.5596	0.2071	-1.0956	-0.9384	0.3995	2.7057
4856.0000	-0.1648	-0.1378	-0.0690	-1.0418	-3.3329	-31.4526	-0.7532	-1.1479	-0.2352	-4.3480	-0.4274	0.3945	-0.7677	-0.5634	0.2675	1.4377
4864.0000	-0.0149	0.0245	0.0285	-2.0727	-1.8024	10.2090	0.0743	0.5422	-0.0244	-2.2847	-0.2685	0.9525	-0.0862	0.2859	0.0962	-0.4558
4872.0000	-0.4024	-0.3624	-0.2292	-1.2709	-2.7877	-68.2484	-1.5243	-2.3833	-0.4674	-1.7754	-0.2461	0.5668	-1.3651	-1.3393	-0.1153	-1.5139
4880.0000	-0.6108	-0.6016	-0.3850	-1.5912	-1.7243	-110.2168	-2.3388	-3.9244	-0.7355	-2.4608	-0.1531	0.3262	-2.0402	-2.2618	-0.3059	-2.8446
4888.0000	-0.2492	-0.2289	-0.1496	-2.4445	0.2322	-30.4618	-0.7041	-0.8554	-0.2928	-0.9025	-0.0384	0.9261	-0.7065	-0.6086	-0.2957	-3.4449
4896.0000	-0.1480	-0.1252	-0.0820	-1.6425	0.2208	-5.8911	-0.2547	0.0658	-0.1293	1.2955	0.1234	0.9773	-0.2699	-0.1441	-0.4134	-4.2928
4904.0000	-0.2769	-0.2760	-0.1957	-2.4379	2.4932	-35.7685	-0.7298	-1.0536	-0.2990	1.8355	0.2402	0.5949	-0.6355	-0.7758	-0.5453	-4.8658
4912.0000	-0.4356	-0.4454	-0.3032	-2.9123	2.2664	-68.7607	-1.3968	-2.3094	-0.4933	1.2386	0.2265	0.3580	-1.1827	-1.4745	-0.5926	-4.9897
4920.0000	-0.6406	-0.7039	-0.4393	-2.0017	0.4046	-107.4545	-2.3498	-3.8943	-0.6889	1.9052	0.4727	-0.3661	-1.8407	-2.4788	-0.8697	-6.3856
4928.0000	-0.4895	-0.6023	-0.3533	-1.1305	0.8125	-79.2652	-1.8242	-2.9492	-0.5058	2.0796	0.6821	-0.7357	-1.3369	-2.0407	-0.9286	-6.6033
4936.0000	-0.3456	-0.4778	-0.2292	0.2724	-2.1892	-50.0885	-1.4189	-1.8926	-0.3809	-2.3444	0.4704	-0.3755	-1.1055	-1.4933	-0.6850	-5.5789
4944.0000	-0.5165	-0.6417	-0.3326	-0.0033	-3.2535	-85.6642	-2.1521	-3.2074	-0.6074	-4.1844	0.3037	-0.3592	-1.7666	-2.1881	-0.6245	-5.1908
4952.0000	-0.6543	-0.7427	-0.4449	-0.5423	-0.6426	-114.8020	-2.5420	-4.1837	-0.7618	-1.4639	0.3499	-0.3335	-2.0731	-2.6603	-0.7571	-5.8881
4960.0000	-0.7116	-0.8075	-0.4685	-0.0494	-2.2052	-121.3873	-2.7972	-4.4150	-0.8212	-2.3215	0.3428	-0.2022	-2.2967	-2.8492	-0.8189	-6.6281
4968.0000	-0.5882	-0.6925	-0.3638	-0.0587	-4.3922	-93.3620	-2.3855	-3.4326	-0.6655	-3.6835	0.2761	-0.0833	-1.9682	-2.3314	-0.6973	-5.9814
4976.0000	-0.4390	-0.5205	-0.2587	0.2103	-4.2330	-63.9577	-1.7607	-2.2828	-0.5062	-4.1765	0.1629	0.3070	-1.5089	-1.6494	-0.5471	-5.2682
4984.0000	-0.4338	-0.5197	-0.2660	-1.4404	-2.7779	-65.6096	-1.6994	-2.3353	-0.5336	-5.1722	0.0988	0.2947	-1.5032	-1.6473	-0.4665	-4.7032
4992.0000	-0.4081	-0.4992	-0.2650	-4.1736	-0.9125	-58.5649	-1.4883	-2.1429	-0.4546	-2.1464	0.2905	-0.1144	-1.2258	-1.5353	-0.5743	-4.8294
5000.0000	-0.5595	-0.6549	-0.3665	-4.0951	-1.5637	-88.2962	-2.1250	-3.3270	-0.5841	-0.0565	0.4240	-0.5836	-1.6474	-2.2001	-0.7339	-5.3237
5008.0000	-0.7268	-0.8152	-0.4754	-3.2916	-2.1512	-126.5534	-2.8643	-4.7311	-0.8182	-1.7493	0.2718	-0.6050	-2.3120	-2.9319	-0.6771	-4.9086
5016.0000	-0.5897	-0.6463	-0.3842	-3.7238	-0.8765	-97.0941	-2.1887	-3.5095	-0.6743	-1.6897	0.1806	-0.0371	-1.8286	-2.2178	-0.5870	-4.8150
5024.0000	-0.3656	-0.4416	-0.2392	-3.4613	-0.6929	-52.0837	-1.3182	-1.9078	-0.3892	-0.8023	0.3144	-0.1562	-1.0531	-1.3660	-0.5621	-4.5298
5032.0000	-0.3376	-0.4408	-0.2201	-1.4695	-1.8594	-49.1628	-1.3388	-1.8786	-0.3528	-1.1944	0.3941	-0.4173	-1.0264	-1.3949	-0.5868	-4.5431
5040.0000	-0.5275	-0.5922	-0.3425	-0.9624	-1.9465	-91.5171	-2.0965	-3.3704	-0.6097	-2.0513	0.1763	-0.2329	-1.7261	-2.1197	-0.5084	-4.0238
5048.0000	-0.3617	-0.4064	-0.2496	-2.2528	0.4511	-63.9276	-1.3606	-2.3524	-0.4213	-0.6286	0.1626	-0.2788	-1.1103	-1.4542	-0.3645	-2.6724
5056.0000	-0.0375	-0.0768	-0.0405	-1.9166	1.7439	5.9864	0.0505	0.2791	0.0041	2.1843	0.3667	-0.0167	0.1135	-0.0413	-0.4151	-3.2477
5064.0000	-0.2842	-0.2886	-0.1792	-2.4021	-0.2618	-40.1859	-0.9383	-1.3769	-0.2896	0.9111	0.1360	0.2333	-0.7700	-0.9081	-0.3814	-3.1983
5072.0000	-0.3230	-0.3253	-0.1821	-3.4056	-2.1423	-43.4711	-1.1221	-1.5029	-0.3393	-1.0141	-0.0080	0.4340	-0.9749	-0.9891	-0.2969	-2.9103
5080.0000	0.0243	0.0238	0.0609	-2.4101	-2.6166	32.1181	0.3045	1.3558	0.0829	-0.9705	0.0356	0.9905	0.1817	0.5335	-0.2209	-3.0878
5088.0000	-0.0252	-0.0125	0.0141	-3.2190	-0.8922	17.8346	0.1614	0.8668	-0.0045	-1.0345	-0.0317	0.9931	0.0277	0.3274	-0.1732	-2.6505
5096.0000	-0.0966	-0.0903	-0.0650	-3.7329	2.1432	4.1080	0.0233	0.4053	-0.0676	2.0141	0.2224	0.7641	-0.0134	0.0351	-0.4405	-4.2552
5104.0000	-0.0828	-0.0474	-0.0568	-2.1171	2.3087	4.9113	0.0940	0.4830	-0.0396	3.5243	0.2187	0.8878	0.0595	0.1275	-0.4474	-4.2437
5112.0000	-0.1219	-0.0515	-0.0749	-3.1741	2.3849	-5.0772	-0.0319	0.1615	-0.1113	2.5569	-0.0056	1.1360	-0.1205	0.0516	-0.2745	-3.1102
5120.0000	0.1023	0.1791	0.0632	-3.0913	3.8073	42.1223	0.9572	1.9126	0.2002	5.8107	0.2010	1.1414	0.7811	1.0075	-0.3452	-3.4579
5128.0000	0.1987	0.2686	0.1320	-0.4545	2.1971	51.0814	1.1192	2.1212	0.2968	4.7704	0.1163	0.8346	0.9362	1.1899	-0.1382	-1.5621
5136.0000	0.0449	0.1178	0.0427	-1.2696	0.9028	14.8920	0.3937	0.7552	0.0535	0.8925	-0.1965	0.8489	0.2261	0.5093	0.0910	-0.0064
5144.0000	0.0820	0.1764	0.0633	-1.6263	1.4931	20.1417	0.5685	0.9184	0.1263	3.0429	-0.1649	0.6875	0.4263	0.6688	0.1154	0.6317
5152.0000	0.2187	0.2781	0.1426	0.2112	1.4168	39.1779	0.9555	1.5094	0.2670	2.2820	-0.0988	0.3027	0.7837	0.9890	0.2045	1.5947
5160.0000	0.2055	0.2462	0.1213	-0.5987	2.5843	34.5052	0.9163	1.3350	0.2226	1.3328	-0.0898	0.2142	0.7270	0.8779	0.2061	1.5793
5168.0000	0.0803	0.1429	0.0348	-0.5837	2.7640	9.0664	0.4476	0.3754	0.1164	3.9426	-0.0194	-0.0323	0.4147	0.3908	0.0955	1.3294
5176.0000	0.1212	0.1517	0.0617	1.4695	1.9520	15.9944	0.5099	0.6207	0.1388	2.1820	0.0165	-0.0210	0.4473	0.4502	0.0769	0.8926
5184.0000	0.2323	0.2513	0.1306	1.3114	2.4071	35.4176	0.9255	1.3125	0.2504	1.4012	0.0008	-0.0507	0.7760	0.8409	0.1740	1.5703
5192.0000	0.1928	0.1922	0.1094	-1.1825	1.8218	31.2828	0.7637	1.0429	0.2434	2.0635	0.0824	-0.4480	0.7118	0.6649	0.1293	1.7056
5200.0000	0.2127	0.2114	0.1232	-3.3149	2.5027	38.9879	0.9272	1.3528	0.2635	1.6790	0.0597	-0.3172	0.8174	0.8259	0.1445	1.6283
5208.0000	0.0868	0.1610	0.0403	-1.5692	3.0715	10.2541	0.5049	0.4225	0.1243	4.0732	-0.0702	0.0006	0.4514	0.4541	0.1503	1.7787
5216.0000	-0.0274	0.0436	-0.0235	0.8659	1.2982	-9.9661	-0.0124	-0.2763	-0.0139	3.1083	-0.0814	0.1887	0.0016	0.0042	0.0451	0.6402
5224.0000	0.2617	0.3057	0.1610	-1.3855	2.7386	45.6472	1.1534	1.7528	0.2767	0.6438	-0.1562	0.3213	0.8915	1.1289	0.2955	2.1026
5232.0000	0.2515	0.3076	0.1357	-3.3839	5.2224	46.4922	1.2867	1.8195	0.2992	3.7123	0.0043	0.2214	1.0612	1.1732	0.1441	1.3161
5240.0000	0.0169	0.0683	-0.0148	-0.7171	3.4183	2.2512	0.2823	0.1585	0.0733	5.6152	0.1717	-0.0688	0.3290	0.1856	-0.1446	-0.4314
5248.0000	0.0921	0.1293	0.0593	0.3944	0.1468	7.3192	0.2822	0.1768	0.1147	1.4241	-0.1266	-0.2977	0.2738	0.2813	0.2570	2.6491
5256.0000	0.0802	0.1000	0.0602	-2.4114	-0.0134	9.7791	0.2758	0.2781	0.0723	-1.2251	-0.2378	-0.1118	0.1875	0.2984	0.3319	2.7459
5264.0000	0.1152	0.1527	0.0726	-1.5310	1.1058	16.8920	0.4867	0.5734	0.1480	1.7121	-0.0963	-0.1453	0.4281	0.4746	0.2141	2.1371
5272.0000	0.2734	0.2419	0.1647	-0.0989	0.9056	47.4934	0.9954	1.5765	0.3439	1.5416	0.1740	-0.6080	0.9366	0.8941	0.1079	1.5557
5280.0000	0.2386	0.1322	0.1231	-2.0378	2.0711	45.6989	0.8861	1.4541	0.2956	0.4534	0.4194	-0.9557	0.8766	0.6497	-0.1164	-0.1481
5288.0000	0.1021	0.0696	0.0444	1.0725	1.0036	11.6936	0.2987	0.2831	0.1326	1.5728	0.1957	-0.6885	0.3611	0.1646	-0.0128	0.7372
5296.0000	0.0126	-0.0093	0.0129	2.7612	-1.3049	1.1771	-0.0635	0.0539	-0.0115	-1.8337	-0.0035	0.1032	-0.0825	-0.0348	-0.0130	-0.4687
5304.0000	0.1440	0.0943	0.0847	-0.1834	0.5974	27.1994	0.5196	0.9553	0.1351	-1.9854	0.0708	-0.1175	0.4115	0.4501	0.0398	0.0839
5312.0000	0.1737	0.1168	0.1005	1.2944	0.1372	30.0331	0.5592	0.9764	0.2011	-0.3236	0.1935	-0.4756	0.5341	0.4647	-0.0082	0.2455
5320.0000	0.0504	-0.0103	0.0361	0.5562	-1.0101	14.7011	0.1289	0.5149	0.0397	-2.5566	0.1073	0.0019	0.0873	0.1204	-0.0912	-1.1732
5328.0000	0.1617	0.1320	0.1025	-1.4960	0.3761	31.0727	0.6089	1.0452	0.1912	-0.4323	0.0570	-0.2664	0.5324	0.5630	0.0941	0.8994
5336.0000	0.1428	0.0621	0.0806	-0.5649	0.1951	32.5676	0.5162	1.0507	0.2045	0.6514	0.3672	-0.5832	0.5511	0.4029	-0.1988	-1.1391
5344.0000	0.0770	0.0151	0.0394	-0.3943	0.1598	15.8941	0.2382	0.4682	0.0975	-0.4144	0.2120	-0.4575	0.2640	0.1450	-0.0965	-0.4781
5352.0000	0.2298	0.2017	0.1623	1.8461	-1.8732	40.9787	0.7168	1.3808	0.2655	-1.3964	-0.0097	-0.2043	0.6185	0.7567	0.1916	1.5035
5360.0000	0.3182	0.2585	0.2323	0.5776	-2.1502	70.7787	1.1685	2.6001	0.3418	-4.3343	-0.0071	0.4306	0.8841	1.2678	0.1243	-0.2030
5368.0000	0.2208	0.2723	0.1561	-1.4439	0.9799	41.3666	0.9666	1.6451	0.2065	-1.8225	-0.3358	0.7138	0.6481	1.0553	0.3826	2.1462
5376.0000	0.0384	0.1154	0.0433	1.6624	-0.2443	8.8436	0.2537	0.5467	0.0205	-0.2614	-0.2772	0.9480	0.0800	0.4097	0.1523	0.2780
5384.0000	0.2221	0.2844	0.1767	1.3576	-1.2414	46.3476	0.9252	1.8835	0.2300	-1.7229	-0.3274	1.0365	0.6139	1.1336	0.3061	1.1735
5392.0000	0.3561	0.4681	0.2774	1.4267	-1.6974	66.4756	1.4174	2.6077	0.3831	-1.4712	-0.5581	1.1693	0.9935	1.7061	0.6209	3.6855
5400.0000	0.2055	0.2875	0.1878	1.4625	-2.4967	49.4092	0.9057	2.1281	0.1842	-4.0078	-0.5142	1.7208	0.4782	1.2452	0.3651	0.6803
5408.0000	0.3841	0.5372	0.2884	-0.6996	0.8382	72.7233	1.7250	3.0103	0.3718	-2.0250	-0.7380	1.7663	1.1246	2.0093	0.7348	3.9517
5416.0000	0.2918	0.4649	0.2096	1.3936	2.3437	57.5813	1.4872	2.5545	0.3139	2.2536	-0.4736	1.7888	1.0199	1.7141	0.3916	1.6217
5424.0000	0.1774	0.3118	0.1467	2.5625	-0.1201	37.4421	0.8927	1.7288	0.1877	0.7244	-0.4173	1.5507	0.5553	1.1540	0.2873	0.8506
5432.0000	0.4403	0.5921	0.3483	2.4993	-2.6548	77.7324	1.6888	3.0569	0.4496	-2.9071	-0.8315	1.5107	1.1355	2.0790	0.9077	5.5532
5440.0000	0.3458	0.4341	0.2663	1.3422	-0.7947	72.4628	1.4932	2.9850	0.3339	-3.4173	-0.5102	1.7083	0.9617	1.7741	0.4634	1.5139
5448.0000	0.3504	0.4694	0.2508	0.4019	0.8102	64.2116	1.5131	2.5466	0.3919	1.0023	-0.4212	1.0033	1.1228	1.6937	0.5106	3.2409
5456.0000	0.2920	0.4168	0.2407	3.1386	-2.1461	58.2682	1.2100	2.4217	0.3087	-1.3718	-0.5450	1.5612	0.7902	1.5522	0.4905	2.2231
5464.0000	0.1742	0.2765	0.1442	1.3187	0.2486	38.2970	0.8870	1.8217	0.1090	-3.5838	-0.5517	1.8750	0.4132	1.1377	0.3691	0.6382
5472.0000	0.4664	0.5958	0.3356	0.9453	0.1812	85.9710	1.9362	3.3321	0.5319	0.9613	-0.4760	1.0831	1.4703	2.1645	0.6298	4.0946
5480.0000	0.3390	0.3952	0.2873	3.2723	-4.2117	81.3879	1.3725	3.2661	0.3814	-3.4026	-0.3426	1.7077	0.9292	1.7648	0.2615	-0.2176
5488.0000	0.2725	0.3845	0.2238	0.8239	-1.4196	49.3668	1.1042	2.0632	0.2220	-4.5536	-0.7458	1.5189	0.6079	1.4064	0.7046	3.6930
5496.0000	0.3630	0.4442	0.2696	0.8573	-0.6119	72.7012	1.5173	2.8574	0.4006	-0.9513	-0.3668	1.1198	1.1041	1.7360	0.4299	2.1505
5504.0000	0.1729	0.1654	0.1256	1.1850	-0.0446	46.2107	0.8168	1.9286	0.1724	-2.1451	0.0026	1.0116	0.5466	0.9143	-0.0788	-2.1442
5512.0000	0.3307	0.4090	0.2182	1.0679	1.5426	53.6853	1.3367	2.0619	0.3486	0.5102	-0.3113	0.5008	1.0192	1.3967	0.4737	3.3914
5520.0000	0.3225	0.3353	0.2348	0.3999	-0.1847	82.1546	1.5005	3.2788	0.3942	-0.2485	0.0566	1.2289	1.1454	1.6618	-0.0790	-2.2317
5528.0000	0.3006	0.3455	0.2019	-0.9485	1.6914	61.6431	1.3564	2.4239	0.3334	0.1456	-0.1444	0.7515	1.0261	1.4203	0.2234	0.9395
5536.0000	0.3494	0.4314	0.2336	2.2859	1.2285	64.1124	1.4737	2.4987	0.4163	2.6072	-0.1405	0.6449	1.1877	1.5635	0.2733	1.7850
5544.0000	0.1415	0.1510	0.0937	-0.4358	2.1102	48.4194	0.9251	2.1419	0.1653	0.3338	0.1491	1.3011	0.6483	0.9857	-0.3031	-4.0236
5552.0000	0.4218	0.4898	0.2516	-1.9201	4.8623	75.4356	1.8931	2.8616	0.4947	3.8019	-0.0521	0.2604	1.5649	1.8108	0.3102	2.5949
5560.0000	0.4835	0.4544	0.3163	2.7965	1.2339	116.4862	2.1662	4.5274	0.6299	2.9702	0.4908	0.9454	1.8335	2.2090	-0.3858	-4.2695
5568.0000	0.2926	0.3104	0.1995	0.7659	1.1807	70.4282	1.3858	2.8575	0.3363	-0.0131	0.0450	1.1206	1.0440	1.4765	-0.0596	-1.8956
5576.0000	0.2595	0.3349	0.1690	1.1956	1.6481	44.5216	1.1141	1.7511	0.2968	2.0274	-0.1718	0.4844	0.8807	1.1638	0.2789	1.9871
5584.0000	0.0530	0.0240	0.0221	0.7599	2.3583	33.3538	0.5630	1.5737	0.0756	1.0240	0.3841	1.0538	0.4102	0.5464	-0.5708	-5.9151
5592.0000	0.3355	0.4227	0.1932	-1.0854	4.6728	53.3982	1.5055	2.0277	0.3950	4.4723	-0.1059	0.1079	1.2620	1.4208	0.3410	3.1779
5600.0000	0.2527	0.2128	0.1474	2.0544	1.5829	61.1089	1.1416	2.3152	0.3696	4.1225	0.5321	0.0609	1.0827	1.0631	-0.4163	-3.2888
5608.0000	-0.0874	-0.1677	-0.0825	0.2326	1.1156	-9.6466	-0.3046	-0.3788	-0.0788	0.8374	0.4378	-0.3902	-0.1565	-0.4589	-0.4592	-3.3813
5616.0000	0.1289	0.1306	0.0714	2.2148	-0.4589	1.6750	0.1880	-0.2395	0.1476	1.0823	-0.0751	-1.0984	0.2809	0.0951	0.3719	4.3972
5624.0000	-0.0876	-0.2519	-0.0805	3.4099	-0.5539	-1.3202	-0.3994	-0.0283	-0.1067	-2.4085	0.6585	-0.1941	-0.2657	-0.5539	-0.7464	-6.4938
5632.0000	-0.0046	-0.0314	-0.0373	0.9309	1.1946	-28.4612	-0.3311	-1.3595	-0.0542	-0.4019	-0.0676	-1.3305	-0.1817	-0.5457	0.3240	4.1223
5640.0000	0.1670	0.0419	0.1113	3.7442	-3.5058	27.9982	0.2490	0.7050	0.2052	-2.4605	0.3060	-1.0184	0.3496	0.1845	-0.0514	0.1539
5648.0000	-0.0651	-0.2681	-0.0787	0.1541	0.2797	-5.4950	-0.4143	-0.3854	-0.1085	-4.0544	0.6055	-0.9204	-0.2562	-0.6893	-0.5379	-4.1943
5656.0000	0.0615	0.0783	0.0065	1.2720	0.9008	-29.4909	-0.2051	-1.5568	0.0418	1.5591	-0.2177	-1.8690	-0.0025	-0.4211	0.6331	7.5621
5664.0000	-0.1062	-0.2808	-0.0848	2.7390	-1.3567	-1.1422	-0.4777	-0.0477	-0.1126	-2.6005	0.6861	-0.2274	-0.3170	-0.6058	-0.7866	-6.8212
5672.0000	0.0441	0.0013	-0.0396	-2.3361	5.3005	-16.5970	0.0748	-0.8924	0.0129	1.9274	0.1581	-1.5195	0.1990	-0.3191	0.1620	3.1881
5680.0000	0.1202	0.1005	0.0608	2.9672	-0.2679	10.5590	0.2560	0.1351	0.1979	3.7376	0.2527	-1.0748	0.4288	0.1422	0.0061	1.5831
5688.0000	-0.2551	-0.4500	-0.1929	-0.0094	0.3399	-19.4247	-0.8622	-0.6007	-0.2898	-2.8189	0.8106	0.0331	-0.6743	-1.0460	-1.0641	-9.4078
5696.0000	0.0739	0.1008	-0.0143	-1.0708	3.3408	-42.9527	-0.2146	-2.2622	0.0650	4.0751	-0.2179	-2.8494	0.1013	-0.6059	0.8355	10.6463
5704.0000	-0.2979	-0.5781	-0.2151	2.7716	-3.2750	-26.7991	-1.3225	-1.1673	-0.2593	-1.5860	1.2054	-1.0484	-0.8294	-1.5410	-1.3369	-10.4413
5712.0000	-0.3656	-0.5090	-0.3518	-10.1617	9.6248	-81.5541	-1.2369	-3.2463	-0.4833	0.7834	0.5300	-1.9160	-0.8902	-1.9153	-0.4284	-1.3620
5720.0000	0.2930	0.4932	0.0940	-4.3241	8.4596	-38.8719	0.6449	-2.3746	0.3626	12.7475	-0.6190	-4.0378	0.9821	0.1001	1.6694	20.0702
5728.0000	-0.3736	-0.6620	-0.2425	5.5223	-5.1869	-20.5674	-1.4755	-0.6880	-0.3125	-1.5451	1.4029	-0.0963	-0.9980	-1.5438	-1.7872	-15.2408
5736.0000	-0.3531	-0.4572	-0.2821	-3.0410	2.6726	-77.6560	-1.4783	-3.0627	-0.4599	-1.6737	0.2513	-1.2564	-1.1513	-1.8096	-0.2659	-0.9628
5744.0000	-0.0151	0.0026	-0.0292	1.6346	-0.3706	-30.3287	-0.4004	-1.5107	0.0209	3.6547	-0.0163	-1.6044	-0.1074	-0.5359	0.3091	4.8355
5752.0000	-0.4563	-0.7049	-0.2978	2.0040	-3.6387	-44.2205	-1.7431	-1.5023	-0.4930	-4.6668	0.9815	0.1811	-1.3873	-1.8111	-1.4294	-12.8056
5760.0000	-0.1015	-0.1118	-0.0932	-2.0932	0.1024	-58.1886	-0.8674	-2.7042	-0.1517	-0.2415	-0.2691	-2.1494	-0.5607	-1.0913	0.6273	7.6729
5768.0000	-0.1497	-0.3093	-0.0808	0.7229	-4.9058	-12.6975	-0.8389	-0.7260	-0.1089	-2.4022	0.5162	-0.8443	-0.5308	-0.8528	-0.5305	-3.9202
5776.0000	-0.3022	-0.4726	-0.2233	-4.4701	0.1605	-46.2749	-1.2273	-1.9133	-0.3433	-2.6963	0.5164	-1.0485	-0.9093	-1.4679	-0.5744	-4.0242
5784.0000	-0.0579	-0.1060	-0.0742	-3.2169	0.6951	-40.4181	-0.6100	-2.1138	-0.0230	2.9800	0.1151	-2.5254	-0.2008	-0.9078	0.3097	5.7177
5792.0000	-0.3922	-0.6355	-0.2655	-1.7187	-3.2506	-48.3399	-1.6657	-2.0266	-0.3797	-2.4475	0.9104	-1.1609	-1.1623	-1.8479	-1.0578	-7.9725
5800.0000	-0.3461	-0.4353	-0.2776	-4.9568	1.4933	-95.7384	-1.7281	-4.1337	-0.4069	0.4813	0.1281	-2.6717	-1.1818	-2.1215	0.1330	4.2215
5808.0000	-0.2237	-0.3657	-0.1885	-2.3148	0.2218	-49.5090	-1.1244	-2.3176	-0.1767	2.8492	0.6433	-2.2673	-0.5818	-1.4642	-0.4283	-0.8087
5816.0000	-0.2336	-0.4164	-0.1770	-3.2110	-0.8109	-30.0391	-1.0018	-1.4277	-0.1796	0.8515	0.7937	-1.5033	-0.5566	-1.2499	-0.7488	-4.6302
5824.0000	-0.2031	-0.2598	-0.1517	-1.8188	-1.8242	-67.4112	-1.2977	-3.1282	-0.1963	1.3147	0.0463	-2.5032	-0.7884	-1.5135	0.2736	5.2728
5832.0000	-0.4206	-0.5995	-0.2960	-1.2648	-1.3678	-66.4355	-1.7505	-2.6184	-0.4616	-2.1445	0.6399	-0.9930	-1.3071	-1.9533	-0.8024	-5.8749
5840.0000	-0.2006	-0.1715	-0.1467	-4.3433	2.2500	-42.7945	-0.6682	-1.6038	-0.2326	1.3822	-0.0883	-0.3186	-0.5445	-0.7583	0.0327	0.9409
5848.0000	-0.1678	-0.0388	-0.0598	-2.2725	-2.1133	-20.2688	-0.4350	-0.5272	-0.1436	1.7054	-0.3879	1.0683	-0.4608	-0.1293	0.1071	0.1764
5856.0000	-0.1743	-0.1107	-0.0616	-3.7388	-1.5143	1.4689	-0.2268	0.5065	-0.1721	-1.1553	-0.1630	1.9363	-0.4022	0.0931	-0.3061	-4.6739
5864.0000	-0.0043	0.1794	0.0322	-3.8164	0.3923	-5.7664	0.1932	-0.0473	-0.0024	1.8869	-0.6968	0.8927	0.0115	0.4352	0.5964	4.4773
5872.0000	-0.3937	-0.2824	-0.2005	-1.4691	-2.7238	-52.7843	-1.2250	-1.5094	-0.4476	-1.1515	-0.3934	1.8017	-1.2434	-0.8601	-0.1771	-3.2438
5880.0000	-0.2388	-0.0895	-0.1194	-2.1318	-0.2789	-41.8457	-0.6802	-1.1876	-0.3227	-1.2280	-0.6496	1.4824	-0.8243	-0.4106	0.2755	0.8623
5888.0000	-0.0084	0.1677	0.0348	-0.8882	-0.2250	-1.0185	0.2004	0.2895	-0.0351	0.3346	-0.6754	1.5034	-0.0617	0.5018	0.4540	2.4195
5896.0000	-0.2391	-0.1070	-0.1123	-3.4277	0.2857	-18.2283	-0.3863	-0.0860	-0.2802	-0.2899	-0.3819	2.2965	-0.6093	-0.0609	-0.1671	-3.6754
5904.0000	-0.0949	0.0960	-0.0287	-4.4767	1.0442	-15.7980	-0.0254	-0.3090	-0.0919	2.8263	-0.6137	1.1770	-0.1790	0.2229	0.3961	2.6498
5912.0000	-0.1952	-0.1190	-0.0763	-1.6693	-2.4139	-12.3138	-0.4623	-0.1092	-0.1870	-0.1891	-0.1973	1.5134	-0.5334	-0.1491	-0.2054	-3.2151
5920.0000	-0.1864	-0.0876	-0.0886	-2.4643	-0.0575	-19.2554	-0.3813	-0.3141	-0.2330	-0.9231	-0.3576	1.5919	-0.5408	-0.1419	-0.0294	-1.8836
5928.0000	-0.0442	0.0855	0.0055	-1.8221	-0.1172	2.2164	0.1275	0.3827	-0.0272	1.7504	-0.3589	1.2901	-0.0324	0.3750	0.1244	0.0098
5936.0000	-0.2407	-0.2049	-0.0945	-1.3872	-4.1117	-14.4547	-0.6932	-0.2006	-0.2408	-2.1052	-0.1318	1.5689	-0.7376	-0.3410	-0.3265	-4.5424
5944.0000	-0.1619	-0.0782	-0.0644	-2.4016	-2.3271	-32.3291	-0.6328	-1.1103	-0.2286	-3.0689	-0.5885	0.6550	-0.7028	-0.4051	0.4024	2.5008
5952.0000	-0.1774	-0.1174	-0.0982	-3.2321	0.4315	-22.1143	-0.4301	-0.5861	-0.2041	-0.0323	-0.1938	0.8706	-0.4781	-0.3063	-0.0663	-1.3470
5960.0000	-0.1021	-0.0186	-0.0508	-3.1971	1.0072	-6.5300	-0.0715	-0.0109	-0.0737	2.7138	-0.1102	0.8306	-0.1167	0.0529	-0.0959	-1.2471
5968.0000	0.1112	0.2007	0.0906	-0.6556	-0.0774	17.4483	0.4957	0.6915	0.1426	1.5760	-0.3008	0.3684	0.3704	0.6202	0.3353	2.6412
5976.0000	-0.0884	-0.0577	-0.0343	-1.1027	-0.8346	-3.6424	-0.1749	0.0686	-0.1019	-1.0038	-0.1169	0.8740	-0.2558	-0.0282	-0.0979	-1.8179
5984.0000	-0.0843	-0.0062	-0.0240	-1.1418	-1.9269	-20.1608	-0.3623	-0.7320	-0.1028	-0.6821	-0.4200	0.2982	-0.3777	-0.1891	0.3398	2.5955
5992.0000	-0.0148	-0.0090	0.0213	-0.4903	-2.7163	0.8343	-0.1337	0.0187	-0.0275	-2.6541	-0.2113	0.2745	-0.1820	0.0123	0.1563	0.7164
6000.0000	-0.0232	-0.0174	0.0019	-1.6563	-0.8363	2.1847	-0.0351	0.1386	-0.0365	-1.6924	-0.1216	0.3810	-0.1038	0.0493	0.0410	-0.2554
6008.0000	0.0838	0.1098	0.0643	0.6131	-0.9817	7.9633	0.2088	0.2014	0.0948	-0.0803	-0.1722	-0.1817	0.1809	0.2544	0.2738	2.4778
6016.0000	-0.0412	-0.0978	-0.0223	-0.8915	-0.8861	0.4472	-0.1703	0.0048	-0.0542	-2.1665	0.1177	0.0145	-0.1574	-0.1756	-0.1652	-1.7066
6024.0000	-0.0954	-0.0897	-0.0511	-2.8846	-0.7791	-18.1496	-0.3894	-0.7446	-0.1068	-0.8378	-0.1330	-0.1758	-0.3325	-0.3587	0.1099	1.0821
6032.0000	0.0318	0.0066	0.0431	0.0863	-2.5318	11.2466	0.0282	0.3464	0.0509	-1.6278	-0.0105	-0.0075	0.0260	0.1161	0.0214	-0.0531
6040.0000	0.1553	0.1195	0.1125	-1.2443	-0.4022	41.0792	0.6765	1.5562	0.1790	-1.7850	0.0688	0.3577	0.5144	0.7176	-0.0436	-1.1116
6048.0000	0.1061	0.1602	0.0860	-1.5577	-0.2054	20.8189	0.4792	0.7864	0.1401	0.8437	-0.1969	0.2655	0.3689	0.5758	0.2355	1.7870
6056.0000	-0.0757	-0.0712	-0.0165	0.1603	-2.9183	-4.5130	-0.3068	-0.1031	-0.0783	-1.8796	-0.1053	0.4842	-0.3160	-0.1383	-0.0388	-1.0313
6064.0000	0.0569	0.0719	0.0645	-0.5919	-1.9964	12.6948	0.1688	0.4732	0.0439	-2.6631	-0.2533	0.3512	0.0488	0.3037	0.2384	1.2896
6072.0000	0.1370	0.1767	0.1068	-0.4448	-0.0910	32.2878	0.6528	1.3228	0.1548	-0.3896	-0.1540	0.6953	0.4531	0.7686	0.1287	0.2346
6080.0000	0.0695	0.1103	0.0490	-1.3456	1.6995	24.2051	0.5423	1.1277	0.0822	0.8231	-0.0341	0.8729	0.3587	0.6034	-0.0719	-1.4668
6088.0000	0.1311	0.1996	0.0847	0.0795	1.5790	22.2992	0.6376	0.9316	0.1536	1.9739	-0.1458	0.4144	0.4913	0.6762	0.1778	1.2752
6096.0000	0.0902	0.1364	0.0689	1.5568	0.2083	22.9350	0.4835	1.0333	0.1093	0.8874	-0.0603	0.7529	0.3378	0.5840	-0.0120	-0.8250
6104.0000	0.1304	0.2140	0.1012	-1.4395	0.7250	26.6888	0.6731	1.1208	0.1543	1.0559	-0.2719	0.6828	0.4722	0.7952	0.2602	1.5815
6112.0000	0.1631	0.2488	0.1245	0.0155	0.0614	30.1127	0.7295	1.2054	0.2025	1.5708	-0.2561	0.5502	0.5529	0.8627	0.2876	2.0031
6120.0000	0.0674	0.1270	0.0736	2.9103	-2.0901	14.0378	0.2436	0.6550	0.0667	-0.8520	-0.2596	0.7681	0.1047	0.4409	0.1778	0.5836
6128.0000	0.0344	0.1038	0.0558	0.6863	-2.3758	-0.6482	0.0217	-0.0096	0.0035	-2.2803	-0.4833	0.4228	-0.1014	0.2125	0.4618	3.2174
6136.0000	-0.0725	-0.0249	-0.0347	-0.9676	-0.0346	-13.0914	-0.2031	-0.3588	-0.1136	-1.1734	-0.2603	0.5435	-0.2811	-0.1122	0.1347	0.4973
6144.0000	-0.0899	-0.0088	-0.0466	0.0833	0.3114	-16.2436	-0.2127	-0.4055	-0.1146	0.7016	-0.2513	0.7205	-0.2744	-0.0968	0.0842	0.1492
6152.0000	-0.0558	0.0100	-0.0195	0.6125	-0.6882	-10.4173	-0.1613	-0.2677	-0.0626	0.5689	-0.2157	0.5072	-0.1947	-0.0366	0.1032	0.4899
6160.0000	-0.1108	-0.0728	-0.0822	-0.6994	1.9539	-19.1189	-0.2535	-0.5331	-0.1421	0.9861	-0.0437	0.4412	-0.2692	-0.2657	-0.0982	-1.0848
6168.0000	-0.0879	-0.0073	-0.0654	0.1214	1.9201	-19.8212	-0.1790	-0.5814	-0.0897	3.1851	-0.1008	0.3427	-0.1627	-0.1657	0.0001	0.1483
6176.0000	-0.1104	-0.0706	-0.0609	2.5858	-1.1534	-20.0889	-0.4262	-0.6337	-0.1157	0.9461	-0.0551	0.3623	-0.3681	-0.3314	-0.0824	-0.8644
6184.0000	-0.0615	-0.0283	-0.0292	1.5491	-0.7494	-16.3218	-0.2835	-0.4962	-0.1305	-2.5326	-0.2867	0.4899	-0.3644	-0.1971	0.1779	0.7401
6192.0000	0.0607	0.1580	0.0493	-0.2624	1.3889	10.1069	0.4161	0.6055	0.0327	0.0950	-0.3628	0.9486	0.1899	0.5314	0.2672	1.2951
6200.0000	-0.0748	0.0479	-0.0525	-0.9591	3.1812	-9.0892	0.0923	0.0136	-0.0729	3.9772	-0.1591	1.0664	-0.0151	0.1660	-0.0564	-0.9919
6208.0000	-0.2241	-0.1029	-0.1423	-0.4921	1.3546	-46.5031	-0.6828	-1.4942	-0.2632	2.5121	-0.3133	0.6446	-0.6495	-0.5907	0.0838	0.5719
6216.0000	-0.1219	0.0008	-0.0486	2.1304	-1.0937	-21.2076	-0.3401	-0.4690	-0.1640	0.0065	-0.4291	1.2819	-0.4557	-0.0921	0.1479	0.0566
6224.0000	-0.0850	0.0669	-0.0329	1.3738	0.9888	-11.3808	-0.0198	0.0497	-0.1386	0.5569	-0.4687	1.7732	-0.2576	0.2182	0.1334	-0.5307
6232.0000	-0.2209	-0.1076	-0.1411	-1.2412	2.0764	-39.9033	-0.5674	-1.1436	-0.2803	1.3900	-0.3086	1.0391	-0.6214	-0.4704	0.0090	-0.6371
6240.0000	-0.1616	-0.0667	-0.1079	0.9634	2.0988	-25.6860	-0.3344	-0.5864	-0.1967	2.2518	-0.1296	1.0919	-0.3910	-0.2552	-0.1560	-2.0389
6248.0000	-0.0465	0.1005	-0.0257	1.6367	2.6676	-4.2020	0.1988	0.3293	-0.0774	2.5603	-0.3007	1.6434	-0.0226	0.3529	0.0079	-1.2372
6256.0000	-0.1429	-0.0451	-0.0879	-1.4616	2.1013	-16.6600	-0.1865	-0.2600	-0.1561	2.4027	-0.1423	1.1541	-0.2707	-0.0813	-0.1423	-1.9869
6264.0000	-0.1533	-0.0911	-0.1092	-0.3038	2.3131	-22.1932	-0.3109	-0.5533	-0.1603	3.0080	0.0324	0.6892	-0.2975	-0.2956	-0.2522	-2.3624
6272.0000	-0.1042	-0.0244	-0.0625	2.5223	0.7360	-16.3592	-0.2230	-0.2920	-0.1372	1.1186	-0.1483	1.0321	-0.2980	-0.1111	-0.0926	-1.6240
6280.0000	-0.1404	-0.0781	-0.0691	0.7270	-0.6234	-15.9896	-0.3567	-0.2842	-0.1783	-0.7204	-0.1960	1.1820	-0.4476	-0.1790	-0.1006	-2.0748
6288.0000	-0.1561	-0.0764	-0.0957	-1.6998	1.7806	-18.6777	-0.2684	-0.3552	-0.1825	1.3425	-0.1409	1.1074	-0.3507	-0.1696	-0.1464	-2.1081
6296.0000	-0.1059	-0.0267	-0.0626	0.0065	1.5391	-5.9357	-0.0569	0.1424	-0.0955	2.8186	-0.0068	1.1758	-0.1304	0.0550	-0.2718	-3.0953
6304.0000	-0.0160	0.0120	-0.0014	1.3726	0.1670	10.4314	0.1426	0.6346	0.0030	1.2152	0.0855	0.8800	0.0661	0.2386	-0.2654	-3.0184
6312.0000	-0.0780	-0.0943	-0.0637	-0.2186	1.6763	-4.6604	-0.1134	0.0070	-0.0939	0.3601	0.1863	0.4486	-0.1292	-0.1564	-0.3316	-3.2174
6320.0000	-0.1295	-0.1609	-0.0934	1.6999	0.4432	-12.0131	-0.3696	-0.2754	-0.1295	0.9335	0.3123	0.3741	-0.2927	-0.3925	-0.4936	-4.4166
6328.0000	-0.0880	-0.1175	-0.0540	2.9385	-0.9378	-7.0701	-0.3113	-0.1070	-0.1090	-1.0559	0.1635	0.4964	-0.2960	-0.2706	-0.3332	-3.4553
6336.0000	-0.1677	-0.2004	-0.1199	-1.3946	1.4952	-16.9792	-0.4264	-0.4231	-0.2016	-0.5446	0.2102	0.5255	-0.4106	-0.4669	-0.4335	-4.2334
6344.0000	-0.0950	-0.1192	-0.0675	-0.8456	1.1152	4.6010	-0.0700	0.3681	-0.0373	3.0522	0.4377	0.4831	-0.0020	-0.0811	-0.6251	-5.4116
6352.0000	0.0416	-0.0017	0.0282	1.3352	0.0019	27.7613	0.3387	1.1962	0.0901	0.9417	0.3789	0.5601	0.2995	0.3592	-0.4907	-4.7155
6360.0000	0.0103	-0.0609	-0.0121	-0.5098	1.9933	22.9423	0.2995	1.0245	0.0413	0.9395	0.4984	0.4087	0.2714	0.2067	-0.6064	-5.5401
6368.0000	-0.0126	-0.0856	-0.0163	2.7845	-0.3407	19.1072	0.0851	0.8071	0.0757	3.1561	0.6596	0.1303	0.2136	0.0468	-0.7527	-6.1893
6376.0000	-0.0796	-0.1832	-0.0336	5.4529	-4.2648	-0.9449	-0.4911	-0.0071	-0.0846	-3.1504	0.3430	0.1948	-0.3890	-0.4135	-0.4833	-4.7244
6384.0000	-0.0136	-0.1238	0.0003	1.8119	-2.1718	9.8365	-0.1478	0.4156	-0.0713	-5.8216	0.1644	0.3479	-0.2183	-0.1290	-0.2679	-3.4451
6392.0000	0.1243	0.0547	0.0798	1.3093	0.0426	42.4355	0.6143	1.7022	0.1618	-0.6284	0.3753	0.5027	0.5053	0.6091	-0.4228	-4.3468
6400.0000	0.0400	-0.0265	0.0344	3.4354	-1.6348	26.5157	0.2060	1.1127	0.0789	-0.4316	0.3918	0.5020	0.1905	0.2569	-0.5022	-4.9344
6408.0000	-0.0105	-0.1231	-0.0048	2.6669	-2.0694	10.1810	-0.1455	0.3694	-0.0192	-3.0857	0.3500	0.0064	-0.1068	-0.1661	-0.4022	-3.8827
6416.0000	-0.0521	-0.1833	-0.0517	0.8286	-0.4775	-1.8804	-0.2987	-0.1667	-0.0621	-2.0715	0.4501	-0.5072	-0.1729	-0.4430	-0.4370	-3.4886
6424.0000	-0.0488	-0.1669	-0.0475	0.6746	-0.5558	-0.6200	-0.2676	-0.1335	-0.0331	-0.7577	0.4763	-0.5661	-0.1111	-0.3999	-0.4517	-3.3799
6432.0000	0.0962	-0.0450	0.0375	-0.2292	0.6162	28.5795	0.3391	0.9182	0.1355	-0.6228	0.5773	-0.6525	0.4077	0.1458	-0.4461	-3.3388
6440.0000	-0.0254	-0.1372	-0.0634	-2.3990	3.2351	2.3345	0.0034	-0.0239	0.0099	2.1482	0.6212	-0.8519	0.1699	-0.2889	-0.5246	-3.3471
6448.0000	-0.1293	-0.1814	-0.1111	-0.3840	1.4044	-18.9164	-0.4337	-0.7508	-0.0879	3.3636	0.4644	-0.5828	-0.1977	-0.5911	-0.4769	-2.9628
6456.0000	0.0915	0.0142	0.0393	2.5136	0.2925	18.0198	0.2640	0.5830	0.1139	0.1599	0.3578	-0.4445	0.3125	0.1379	-0.2465	-1.7117
6464.0000	0.1727	0.1141	0.0785	0.9699	2.0713	22.6319	0.5623	0.6838	0.1757	0.0494	0.2026	-0.7177	0.5427	0.3607	0.0348	0.9173
6472.0000	0.1565	0.1538	0.0872	-1.0212	1.0841	17.5381	0.5022	0.4392	0.1896	1.3363	-0.0063	-0.7676	0.5071	0.3961	0.2583	3.0795
6480.0000	0.2024	0.1996	0.1105	-1.6812	1.6247	19.3921	0.6239	0.4244	0.2283	1.1017	-0.0727	-1.0649	0.6177	0.4710	0.4185	4.7001
6488.0000	0.1895	0.1791	0.0853	-1.3481	2.4935	8.6405	0.5032	-0.0711	0.2148	2.2028	-0.0121	-1.5773	0.5839	0.2546	0.4438	5.6079
6496.0000	0.2657	0.2384	0.1571	0.1459	-0.3549	23.9931	0.6399	0.3947	0.3187	1.0127	-0.0411	-1.6886	0.7208	0.4837	0.5338	6.2828
6504.0000	0.2849	0.2802	0.1757	0.8937	-0.6760	20.5164	0.6447	0.2966	0.2838	-1.3871	-0.3098	-1.4518	0.6227	0.5338	0.7938	7.9463
6512.0000	0.1800	0.2212	0.1028	-0.0967	0.7305	-1.7090	0.3482	-0.4017	0.1353	-1.2477	-0.4787	-1.1065	0.3008	0.2454	0.8513	8.1843
6520.0000	0.2565	0.2914	0.1647	-1.2306	-0.1831	17.7791	0.6495	0.2588	0.2584	-0.7832	-0.4383	-1.1778	0.5880	0.5884	0.8665	8.3896
6528.0000	0.2574	0.2839	0.1707	-0.4111	-1.3525	15.2858	0.5489	0.0852	0.2683	-0.9379	-0.4393	-1.4192	0.5396	0.5022	0.9084	8.9802
6536.0000	0.1010	0.1130	0.0693	0.2435	-2.2720	-17.1778	-0.1492	-1.1366	0.0680	-2.2577	-0.4713	-1.5585	-0.0506	-0.1994	0.8615	8.6629
6544.0000	0.1596	0.1408	0.1092	-0.6961	-2.6434	-6.1870	0.0202	-0.8079	0.1219	-3.8700	-0.4771	-1.7350	0.0826	-0.0490	0.9357	9.2186
6552.0000	0.2579	0.2343	0.1725	-1.1142	-1.9942	18.1986	0.4934	0.1442	0.2465	-3.4102	-0.3971	-1.5189	0.4701	0.4251	0.8755	8.4612
6560.0000	0.1811	0.1728	0.1299	-1.2464	-2.2907	10.2744	0.2840	-0.0566	0.1771	-2.7069	-0.3713	-1.2055	0.2848	0.2692	0.7376	7.1014
6568.0000	0.0576	0.0555	0.0499	-1.8489	-2.2115	-11.8299	-0.1586	-0.8192	0.0232	-3.1905	-0.4145	-1.0699	-0.1163	-0.1643	0.6780	6.4751
6576.0000	0.0678	0.0588	0.0226	-2.8761	1.6001	-7.4624	0.0892	-0.5531	0.0381	-0.7923	-0.1805	-1.0361	0.1155	-0.0707	0.4400	4.7003
6584.0000	0.1479	0.1443	0.0546	-2.8384	3.8498	11.8413	0.5567	0.1964	0.1877	3.4878	0.1124	-1.1433	0.6104	0.3083	0.2053	3.3030
6592.0000	0.0915	0.0821	0.0405	-1.0761	0.9881	5.4079	0.2379	-0.0623	0.1474	2.9457	0.1172	-1.0726	0.3641	0.1000	0.1379	2.6222
6600.0000	0.1251	0.0854	0.0719	-0.0885	-0.5344	10.6892	0.2410	0.0897	0.1522	0.0154	0.0431	-1.0605	0.3195	0.1361	0.2302	2.9861
6608.0000	0.1898	0.1366	0.1120	1.3895	-0.8371	18.4177	0.3998	0.3433	0.2009	-1.2142	0.0099	-1.1279	0.4348	0.2826	0.3201	3.6202
6616.0000	0.0708	0.0074	0.0361	2.6393	-1.7111	-5.4880	-0.1309	-0.5291	0.0469	-2.2872	-0.0049	-1.1325	-0.0217	-0.2375	0.2547	3.0098
6624.0000	0.0304	-0.0424	0.0052	-0.4474	-0.6634	-9.2612	-0.1909	-0.6706	0.0033	-2.3380	0.0184	-1.1803	-0.0782	-0.3376	0.2142	2.7252
6632.0000	-0.0221	-0.0943	-0.0234	-2.9881	-0.6775	-11.4093	-0.2941	-0.7572	-0.0139	-1.0048	0.1024	-1.2121	-0.1234	-0.4264	0.0932	1.9264
6640.0000	-0.0197	-0.1184	-0.0253	-1.8965	-1.0617	-8.1429	-0.3099	-0.6686	0.0153	-0.1155	0.2890	-1.3935	-0.0715	-0.4687	-0.0762	0.7723
6648.0000	0.1385	0.0221	0.0665	-2.4972	0.5884	24.3078	0.3881	0.5691	0.1822	-0.4382	0.3610	-1.2472	0.4821	0.1731	-0.0716	0.4939
6656.0000	0.0534	-0.0410	0.0144	-3.3164	0.7303	10.8670	0.1313	0.1280	0.0964	0.3480	0.3346	-1.0897	0.2608	-0.0559	-0.1271	0.0217
6664.0000	0.0077	-0.0902	-0.0089	-1.1378	-0.8144	1.6976	-0.1396	-0.2510	0.0701	1.1676	0.4091	-1.2461	0.0947	-0.2933	-0.2146	-0.4203
6672.0000	0.1014	-0.0053	0.0612	-0.5317	-1.4212	19.2339	0.1805	0.4360	0.1288	-1.8877	0.2559	-0.9047	0.2584	0.0757	-0.0536	0.1341
6680.0000	-0.0372	-0.1253	-0.0431	-2.3785	0.2138	-13.5436	-0.3184	-0.7617	-0.0628	-2.0530	0.1369	-1.0252	-0.1897	-0.4904	0.0139	0.9210
6688.0000	-0.0378	-0.1226	-0.0643	-2.8285	2.1299	-14.0463	-0.2323	-0.8045	-0.0173	1.6261	0.3633	-1.3731	-0.0076	-0.5082	-0.1585	0.2891
6696.0000	0.1051	0.0477	0.0382	-2.4399	2.2781	17.7998	0.4156	0.4672	0.1558	2.1189	0.3171	-0.8934	0.4906	0.2113	-0.1016	0.2427
6704.0000	0.0639	0.0511	0.0092	-3.0485	3.2928	8.2202	0.3452	0.1878	0.1080	3.3390	0.2154	-0.6908	0.4076	0.1552	-0.0497	0.6775
6712.0000	0.0797	0.0793	0.0201	-4.0469	4.0271	18.2361	0.5439	0.6347	0.1526	4.7549	0.2914	-0.4426	0.5783	0.3677	-0.1649	-0.3958
6720.0000	0.1504	0.1590	0.0867	-3.2271	2.4950	37.5900	0.8230	1.4084	0.2377	3.7521	0.2201	-0.0123	0.7620	0.7609	-0.1273	-0.7039
6728.0000	0.1288	0.1355	0.0767	-1.0198	1.4756	30.6588	0.6488	1.1597	0.1965	2.8501	0.1804	0.0413	0.6007	0.6167	-0.1120	-0.7265
6736.0000	0.0901	0.1144	0.0578	-1.6132	1.3586	21.5093	0.5014	0.8697	0.1159	1.1361	-0.0103	0.2936	0.3950	0.5102	0.0221	-0.0323
6744.0000	0.0530	0.1001	0.0325	-3.5814	2.1261	14.2218	0.4277	0.6027	0.0827	2.0415	-0.0670	0.2680	0.3355	0.4303	0.0678	0.5343
6752.0000	0.0842	0.1136	0.0410	-2.7633	2.9103	22.6713	0.5881	0.9208	0.1436	3.6910	0.1422	0.1529	0.5309	0.5325	-0.1143	-0.7174
6760.0000	0.1191	0.1613	0.0722	-1.2328	2.1255	26.6922	0.6677	1.1051	0.1561	2.2842	0.0049	0.3974	0.5380	0.6695	0.0098	-0.1105
6768.0000	0.0369	0.0816	0.0188	-0.5000	1.6278	8.9969	0.3029	0.4378	0.0633	2.4575	0.0026	0.2942	0.2512	0.3078	-0.0242	-0.2088
6776.0000	-0.0432	-0.0266	-0.0296	0.4865	0.3314	-6.9678	-0.1151	-0.1932	-0.0431	0.8802	0.0150	0.1601	-0.0981	-0.1048	-0.0721	-0.6335
6784.0000	-0.0668	-0.0526	-0.0259	0.2403	-1.4616	-12.2081	-0.2999	-0.3962	-0.1103	-2.4436	-0.2113	0.3606	-0.3433	-0.2014	0.1120	0.3164
6792.0000	-0.0383	-0.0378	-0.0061	-1.3571	-0.9897	2.4336	-0.0700	0.1880	-0.0539	-1.9266	-0.0894	0.5254	-0.1454	0.0280	-0.0318	-1.0520
6800.0000	-0.0351	-0.0454	-0.0023	-1.9790	-1.2881	5.2471	-0.0600	0.2467	-0.0281	-1.3796	-0.0188	0.3699	-0.0973	0.0329	-0.0792	-1.2317
6808.0000	-0.1315	-0.1569	-0.0742	-1.9599	-1.0210	-14.6245	-0.4566	-0.5153	-0.1381	-1.0832	0.0592	0.1303	-0.3942	-0.4171	-0.1822	-1.7594
6816.0000	-0.0913	-0.1207	-0.0732	-2.0081	1.7728	-5.4973	-0.1531	-0.0879	-0.0915	0.7151	0.2374	0.2127	-0.1262	-0.2223	-0.3528	-3.1037
6824.0000	-0.0360	-0.0351	-0.0315	-1.3804	1.7125	5.5985	0.0994	0.3612	-0.0100	1.9602	0.2040	0.3971	0.0877	0.0773	-0.3127	-2.8204
6832.0000	-0.1029	-0.1149	-0.0626	-0.4822	-0.0714	-2.6512	-0.2117	0.0407	-0.0640	1.8292	0.2655	0.3921	-0.1433	-0.1772	-0.4307	-3.7983
6840.0000	0.0247	-0.0191	0.0200	0.5832	-0.7200	14.5099	0.1202	0.5701	0.0411	-0.7442	0.1877	0.1597	0.1064	0.1306	-0.2228	-2.2070
6848.0000	0.0936	0.0454	0.0732	1.6935	-1.6713	25.8129	0.3102	0.9748	0.0996	-2.3032	0.0997	0.2566	0.2271	0.3620	-0.1038	-1.5411
6856.0000	-0.0467	-0.0438	-0.0082	3.3090	-2.1053	1.9013	-0.1535	0.2719	-0.0659	-1.7767	-0.0134	0.8635	-0.2219	-0.0018	-0.1857	-2.6896
6864.0000	-0.0829	-0.0383	-0.0283	4.3648	-2.0658	-13.3710	-0.3358	-0.2229	-0.1631	-3.4071	-0.3025	1.1642	-0.4763	-0.1373	0.0506	-1.1483
6872.0000	-0.0493	-0.0539	-0.0123	2.1946	-1.5461	-0.4250	-0.1599	0.2058	-0.1139	-3.9371	-0.1340	0.9783	-0.3037	-0.0249	-0.0768	-2.1611
6880.0000	-0.0038	-0.0140	0.0168	-0.0579	-1.1478	12.2771	0.0778	0.6034	-0.0152	-2.1291	-0.0187	0.7177	-0.0325	0.1875	-0.1225	-2.0842
6888.0000	-0.0569	-0.0385	-0.0158	-1.1380	-0.7880	2.9206	-0.0611	0.2863	-0.0605	-0.9353	-0.0640	0.7854	-0.1436	0.0679	-0.1184	-1.9190
6896.0000	-0.0356	-0.0045	-0.0106	-1.5665	0.6168	11.0606	0.1543	0.6577	-0.0110	1.1517	0.0531	0.9203	0.0614	0.2550	-0.2500	-2.9293
6904.0000	0.1070	0.1518	0.0763	0.2976	0.9098	28.8812	0.6159	1.2524	0.1454	1.7789	0.0032	0.7154	0.4695	0.6928	-0.0605	-1.1004
6912.0000	-0.0323	-0.0163	-0.0222	0.3367	0.8643	2.7545	0.0458	0.2750	-0.0239	1.1660	0.0920	0.5349	0.0094	0.0730	-0.2166	-2.2382
6920.0000	-0.1151	-0.0706	-0.0557	-0.1476	-0.8559	-12.4219	-0.3115	-0.2917	-0.1108	0.7079	-0.0756	0.6536	-0.3106	-0.1795	-0.1178	-1.5068
6928.0000	-0.0481	0.0026	0.0115	1.0700	-3.0387	0.2480	-0.1530	0.1821	-0.0605	-1.9640	-0.2783	0.9684	-0.2583	0.1004	0.0788	-0.5447
6936.0000	0.0128	0.0052	0.0237	2.2543	-1.2913	11.9761	0.0895	0.6056	-0.0021	-1.8376	0.0052	0.7183	-0.0129	0.1940	-0.1371	-2.1767
6944.0000	0.1236	0.1281	0.1051	4.0182	-2.5757	25.1657	0.3681	1.0060	0.1150	-2.5247	-0.1342	0.5726	0.2197	0.5173	0.1106	-0.0615
6952.0000	-0.1192	-0.1151	-0.0373	0.2370	-3.2103	-10.8373	-0.4582	-0.2228	-0.1854	-5.0266	-0.2747	0.9974	-0.5729	-0.2368	0.0185	-1.4580
6960.0000	-0.2081	-0.2150	-0.1351	-1.2096	0.1893	-29.5247	-0.6739	-0.9658	-0.2312	0.0386	0.0942	0.3108	-0.5846	-0.6622	-0.2980	-2.7317
6968.0000	-0.0059	-0.0514	-0.0048	3.9825	-1.3646	4.6759	-0.0917	0.1964	0.0171	0.3806	0.2880	0.0091	-0.0140	-0.0914	-0.3247	-2.7463
6976.0000	-0.0966	-0.1655	-0.0593	0.5162	-0.6643	-2.7681	-0.2994	0.0579	-0.1443	-3.4530	0.1753	0.5834	-0.3416	-0.2824	-0.3702	-4.1904
6984.0000	-0.0589	-0.0881	-0.0312	-0.8652	-0.6001	1.7450	-0.1355	0.1254	-0.0396	-0.0510	0.1746	0.2238	-0.1041	-0.1073	-0.2750	-2.5695
6992.0000	-0.0926	-0.1766	-0.0213	2.4384	-5.2442	5.6365	-0.4487	0.2255	-0.0511	-2.2460	0.3071	0.3180	-0.3385	-0.2798	-0.4803	-4.7034
7000.0000	-0.1591	-0.2324	-0.0841	-1.0680	-2.1749	-11.9750	-0.5825	-0.3405	-0.2065	-4.4588	0.0980	0.5101	-0.5811	-0.5069	-0.3213	-3.7855
7008.0000	0.0143	-0.0158	0.0105	-0.2511	0.2313	15.4392	0.1829	0.6842	0.0260	-0.4007	0.1777	0.4068	0.1276	0.1929	-0.2606	-2.7359
7016.0000	-0.1457	-0.2083	-0.0897	0.5661	-0.9776	-5.3115	-0.4209	-0.0438	-0.1258	0.0083	0.3983	0.4424	-0.3286	-0.3946	-0.6189	-5.6860
7024.0000	-0.1692	-0.1985	-0.1172	-0.5664	0.0230	-27.1084	-0.6262	-0.9989	-0.1752	0.5737	0.1837	-0.1728	-0.4728	-0.6734	-0.2804	-2.0365
7032.0000	-0.0432	-0.1195	-0.0313	1.8854	-1.0521	3.2812	-0.1843	0.1337	-0.0238	-0.3474	0.3715	-0.0452	-0.0923	-0.2170	-0.4312	-3.6859
7040.0000	-0.1402	-0.2136	-0.1026	0.7618	-0.1323	-17.4543	-0.5307	-0.6084	-0.1602	-0.9325	0.3143	-0.0592	-0.4130	-0.6037	-0.4270	-3.6417
7048.0000	-0.0969	-0.1312	-0.0762	1.0329	-0.1195	-22.8725	-0.4812	-0.9341	-0.1111	0.1521	0.1362	-0.4919	-0.3332	-0.5650	-0.1214	-0.4424
7056.0000	-0.1917	-0.2898	-0.1364	-0.7689	-0.4067	-25.2727	-0.7470	-0.9665	-0.2085	-1.2030	0.3765	-0.3201	-0.5615	-0.8473	-0.4828	-3.8567
7064.0000	-0.1864	-0.2403	-0.1565	-1.5488	1.6798	-42.3233	-0.7886	-1.7504	-0.1927	1.9684	0.2920	-1.0935	-0.4997	-1.0110	-0.2312	-0.4621
7072.0000	0.0330	-0.0578	-0.0088	3.7315	0.0391	-0.1435	-0.0828	-0.2018	0.0593	1.1991	0.4459	-0.9916	0.1097	-0.2729	-0.2792	-1.2408
7080.0000	0.0683	-0.0182	0.0266	-0.4979	0.7629	15.7109	0.2237	0.4998	0.0590	-1.8156	0.2451	-0.3571	0.2115	0.0922	-0.1559	-1.2784
7088.0000	0.0450	0.0458	0.0192	-2.7310	0.8706	1.6532	0.1348	-0.1392	0.0885	2.1483	0.0360	-0.7786	0.2246	0.0452	0.1395	2.2555
7096.0000	-0.0995	-0.1763	-0.0797	-0.6396	-0.0111	-11.1333	-0.3926	-0.5176	-0.0609	1.4902	0.4314	-0.6122	-0.1815	-0.5112	-0.4236	-2.7498
7104.0000	-0.0837	-0.1063	-0.0886	-4.2145	3.0929	-22.8003	-0.2749	-0.9930	-0.0866	1.9268	0.1364	-0.8662	-0.1308	-0.4876	-0.0305	0.9436
7112.0000	-0.0198	-0.0618	-0.0394	-1.5549	1.6371	-3.0915	-0.0471	-0.2684	0.0456	3.8303	0.3921	-0.8646	0.1507	-0.2191	-0.2722	-0.9290
7120.0000	-0.0993	-0.2025	-0.1063	-1.2789	2.5274	-10.9564	-0.2976	-0.4712	-0.0761	2.0356	0.6009	-0.7073	-0.0929	-0.5507	-0.5804	-3.9333
7128.0000	-0.0291	-0.0376	-0.0638	-2.9031	3.8674	-17.4093	-0.0764	-0.8240	-0.0040	4.1095	0.2104	-1.0878	0.0985	-0.3339	-0.0284	1.4481
7136.0000	-0.0897	-0.1713	-0.0737	-0.2688	0.1237	-3.0555	-0.2825	-0.1687	-0.0224	2.6935	0.5712	-0.4766	-0.0620	-0.3955	-0.5937	-4.2027
7144.0000	0.0085	-0.0148	-0.0084	-1.8794	1.1301	-0.3493	0.0371	-0.1102	0.0200	0.7071	0.1020	-0.4533	0.0884	-0.0609	-0.0173	0.4016
7152.0000	0.0741	0.1087	0.0508	0.6108	0.1316	9.8958	0.2823	0.3630	0.0925	1.0879	-0.0900	0.0353	0.2401	0.3102	0.1428	1.2888
7160.0000	-0.0966	-0.1223	-0.0542	2.3316	-1.2333	-7.3647	-0.3355	-0.1146	-0.1186	-1.3962	0.1217	0.5603	-0.3307	-0.2701	-0.3068	-3.3346
7168.0000	0.0608	0.1354	0.0440	0.8437	0.2323	-6.5266	0.1254	-0.2543	0.0064	-1.2625	-0.4683	0.0898	0.0044	0.1762	0.5371	4.3302
7176.0000	-0.0039	0.0279	0.0081	2.1806	0.0800	9.0663	0.1482	0.6270	-0.0310	-0.9124	-0.0656	1.1041	-0.0118	0.2637	-0.1355	-2.4228
7184.0000	0.0246	0.0851	0.0193	-0.2680	1.2861	6.3265	0.2595	0.4169	0.0113	0.5433	-0.1730	0.6793	0.1209	0.3229	0.0854	0.0911
7192.0000	0.1376	0.1988	0.1165	-0.2011	-1.7552	19.3684	0.4401	0.6390	0.1645	-0.1532	-0.3383	0.0642	0.3376	0.5798	0.4418	3.6203
7200.0000	-0.1718	-0.2233	-0.1007	0.4856	-1.6631	-17.9513	-0.6292	-0.5574	-0.1966	-2.0422	0.1711	0.3789	-0.5586	-0.5777	-0.3802	-3.8168
7208.0000	-0.0100	0.0356	-0.0129	0.3276	-0.0379	-24.0802	-0.2526	-1.0944	-0.0279	0.8349	-0.2714	-0.7615	-0.1588	-0.2944	0.4335	4.6506
7216.0000	0.0385	-0.0053	0.0552	1.5021	-3.6966	14.4805	-0.0050	0.4845	0.0425	-3.2728	-0.0165	0.1502	-0.0344	0.1224	-0.0027	-0.6482
7224.0000	-0.0246	-0.0331	-0.0169	-2.1536	0.8170	-2.9972	-0.0330	-0.0495	-0.0779	-2.6012	-0.1319	0.2755	-0.1329	-0.0412	0.0771	0.0420
7232.0000	0.1259	0.2106	0.0628	-1.5741	3.1337	9.1321	0.5679	0.2873	0.1600	4.1216	-0.1684	-0.3164	0.5218	0.4931	0.3430	3.7455
7240.0000	-0.1472	-0.1763	-0.1120	-1.1414	2.7391	1.9172	-0.1062	0.4380	-0.1139	2.9480	0.5287	0.9507	-0.0894	-0.1464	-0.8395	-7.7196
7248.0000	0.0452	0.1620	0.0177	-1.2085	2.9888	-4.3528	0.3162	-0.0898	0.0524	3.7555	-0.2900	0.1303	0.2448	0.3083	0.3392	3.2664
7256.0000	0.0580	0.0552	0.0777	1.9776	-3.8947	21.2895	0.1478	0.8181	0.0890	-1.7752	-0.0623	0.4898	0.0858	0.3515	-0.0022	-0.8046
7264.0000	-0.1314	-0.1801	-0.0707	-2.2567	-1.0807	-10.2964	-0.4302	-0.2732	-0.1837	-4.0150	0.0004	0.5152	-0.4730	-0.3723	-0.1925	-2.6427
7272.0000	0.2690	0.3898	0.1933	0.0704	-0.3936	27.4627	0.8837	0.8644	0.2921	0.9562	-0.5977	-0.1859	0.7016	0.9940	0.8664	7.5952
7280.0000	0.0028	-0.0454	0.0537	1.4227	-4.0420	35.8373	0.1814	1.6547	0.0060	-4.6771	0.1049	1.6406	-0.0289	0.4660	-0.4395	-6.1203
7288.0000	-0.0280	0.1109	0.0016	-3.5455	0.6667	-22.4150	-0.0846	-0.7830	-0.1036	-1.5291	-0.7941	0.4254	-0.2589	0.0521	0.7725	6.0369
7296.0000	0.0866	0.2007	0.1100	0.9639	-3.4192	14.7326	0.2918	0.6233	0.1023	-0.8036	-0.5502	0.8077	0.1210	0.6065	0.4949	3.2669
7304.0000	-0.1291	-0.1247	-0.0471	-2.2905	-0.9347	8.6127	-0.1176	0.7796	-0.1772	-4.0272	-0.0773	1.9247	-0.3610	0.1173	-0.3675	-5.6109
7312.0000	0.3265	0.6228	0.2557	-0.4788	-0.4225	18.4552	1.0932	0.5772	0.3273	2.1185	-1.3573	0.2480	0.7535	1.3921	1.6569	14.0861
7320.0000	-0.0371	-0.0240	0.0875	4.5562	-9.0595	36.7216	-0.0393	1.8614	-0.0491	-7.6167	-0.2756	2.7684	-0.3662	0.5937	-0.2814	-6.2773
7328.0000	-0.0511	0.1521	-0.0089	-6.7066	2.8554	-27.1862	0.0336	-0.7122	-0.2270	-4.8918	-1.2584	1.4409	-0.4157	0.2370	1.0820	7.2161
7336.0000	0.5570	1.0659	0.3983	-1.3780	2.2093	9.7585	1.7520	0.0248	0.5101	4.1840	-2.3998	-0.4210	1.2328	2.0565	3.0890	27.2429
7344.0000	-0.1838	-0.1650	-0.0304	3.2990	-5.8518	15.2414	-0.3517	1.3249	-0.2631	-7.9797	-0.2280	3.4071	-0.7344	0.2077	-0.5363	-9.0750
7352.0000	0.0573	0.2663	0.0493	-4.0038	3.9587	1.9839	0.5985	0.4479	-0.0156	0.4258	-0.8483	1.5188	0.1936	0.7695	0.7005	4.4862
