Time	Fz	Fpz	C3	C4	T5	T4	O1	O2	F7	F8	F3	F4	T3	T6	P3	P4
0.0000	-34.5266	-2.5132	-7.0628	-29.1148	17.9142	-21.4425	2.8997	22.6540	2.7379	-102.8475	-29.3204	-15.6611	9.6988	-10.3596	-39.4839	-54.3653
8.0001	0.2684	18.5349	35.3135	40.2577	4.9151	8.5343	-7.8903	14.5563	17.3903	4.1323	22.5370	33.1053	4.0130	13.2390	-2.7404	-14.5445
16.0002	7.3761	13.2941	20.2120	62.5233	9.1737	-6.2743	8.0390	14.1303	3.9988	-11.8728	17.9810	27.6694	-3.8525	9.2984	10.4071	1.6158
24.0003	3.9132	14.2133	6.8299	29.8444	14.2633	16.8925	3.0820	14.3343	5.7787	0.1862	17.6536	19.6090	-1.2370	21.6067	6.2076	5.8054
32.0004	-2.8663	6.4399	6.2100	11.3424	3.6651	6.6866	-12.9037	-2.9480	3.2777	-9.8630	-1.5604	7.6838	-1.7337	6.8012	-2.4357	-5.9180
40.0005	1.4399	2.8529	4.8458	44.0592	-8.5691	-9.8656	-16.5631	-12.8315	-12.0624	-44.2716	-17.0913	5.7555	-10.4967	-11.6176	4.9876	0.9278
48.0006	3.8449	10.2121	12.2254	42.3509	1.2972	5.3768	-3.9945	-3.9389	-0.5647	-32.1489	0.3728	14.0298	-6.3992	8.3432	7.2915	4.2189
56.0008	6.6259	6.6178	10.3600	36.7969	-1.5106	1.0532	-6.3104	-22.1617	-0.6069	-33.2159	0.8214	6.4028	-8.1524	8.4376	10.2764	4.1230
64.0009	2.1080	8.1942	0.9562	34.6320	-10.8446	21.1249	-32.7127	-38.2402	-13.0546	-45.2999	-21.1171	3.2728	-14.5858	-4.6232	4.3890	3.1167
72.0010	-5.9588	19.0668	12.6734	22.5521	0.0019	47.4912	-19.3826	-10.3689	6.5308	-19.5852	-8.8031	18.9604	-3.4208	17.3388	-8.0406	-13.2228
80.0011	7.3383	21.8900	27.8274	64.0368	4.5967	19.8030	8.4651	5.9607	10.7744	-33.7691	19.4359	30.2455	-1.8804	25.4336	10.5812	-4.5064
88.0012	13.6354	32.1263	43.3594	88.8818	15.8611	34.9288	0.4451	0.4612	9.3034	-31.7515	22.3214	49.4818	-9.7411	25.6552	24.0458	13.1212
96.0013	8.6831	40.5146	46.3390	52.4172	28.1225	72.1669	5.3477	12.4412	31.6716	22.8628	39.2559	56.9740	0.9722	57.7055	14.8429	4.3403
104.0014	13.9425	22.8907	12.2912	22.9724	11.1930	46.2114	11.9688	5.6712	15.8547	3.9685	42.2999	20.6062	3.8446	47.5593	17.6451	10.5743
112.0015	12.0133	6.1782	-2.1874	14.7617	-0.0681	24.4063	-0.0745	-20.9206	-12.4496	-20.6439	3.7523	1.6592	-8.6312	-3.3850	18.3679	21.6050
120.0016	10.6408	8.6382	7.5462	28.3589	2.1791	21.4076	-2.2429	-12.6147	-3.9936	18.6771	7.2177	16.0684	-7.8596	-0.3138	13.6201	14.8891
128.0017	13.3829	7.3228	-9.7318	17.9250	1.6269	20.5386	-7.9204	-16.0225	-0.8642	30.1273	23.2799	4.9931	-5.3889	20.1579	11.9278	15.4764
136.0018	9.4284	-5.4967	-31.9421	-20.8472	-12.4410	28.0942	-21.3898	-50.3113	-11.7757	37.2141	-1.3562	-20.8011	-9.4455	3.8454	3.5676	13.4081
144.0019	7.9200	-12.7531	-37.4588	-29.8837	-34.2449	21.4291	-28.8062	-37.4260	-15.9166	60.8991	-13.4434	-25.8510	-5.3699	-6.4280	-0.2174	11.1759
152.0021	4.7649	-9.7045	-26.0774	-22.6691	-18.1017	14.0264	-13.7629	-4.6110	-8.8002	65.9858	-14.4170	-11.7764	-2.8123	1.5721	4.1639	18.4493
160.0022	4.7037	-10.6469	-15.8770	-7.4972	-1.2049	1.8332	8.9283	-5.1908	1.7222	87.9399	-12.3464	-1.8746	-5.5148	8.4846	4.7898	16.9766
168.0023	6.8794	-13.1200	-23.0009	-10.9682	-11.5893	-0.6237	2.4654	-4.6316	2.2392	115.9457	-3.4814	-5.1234	-2.8497	9.4122	0.0148	14.3196
176.0024	2.3912	-8.1281	-21.6065	-16.8523	-2.8621	13.9290	-1.3214	0.8386	0.1162	112.2622	-5.6104	1.0400	-2.7722	2.8664	-4.3063	11.7350
184.0025	3.9119	-16.5386	-25.8197	-21.4683	-10.3605	-5.4594	6.0434	-7.7674	-4.3319	93.1315	-9.3233	-12.1825	-2.7770	-6.3321	-2.7641	10.5619
192.0026	3.1231	-35.9842	-37.2282	-97.6207	-30.0572	-18.9201	0.5997	-20.8709	-7.4679	86.8382	-21.4160	-49.9100	5.6930	-17.7333	0.4418	19.4147
200.0027	-0.3536	-29.9821	-22.4243	-93.3060	-16.8026	-8.4699	-1.4557	-25.1384	-0.7953	103.4319	-22.1783	-34.9248	3.8191	-20.7680	-2.8315	13.1928
208.0028	4.1138	-13.5949	-11.5361	-2.5368	-12.0977	-10.4752	-6.9013	-29.8641	2.0611	111.9935	-2.4745	-2.2905	-6.1989	-12.4973	-11.3704	-2.2830
216.0029	1.2272	-15.0468	-14.8929	-26.4905	-14.4064	-2.6931	-8.7344	-34.6373	3.4047	102.0028	-4.3456	-11.7307	-2.9329	-10.7386	-15.1397	-4.8149
224.0030	-1.3755	-11.1280	-6.3565	-26.2223	-5.6740	-1.9871	4.0476	-5.8813	6.0037	92.2361	-2.7884	-2.4614	1.8807	-9.7603	-11.9369	-3.0038
232.0031	1.2489	-1.8484	2.5601	6.0015	-4.1555	-3.0226	6.6499	18.0833	6.9119	78.8819	10.3955	13.0694	3.1237	-3.2470	-9.5436	0.7984
240.0032	-2.7605	-6.8775	-3.1185	-39.9746	-4.0782	5.5362	1.0448	-4.6503	10.8370	63.4093	5.7715	-7.0564	6.3435	1.5543	-12.9061	-3.4942
248.0033	-2.8844	-11.2712	-19.0777	-30.2179	-14.6601	-3.2843	-3.4441	-15.0658	1.2574	37.3599	-1.6344	-19.6047	2.8045	-1.6218	-16.7584	-7.2614
256.0035	-1.7108	-14.5379	-23.8424	-30.6330	-26.6884	-2.6694	0.6004	-3.6955	-14.4147	3.0441	-17.6786	-25.8991	1.3792	-20.3638	-10.5781	7.3808
264.0036	-3.5856	-16.4982	-10.6077	-44.6189	-15.7761	-10.6265	9.4367	-2.4026	-11.7739	-10.0073	-21.2497	-25.1262	2.2054	-29.4472	-6.2054	12.1559
272.0037	-2.7691	-3.6220	1.4708	6.5280	-2.5291	-21.3144	1.9363	5.2487	-2.8175	-12.5307	3.7506	-2.9970	-0.5691	-14.0790	-13.3322	3.9584
280.0038	-6.3960	1.5939	4.3532	-30.9663	0.0891	2.2209	-4.9489	15.8708	3.8930	-21.2231	9.5235	-6.4371	7.9219	-1.7335	-13.5980	5.7126
288.0039	-8.7893	-3.3860	4.8818	-66.1153	4.8254	-0.5909	5.0509	16.5749	9.5751	-28.8725	10.3293	-18.1054	13.9199	1.9041	-12.1091	5.2313
296.0040	-7.7835	-1.2735	5.4425	-22.3618	9.8456	-18.5017	17.7874	18.5805	8.0711	-34.5485	19.1914	-8.5397	9.2630	-2.1974	-19.4598	-2.7811
304.0041	-9.1952	-8.8682	-5.2340	-42.0858	-2.1690	-20.2793	19.1274	22.4990	-0.7826	-42.4003	5.3205	-21.3962	11.5620	-14.4083	-18.2008	-2.0236
312.0042	-6.4223	-13.6562	-9.0887	-46.6430	-16.4186	-28.5497	5.6106	15.0173	-6.8726	-52.9861	-0.5455	-31.1770	10.3867	-19.4203	-14.3210	5.5610
320.0043	-7.8311	-0.7111	6.1702	-28.3798	-5.3244	-12.3009	-1.9035	12.7641	-0.3775	-52.6027	14.3999	-13.0045	8.9167	-16.7459	-22.4838	1.4108
328.0044	-15.1629	-0.0556	3.6360	-56.3418	8.2579	-3.3568	7.2618	24.2698	7.2880	-49.7825	14.4688	-15.1627	15.4400	-7.6495	-26.9138	-9.7191
336.0045	-12.6907	-8.4170	-2.4157	-40.1034	6.1019	-30.6653	12.7568	12.6025	6.1584	-57.4359	5.4364	-23.2888	10.6186	-3.0364	-20.5206	-11.4400
344.0046	-7.5678	-5.9078	5.2984	-11.5920	3.8677	-38.2621	4.3917	3.5232	0.4165	-62.0845	7.6417	-14.5240	4.6527	-14.2917	-14.9031	-8.1160
352.0048	-11.0141	-1.8470	0.2653	-27.7237	8.3280	-25.9432	-5.0475	23.4634	-4.2683	-68.2270	9.1950	-12.6928	8.9756	-17.3170	-14.5830	-7.1518
360.0049	-13.2629	0.0266	1.3309	-30.4721	11.7597	-20.3439	-10.1707	22.0704	-1.6582	-64.9911	6.4228	-10.4988	8.7399	-12.7791	-15.7852	-9.9269
368.0050	-7.5671	0.5744	5.6862	-13.4586	7.3321	-23.3785	-12.6465	14.1499	-4.0474	-51.1741	10.9529	-4.6629	5.7263	-19.2440	-10.5294	-8.4861
376.0051	-6.2370	0.3571	1.0340	-3.4672	11.0955	-22.7531	-3.0398	21.7808	-7.5764	-50.5666	5.7737	-2.0302	3.5051	-17.6173	-4.8820	-3.7128
384.0052	-8.7745	2.8491	9.7226	-0.6913	20.0362	-11.5457	9.6614	18.0759	2.3045	-40.4994	-3.3950	5.1714	1.8854	-4.4923	-4.0272	-5.7877
392.0053	-2.6683	6.1225	14.3331	2.0529	16.0551	-2.3996	10.4041	17.3047	3.0658	-28.7090	7.2846	9.9763	3.8446	-3.2926	4.1483	-5.0037
400.0054	-3.3076	10.5031	16.6561	5.2359	18.1880	4.4073	4.1275	19.6831	1.2920	-30.1120	12.1698	15.7423	4.5789	-8.5806	2.7891	-10.3766
408.0055	-9.1465	12.1746	24.6075	11.8548	21.8692	-0.1109	-2.5078	13.5339	11.7838	-18.0490	10.7498	21.3638	3.8951	-1.0002	-9.5962	-21.5327
416.0056	-2.4250	5.0640	12.1249	15.8130	8.6650	-11.3056	-1.3538	3.2594	6.1804	-18.3202	9.8332	8.6098	1.5319	2.2629	-2.8812	-13.3362
424.0057	-1.3650	0.0556	-0.2496	13.1520	-3.9914	-9.1086	-3.6267	0.3862	-5.7073	-31.1487	-5.8413	-1.1783	-0.9099	-7.0461	0.9768	-8.4331
432.0058	-4.2068	7.1457	5.8220	20.4068	-3.9383	0.7297	-11.2100	17.8473	-0.2184	-25.5227	-3.7668	9.7663	2.1855	3.7147	-1.7340	-11.2933
440.0059	0.7284	12.3319	12.9323	16.7171	3.3717	12.4834	-9.0836	12.2817	6.5800	-23.7621	8.2779	13.3910	2.9206	18.4907	7.8426	-4.5202
448.0061	-0.2716	7.9122	12.8061	9.1421	-1.5336	6.9352	-12.2790	-5.1635	4.2205	-32.2119	3.3178	5.2914	1.0553	7.8609	3.1192	-7.2152
456.0062	-0.1258	8.0038	12.4082	33.9346	-7.8020	-6.9993	-3.3644	17.3078	0.9352	-40.9897	4.3994	10.3443	1.9995	5.0321	0.1821	-5.8375
464.0063	2.4255	8.8755	16.4912	39.5152	4.8900	-1.0877	16.9446	21.6254	5.5509	-37.3591	-3.0503	15.8070	-1.0462	19.4622	13.1580	6.5687
472.0064	1.3308	-0.0650	0.8960	16.8472	0.0604	-5.5855	2.2190	-2.2290	3.5897	-26.7312	-15.0031	-1.8284	-4.2444	23.5522	12.3605	7.1945
480.0065	2.9739	-1.1970	-9.6817	26.8244	-5.9809	-12.2644	-3.8697	-3.3528	-5.0520	-31.3072	-9.3165	-5.2934	-5.3157	14.0671	8.7983	3.2377
488.0066	1.1744	9.5814	12.7314	41.7903	17.5352	5.8521	14.1212	-2.2819	4.6670	-18.7957	-3.5862	18.8307	-6.7740	12.8147	9.4926	-4.7037
496.0067	2.4950	1.6048	-1.7314	13.7690	3.4808	3.1976	3.5510	-11.3594	2.8139	-6.6959	-4.7229	1.1635	-2.7221	15.2627	10.6652	-8.6233
504.0068	6.8749	-21.5092	-37.1767	-11.5556	-35.8313	-23.2641	-4.0779	-19.4822	-24.3576	-31.0600	-31.3073	-38.7901	-3.6936	-11.1166	16.6387	3.7553
512.0069	4.7367	-17.0679	-20.8860	14.5358	-26.8692	-20.8286	-0.1846	-11.1936	-26.8519	-33.8628	-48.8922	-20.0970	-10.9244	-22.2681	20.2337	13.9828
520.0070	8.4055	1.4344	-3.0510	34.4369	-8.7991	2.6853	-6.3389	-1.0609	-9.9134	-17.8044	-20.2185	4.5211	-9.0041	10.2519	24.9055	17.1581
528.0071	8.0238	6.0092	5.1863	33.0503	0.4452	13.0444	4.9905	-12.5772	2.9425	-8.5315	-7.3454	8.5412	-7.6905	24.1333	18.7513	10.1714
536.0072	1.4333	19.0401	27.4083	61.0407	24.4072	21.7253	7.6320	-3.5493	17.3146	16.5057	1.4501	38.6684	-9.2324	29.6358	7.3723	-4.1377
544.0073	5.3795	18.7553	10.9914	48.4959	18.1594	19.4882	-8.3552	3.6233	11.1168	11.5526	17.3943	28.7515	-4.0295	34.6203	13.0206	-6.2653
552.0075	5.0243	-6.4384	-14.3990	-0.8848	-7.2562	-7.0933	0.7810	-18.7691	-6.5861	-28.0414	-10.3001	-16.7014	-2.7862	8.2648	15.6149	-2.6779
560.0076	3.2555	-9.0159	-6.8745	8.5376	-6.3538	-15.7416	9.7275	-14.9250	-10.5246	-46.3141	-26.7697	-14.3037	-6.6636	-2.8952	17.9733	5.4573
568.0077	8.1095	-6.8320	-17.0423	14.6567	-10.5852	-9.8310	0.4813	-14.2347	-18.0419	-51.2085	-20.4438	-16.4990	-8.4844	-0.2108	23.1443	14.8888
576.0078	3.8640	-11.5164	-20.0061	1.9054	-13.9192	-9.7967	2.9270	-27.2958	-18.3375	-51.7716	-29.1496	-24.6196	-9.2719	-8.3986	12.9230	9.3389
584.0079	1.5171	-1.7367	3.8712	23.6497	-1.3683	-7.3842	9.8086	-12.4610	-7.1798	-52.2032	-22.5272	-2.9895	-8.3882	-2.4315	11.2724	7.2384
592.0080	6.8636	2.0798	3.1711	32.2645	-2.3327	-6.7064	7.8024	-5.4539	-6.5602	-51.2594	-7.2709	0.0695	-6.4109	6.4385	17.6257	10.7118
600.0081	7.2584	6.4697	-0.8605	9.5976	-2.6277	19.2472	4.9726	-6.2578	-2.2930	-27.6890	5.1199	-0.1888	-0.9307	13.5697	14.4788	5.7392
608.0082	5.7808	1.8152	-5.9807	-5.1082	-4.6065	19.0584	7.4375	-3.4064	-3.8932	-16.5841	-2.9404	-5.1903	0.3586	9.9671	15.2116	6.3340
616.0083	2.9912	-12.8140	-19.8113	26.1322	-8.1404	-32.9108	10.0275	-6.7857	-12.7303	-29.1868	-24.7702	-15.5149	-8.9938	0.7787	10.7870	6.4479
624.0084	0.7136	-0.7528	-8.8818	31.6347	2.1998	-6.6919	11.3647	-3.6714	-4.4885	-24.9788	-13.6583	-1.0228	-8.0344	10.3226	3.4312	4.4415
632.0085	4.4335	-3.2403	-13.2484	-24.0313	-13.1521	37.1375	18.9892	-13.4722	-9.4197	-10.6066	-20.2854	-14.4563	-1.7245	-0.0738	10.7351	14.5977
640.0086	9.6249	-11.4083	-17.2408	10.8567	-22.7354	3.8131	15.4912	-18.2455	-14.3781	7.0024	-28.1260	-13.9706	-9.2213	-4.2004	15.5006	20.2443
648.0088	10.4502	8.1387	6.5676	46.4927	-2.4825	13.6805	3.2768	-7.7486	4.1177	25.8316	4.9870	17.1866	-8.5733	20.7891	10.4232	15.6726
656.0089	5.8435	2.1348	-2.7953	-8.1777	-4.8259	31.0815	3.4659	-14.8737	3.0873	35.1141	-2.0240	0.9708	-2.4093	12.7146	6.4690	11.2791
664.0090	4.1391	-0.4013	-0.2369	27.6351	3.2784	-2.4450	-1.7453	-9.1330	5.2124	52.2684	-4.6547	11.5548	-7.9362	12.8981	4.1031	5.4062
672.0091	6.5077	9.9517	18.5177	28.9407	12.3904	6.8862	-5.6642	2.0499	21.2232	75.7110	20.4774	27.8412	-1.7539	31.1379	6.3295	3.5888
680.0092	5.9389	-7.7391	-3.1404	-35.3362	-5.8005	11.2005	-3.0732	-8.2975	11.0221	92.8089	-0.1039	-2.7236	3.3623	13.7637	10.1946	7.7990
688.0093	8.8139	-4.6738	0.3716	29.0311	5.7565	-15.3751	-8.4850	-8.2334	5.4519	99.6936	-0.3906	16.6842	-9.8598	8.3153	10.9588	13.3377
696.0094	12.4577	4.9436	12.7599	27.7557	11.4003	5.7493	-2.1883	-3.2462	12.4351	102.6541	18.0280	27.1151	-6.0644	16.5188	14.2138	17.0126
704.0095	9.1202	-1.0965	5.2617	-24.5611	-0.1821	22.3135	-3.8184	1.4026	12.4099	118.4521	10.4106	12.6323	2.9805	11.9287	12.6880	14.7826
712.0096	7.4299	6.5867	18.8797	25.1832	16.0017	2.4730	-13.3328	0.1558	17.0480	118.4965	20.1592	33.4111	-5.2237	12.9780	4.0314	11.8625
720.0097	6.7293	0.2273	14.4971	-9.8893	19.6844	4.3490	2.5256	-15.5274	15.4255	102.9375	22.7670	16.8163	-2.5701	1.6815	1.3344	11.1937
728.0098	2.6096	-0.0501	12.3560	-37.8821	17.8207	15.1320	1.7718	1.9073	12.3296	99.9343	19.5010	13.6399	4.0344	-6.9748	-0.2404	10.6700
736.0099	1.0601	13.1777	26.1940	16.2508	21.4710	10.9500	-9.7389	24.2200	13.4910	75.9696	23.4859	37.2447	0.0192	1.4251	-3.6616	13.2059
744.0100	1.3778	5.2867	17.2023	-2.4105	16.6831	5.3298	-3.0165	2.6218	9.4112	49.8845	16.8301	17.6565	-1.3391	-2.9250	-4.1432	14.1759
752.0102	-1.6420	12.0455	27.8003	-4.1788	31.1664	7.1219	-11.2670	5.8333	15.3954	52.0270	30.7636	27.9052	0.7946	-3.6532	-8.6546	6.4986
760.0103	-6.0571	18.0476	28.0985	-9.9098	30.1613	17.2812	-12.3281	32.2382	19.8654	40.1681	35.0217	31.7323	8.8690	8.9373	-11.2174	-1.5975
768.0104	-5.0872	-4.3432	-5.5738	-52.3302	5.7214	-0.6463	0.2097	18.5316	5.1458	13.4267	10.9135	-11.3443	11.2068	0.7130	-6.0600	0.8247
776.0105	-3.2280	-12.5047	-7.4597	-26.0096	3.0898	-34.4193	-3.0592	4.1810	-9.5966	-14.4433	-1.9411	-16.1859	0.9958	-25.9743	-4.3299	7.5008
784.0106	-7.2125	-5.0859	6.4442	-26.8953	12.2573	-17.1256	0.6973	4.8143	-6.7453	-33.2230	-4.9604	-6.8780	0.5929	-29.5998	-7.4881	7.4543
792.0107	-9.8103	1.2224	12.0066	-44.8154	22.1601	2.3684	3.6879	-0.0221	6.6372	-30.7094	6.2557	-5.6135	5.1543	-9.5423	-11.6349	0.7366
800.0108	-10.2936	-0.1211	5.7107	-30.2307	15.1861	-14.1721	-7.2699	6.3933	3.4912	-38.2768	8.4208	-7.5410	5.2634	-8.7855	-15.0056	-4.3343
808.0109	-9.6344	-7.4227	-4.6792	-52.6129	2.2301	-9.5623	-4.3708	0.7516	-7.8970	-45.1076	-2.4831	-21.4732	6.2942	-27.9266	-14.0504	-1.6222
816.0110	-6.4710	1.5910	16.6438	-36.6431	19.0963	0.5862	6.6689	-4.7463	0.2440	-31.7323	12.6912	-2.1041	4.1692	-29.5166	-11.5639	-0.6904
824.0111	-7.7286	12.3850	24.9143	-15.4556	27.8234	8.2554	5.5709	17.9430	8.7201	-26.3325	23.7851	15.7026	7.2263	-11.4767	-11.0982	-6.6279
832.0112	-9.8834	7.6507	4.3061	-49.6233	15.9119	22.3189	-2.9513	19.1473	4.7875	-20.9256	16.5160	-1.2133	12.5799	-4.9775	-11.7309	-11.1589
840.0113	-10.4647	3.8223	3.0085	-40.0299	11.1935	12.0108	-7.4083	13.4839	3.1121	-10.5226	7.5629	-1.2254	9.5019	-9.8197	-13.1239	-14.5199
848.0115	-11.0373	3.6869	-2.9372	-30.3318	5.9460	15.2418	-1.3925	22.9268	0.6043	-12.2498	-0.2366	-0.6677	9.2350	-5.8459	-12.9314	-14.7487
856.0116	-6.7352	-0.2435	-14.0722	-43.7392	5.4091	19.0624	10.0463	9.5597	-3.8668	-14.1665	6.7474	-12.2980	9.4279	-9.3206	-10.0911	-13.7847
864.0117	-3.9966	-5.1966	-5.1918	-20.5266	7.6660	-13.2983	12.8499	3.2338	-3.6716	-10.4198	8.7433	-8.3465	5.4544	-20.1403	-7.5101	-15.9127
872.0118	-3.1842	-8.3115	-10.8059	-25.3166	-3.2213	-14.7498	5.5325	9.3518	-8.5086	-10.1220	0.9050	-13.3093	6.1199	-21.6252	-4.2696	-9.8376
880.0119	-2.0446	-13.4053	-27.8151	-50.3940	-15.3318	1.1034	-0.2957	-1.2908	-18.6868	-10.9589	-10.4906	-28.8107	5.4039	-27.5946	-2.5354	-2.3421
888.0120	-5.1392	-10.3774	-19.6301	-24.5773	-13.1341	1.2217	-4.4533	-2.0607	-15.4115	-2.5880	-24.9666	-16.1623	-0.1786	-23.6384	-4.4906	-5.0754
896.0121	-2.6577	7.8262	2.3701	11.6372	1.8684	19.3542	-5.9532	7.3120	1.5331	16.8507	-0.4220	13.5167	0.0327	2.3678	-4.7175	-8.4181
904.0122	2.0161	12.5669	9.8456	9.2515	10.6002	17.3846	0.2498	9.0175	12.3911	31.3399	32.0517	17.9351	5.3623	13.8559	-5.6731	-9.8052
912.0123	-1.7202	-3.4872	-5.8165	-14.6128	0.5829	-6.5711	3.5528	5.7460	3.5870	25.9982	11.3249	-3.7485	5.1499	-1.7862	-8.7913	-8.2294
920.0124	-4.2664	-8.1940	-11.0577	-18.2533	-11.6878	-4.3268	-1.4991	-0.0061	-4.5666	17.2899	-9.2717	-10.5523	2.0554	-13.8301	-11.8453	-5.1329
928.0125	-2.5528	-0.9125	6.8355	-3.0290	-11.1570	-2.1366	-4.3532	-3.8472	5.3084	20.5974	6.3827	0.9319	2.9403	-8.0275	-16.6472	-7.1075
936.0126	-2.6948	-6.0141	-8.0280	-5.4766	-12.2232	-11.3222	-1.5011	-0.5818	-2.6568	14.2341	3.3831	-7.8306	2.4208	-13.2951	-16.3761	-7.8177
944.0127	-4.3109	-8.1905	-17.9383	-5.5296	-18.2520	-5.0304	-1.2325	10.3723	-13.2981	5.0612	-15.6563	-10.1278	1.0404	-20.7435	-11.3842	-4.7392
952.0129	0.1900	8.4448	26.3689	19.5974	-8.1939	6.6099	-3.1327	10.6153	10.4752	15.2427	7.6040	19.6580	3.0722	-0.0251	-5.7778	-1.8594
960.0130	4.1801	7.2986	18.3116	20.4096	-1.9458	-4.0544	-6.1638	4.0769	10.0419	17.5210	22.6451	14.9665	2.7488	5.6724	-1.8332	-2.9265
968.0131	-3.9201	-9.1709	-18.0420	-2.4030	-14.5436	-20.6899	-14.6727	4.6029	-8.2325	0.6796	-12.6931	-12.6136	0.7007	-6.9224	-6.1128	-9.6614
976.0132	-3.8103	2.6999	17.7630	12.2778	-7.6803	-7.3641	-12.7679	0.1620	8.5997	-12.1206	-8.6557	7.1243	1.2695	5.8191	-1.8805	-10.3374
984.0133	5.7693	17.8397	26.5667	38.5888	10.7614	12.0805	-6.0820	-0.9232	13.2718	-6.6993	25.4915	26.1849	0.0327	19.6273	8.3631	-7.1279
992.0134	0.9008	11.4319	-1.3867	31.0758	6.4715	7.8744	-19.5410	-5.0219	5.0780	-1.8296	13.3364	12.0307	-2.3099	22.4341	0.3028	-14.7014
1000.0135	-4.5958	7.5814	10.9917	20.1445	0.2330	-3.1048	-22.7211	-9.9145	10.5838	-27.2519	-1.5092	6.0126	-1.0986	21.1799	-3.9286	-15.9562
1008.0136	-0.8037	2.4303	-0.3634	17.8282	4.6515	-12.8976	-2.0203	3.9237	-2.2991	-50.9995	-2.1422	-1.9911	-2.0469	8.9605	5.2095	0.0116
1016.0137	-1.7036	-9.7325	-32.1267	4.9536	-5.7090	-20.7817	-3.7815	-2.9585	-18.8828	-61.1166	-22.0990	-24.9739	-6.3000	1.1396	4.8118	5.6446
1024.0138	-3.5940	-12.7249	-27.5747	-1.2924	-24.6099	-23.9300	-20.0615	-18.8332	-21.6272	-89.8402	-34.8323	-34.7775	-6.4031	-6.9112	1.3944	1.2546
1032.0139	-0.3047	-7.6712	-15.9958	14.3583	-21.5904	-25.4293	-10.2689	-2.7990	-23.4144	-105.8376	-25.7800	-24.6357	-5.5430	-13.0438	6.3965	10.3882
1040.0140	2.6066	-3.0881	-12.8150	26.1563	-13.9151	-17.2886	-1.1270	3.0269	-20.5839	-101.5813	-21.5772	-16.7143	-7.3539	-2.3516	11.9965	19.5874
1048.0142	0.3258	3.0259	-5.8509	24.4441	-10.3882	0.0080	-9.7300	-11.9602	-14.2432	-104.1043	-20.8689	-12.6909	-8.7310	5.6790	7.0633	14.5211
1056.0143	-4.6166	10.9441	7.9796	27.2488	11.2221	7.8131	-4.8534	-17.2536	-1.9482	-95.5624	-8.5904	0.5376	-8.5852	10.9849	-2.7855	2.7110
1064.0144	-5.6866	10.5325	6.5137	27.3541	14.8928	-1.2887	0.7966	-9.0744	2.6372	-90.6615	0.8159	0.7640	-4.3846	16.2915	-4.9682	-8.3194
1072.0145	-3.5377	3.4016	-13.4560	17.3704	-5.4759	-8.1334	-4.8563	-5.1314	-9.8070	-104.2202	-1.5977	-16.5257	-1.2742	8.0687	-4.7381	-9.2656
1080.0146	-3.7651	4.1455	-9.0383	19.2793	-1.6173	-1.5931	-1.5009	-18.4354	-9.3074	-104.9869	-6.3471	-14.7934	-5.1951	4.6453	-6.0734	-6.8937
1088.0147	-3.3864	9.4375	6.2115	32.5680	3.4019	0.9509	0.0674	-15.7854	-0.8365	-94.2896	-2.2643	-1.6695	-5.2042	10.9350	-4.7736	-8.6323
1096.0148	0.8429	5.8287	-5.8754	17.6751	-8.0128	1.6269	1.6003	1.3660	-9.1531	-90.6921	2.6829	-9.7769	0.4442	5.8558	2.4617	-2.5289
1104.0149	0.5083	-5.5468	-25.1279	-0.0950	-15.8609	-1.6656	4.7656	-6.8657	-20.9906	-91.2972	-20.3478	-26.8819	-2.9328	-4.0803	7.2591	3.4723
1112.0150	-0.5712	-10.4591	-28.0127	23.8822	-27.8333	-21.0209	-4.4037	-15.4558	-22.0033	-94.3462	-35.0407	-29.7611	-8.3911	-1.0533	3.3384	1.0122
1120.0151	5.3078	-7.6267	-22.7641	9.8368	-32.2513	-12.1019	-4.7862	-15.1457	-19.6118	-95.7535	-17.5265	-31.7857	-3.3257	2.2023	9.5258	7.8943
1128.0152	5.6363	-5.8186	-17.7040	-14.5624	-21.1239	14.1973	1.4414	-31.0651	-19.2339	-80.4731	-21.5276	-29.7598	-5.1047	-5.7698	13.7858	12.7068
1136.0153	1.2611	2.6670	-1.3298	45.8884	-10.6380	-0.0996	-0.0893	-27.2313	-8.1149	-57.5107	-17.8949	-2.0874	-11.6205	1.3581	-0.8547	-3.0390
1144.0155	1.7258	8.6967	6.2934	51.7561	-10.7080	-7.1509	-4.7126	0.5078	0.2576	-53.6867	3.4048	6.7880	-3.0389	14.3625	-1.3500	-7.7314
1152.0156	1.9081	1.6859	-7.7613	10.3422	-20.4897	7.1639	-11.3442	1.2138	-10.4162	-55.2627	-13.9242	-9.4748	-0.7914	5.7804	8.1114	4.0837
1160.0157	1.5972	10.1731	4.5635	46.3391	-7.7870	17.5680	-0.7411	-5.8569	-0.6079	-33.7828	-11.8549	10.8664	-7.0272	17.1017	3.2729	-0.9466
1168.0158	0.2788	20.8767	15.3846	30.2643	10.9118	41.8915	8.9043	-0.2682	19.5484	-5.9880	14.5492	22.2319	0.8858	42.8530	-0.9370	-10.6918
1176.0159	-1.0697	2.1541	-14.2118	-3.4447	-10.6532	18.2470	4.5712	4.8613	3.7316	-10.6113	-3.1996	-8.2084	4.3315	26.6447	-0.8835	-8.5066
1184.0160	3.1298	-6.6308	-12.5240	39.0807	-22.7685	-24.6793	15.9370	18.2999	-8.8592	-31.5381	-15.3791	-7.0671	-1.3621	5.5997	5.2599	0.5790
1192.0161	5.9471	5.8543	12.0430	31.3979	-2.9772	4.5417	14.7768	8.6104	2.4252	-16.2720	-0.3647	11.1418	-2.1517	11.5434	11.5190	10.3529
1200.0162	3.5853	3.5270	-1.6299	11.2052	-1.1624	10.2371	1.7443	-10.3094	4.9421	10.2799	7.0305	2.0576	-1.7672	15.6440	0.5189	-0.1615
1208.0163	0.1069	-5.9498	-20.6273	15.0754	-11.1520	-17.0056	5.3066	3.7248	-0.5849	6.7092	1.9872	-10.2536	1.0166	13.1041	-7.1761	-11.4704
1216.0164	-3.3894	-9.4732	-22.9515	-11.9922	-14.4061	0.0944	-4.4264	-5.4725	-7.7352	7.2745	-22.8199	-16.2897	-1.8804	0.2759	-4.3818	-2.3403
1224.0165	-1.3131	-3.7969	-6.2780	5.6693	-8.3430	5.9567	-8.5347	-20.2152	-2.1396	31.6108	-15.4774	-0.7592	-6.3249	-5.2052	-7.2089	-3.5266
1232.0166	4.3864	7.7146	11.0368	35.3844	6.5823	3.3268	8.0000	2.4198	13.2650	60.7895	22.6321	23.3415	-0.7309	12.0578	-5.6077	-8.8412
1240.0167	0.7235	-0.1050	-8.5098	14.7433	6.0387	6.2862	9.8017	8.2828	6.4314	70.9346	0.9351	12.1654	-1.4420	12.8016	-2.1667	-6.1246
1248.0169	-4.5136	-8.9607	-13.3571	2.1838	-2.2085	-6.5112	2.3668	0.5637	2.8868	64.2776	-20.8027	1.0278	-2.7679	3.6931	-5.7318	-10.9630
1256.0170	2.0380	1.6259	9.7506	4.7375	-1.4345	3.6356	-7.5500	-7.6181	15.1250	81.0334	14.0228	14.2583	1.9403	8.0177	-6.5664	-12.1788
1264.0171	5.8106	2.6508	6.6872	10.2847	-1.4964	10.6243	-8.7097	-9.0205	10.9417	99.7230	16.4526	18.4401	-0.3805	3.7098	-2.5587	-6.9960
1272.0172	4.4178	-3.4244	3.6355	7.3159	0.2129	1.6825	8.2970	8.8658	7.0788	95.4343	-1.5482	16.3552	-0.2274	0.6351	6.1107	-0.0261
1280.0173	8.2332	-7.5209	0.9688	-12.6957	-2.7942	8.5987	15.3355	-0.8482	8.2776	112.7627	-0.0402	8.8952	0.8444	1.5065	10.7257	7.1414
1288.0174	6.5325	-14.4271	-13.7492	-20.5224	-8.3419	4.1741	12.0941	-9.8927	2.9149	130.6834	-7.2941	-0.2579	-0.8388	-6.3842	4.2225	1.6159
1296.0175	4.4692	-6.0060	-2.3529	-3.9838	-1.1359	2.9727	4.0249	-1.6465	7.4522	120.3641	4.9419	12.4618	0.6628	-4.3712	-0.0881	-7.0571
1304.0176	7.8099	4.4573	7.8997	14.2665	5.7299	20.6708	-6.8983	-21.2281	12.9070	129.7017	19.4626	25.3332	-3.7797	2.6860	-1.9829	-8.6981
1312.0177	3.3805	-0.7587	2.3446	-6.5681	9.1748	25.3179	2.5783	-14.9565	16.9647	156.7134	6.2365	21.8673	-2.0773	7.3986	-3.9227	-8.4460
1320.0178	2.0384	-6.2829	2.4494	-25.1067	7.5104	11.4477	15.6626	17.1788	19.7690	163.5720	5.9464	18.3844	6.2186	9.5471	0.2061	-2.1636
1328.0179	8.4194	-6.3096	0.5741	3.7038	0.3850	1.8898	13.5610	14.5598	9.7150	155.6708	8.5471	21.2439	0.2715	-1.0273	4.0957	8.8738
1336.0180	8.2498	0.3778	9.7195	-6.2635	12.0904	25.5855	13.4382	-4.0041	13.9461	154.7522	13.7595	26.3394	-1.7373	-0.8730	3.1839	9.0809
1344.0182	5.6572	0.0364	9.0511	-42.3975	20.9748	32.1908	13.8684	-13.1600	23.7318	165.1686	29.0929	18.4801	5.3793	6.2663	-1.9178	-3.5805
1352.0183	5.3278	-9.3001	-4.4330	-6.5264	9.0364	-13.1988	7.3670	5.1857	11.7299	160.4680	19.7617	15.6778	1.8107	-5.7887	-4.2787	-5.7712
1360.0184	3.6773	-3.2896	12.5657	23.4827	14.0857	-26.6710	1.3390	22.6680	12.1185	136.5065	17.9088	31.1374	-0.6092	-8.7440	-2.6924	0.1098
1368.0185	1.1394	1.7560	20.7903	-24.0756	24.3783	-1.8892	1.7553	9.8814	22.5059	116.3524	32.7540	22.7906	7.1861	0.2200	-4.6414	-3.5392
1376.0186	1.5593	-6.7040	4.6555	-52.1650	12.3802	-2.4366	3.9974	8.4539	10.1902	84.8097	20.3570	1.2113	9.4786	-9.5938	1.3087	1.8060
1384.0187	4.9996	-11.6010	2.0684	-30.3390	1.0018	-20.0353	2.3284	5.2767	-4.7573	41.6456	3.0156	-4.9490	2.5419	-24.5428	10.5436	14.5576
1392.0188	5.3863	-16.3096	-2.3179	-37.1845	-4.4119	-28.6611	0.4048	-9.6336	-6.2133	22.9343	0.5833	-17.2789	1.2572	-24.7053	8.8852	15.5557
1400.0189	2.7057	-18.3455	-8.8139	-54.8472	-8.9983	-27.4879	1.4424	5.6683	-7.4502	11.0264	-2.8719	-24.9966	6.2308	-21.0353	8.1702	18.2605
1408.0190	-0.0856	-13.7761	-3.7004	-37.7550	-0.4890	-31.4143	11.7517	26.7048	-9.9400	-22.3668	-5.0412	-17.4938	5.5876	-21.9214	7.9728	24.2319
1416.0191	-0.7765	-7.9181	4.4266	-22.4228	11.0396	-27.9442	22.1700	22.8710	-4.8179	-42.5034	0.0647	-10.7336	3.4997	-14.0840	6.8223	21.7203
1424.0192	0.9355	0.7601	10.8924	-14.7154	11.1891	-1.7543	16.9093	7.1839	2.0688	-32.6942	5.0164	-2.3293	2.2038	-0.9611	6.7432	14.8977
1432.0193	-0.3760	8.5843	15.9766	-10.6531	13.1850	17.5938	13.9072	8.2495	7.4090	-21.6049	12.5317	7.0876	3.6514	5.5839	0.6924	9.1352
1440.0194	-4.6373	9.2758	16.4998	-27.8016	15.5891	11.4666	13.1435	34.4117	14.5204	-22.4478	21.4857	5.8735	12.5850	16.4831	-3.1949	6.5630
1448.0196	-7.7528	-3.8706	-2.2505	-38.5692	1.3584	-17.8422	3.2507	36.9160	5.4440	-43.3260	4.0530	-15.5855	12.5712	12.2935	-4.5033	7.3073
1456.0197	-7.2662	-15.2821	-17.1562	-36.4498	-10.3090	-33.1959	4.2953	15.8459	-13.3250	-71.7186	-17.4494	-32.8243	4.7716	-15.3839	-4.9638	10.3339
1464.0198	-5.9977	-7.5941	-4.0244	-31.2933	-2.3771	-14.8148	9.0514	10.9668	-12.7993	-74.0834	-11.6155	-20.8818	3.5229	-23.8315	-3.6260	10.4567
1472.0199	-7.0623	1.1375	10.9803	-12.2685	8.5057	-10.6138	3.5326	5.0869	-3.3940	-66.8801	-0.2960	-5.4980	1.6869	-17.1897	-8.9032	3.3259
1480.0200	-6.1029	6.6986	16.8934	-11.7417	12.5584	-6.4231	-0.8870	5.0097	0.6601	-66.9915	16.8604	-0.3492	4.8305	-15.3857	-11.0776	-3.6257
1488.0201	-6.7489	9.4379	12.3745	-20.5279	8.4603	7.5977	-0.0144	22.4006	0.6957	-57.5652	19.1353	1.5091	10.2100	-10.2581	-10.3657	-5.8142
1496.0202	-5.9790	8.9426	15.7774	10.6918	9.2390	-3.6688	5.0688	20.9900	1.0599	-48.3919	11.8961	9.9969	4.1602	-9.8098	-10.8298	-5.0475
1504.0203	-1.5048	17.8440	27.6168	16.6983	20.5466	10.9460	-0.8922	8.0643	5.9100	-38.2310	29.9419	21.7130	2.3904	-7.0139	-6.9609	-3.7193
1512.0204	-9.5356	15.4062	11.4987	-21.3894	19.3216	33.4057	-9.2653	6.6927	6.6648	-19.7833	17.1208	11.2049	5.9767	-1.3474	-16.4284	-11.9094
1520.0205	-14.9888	1.4838	4.0645	-16.2652	12.2012	-1.2766	0.9139	-0.1478	5.2359	-21.6204	-2.3242	-1.0932	3.6190	-11.4009	-25.8534	-24.1120
1528.0206	-5.2348	0.5255	9.2228	-7.8261	8.4019	-16.7895	-3.2800	-10.4460	-2.3646	-42.1583	13.4905	-3.7926	2.6128	-25.2385	-12.5450	-17.9268
1536.0207	-4.0951	7.0807	7.0886	-13.7333	6.7329	12.6386	-20.2590	-7.0620	-8.3687	-38.2554	4.6348	2.0534	0.5211	-23.0007	-4.1667	-6.1969
1544.0209	-7.7229	13.5706	20.8821	18.1653	19.5905	15.0432	-12.3434	1.5860	6.0820	-3.5783	0.3398	24.4462	-3.2166	-4.6854	-9.3041	-10.3205
1552.0210	-10.1330	1.8722	-5.6737	12.2944	17.9800	-4.4449	-1.8160	6.0763	0.2981	6.2011	-8.9369	8.3779	-3.6222	-2.3057	-13.0913	-15.4083
1560.0211	-15.7924	-6.0428	-20.3841	-10.4112	9.5228	-5.6271	-3.5762	10.6688	-11.1648	-13.6086	-31.4589	-6.2788	-2.2226	-16.7777	-14.2504	-19.4584
1568.0212	-8.4060	10.1744	29.7408	13.0497	21.0510	-2.6698	-0.7480	7.7461	10.8837	-7.3105	6.4079	24.0073	2.5605	-11.0638	-7.7065	-23.7034
1576.0213	1.2934	-3.6722	2.9342	-2.0297	3.4576	-16.7942	2.5034	-8.7577	-3.3782	-6.2240	7.3099	-2.3997	1.1084	-18.1138	2.2397	-12.8399
1584.0214	-3.4630	-18.2643	-36.2804	-15.9336	-10.6227	-12.6307	2.8666	-14.9853	-27.8702	-17.8746	-38.8383	-26.5482	-7.1520	-33.3861	2.5376	-5.7035
1592.0215	-5.3523	6.9374	11.8244	22.8045	15.3540	11.0904	0.1532	-0.7121	1.0135	5.6982	-15.6810	20.1867	-5.6804	-6.1308	1.0373	-12.5738
1600.0216	0.9516	12.5752	22.5182	28.9123	9.7950	11.6058	-9.3563	-0.5608	9.2904	6.9946	4.2725	24.7240	-1.6360	9.3292	7.9755	-11.3317
1608.0217	4.2501	0.9711	0.2513	8.5304	-5.4716	7.6844	-10.7395	-21.2138	-5.0728	-8.4691	-8.1110	-0.3692	-4.6191	-2.3062	11.3192	-4.1065
1616.0218	3.7025	-4.6641	-6.9026	3.6182	0.4479	2.9437	1.5789	-18.3726	-7.1535	4.9929	-18.1611	-3.6515	-7.3685	-3.3209	13.5014	4.4732
1624.0219	5.3848	-8.1085	-12.9526	7.2704	-6.4501	-4.8780	2.8511	-2.8541	-17.7453	-12.0790	-28.7883	-6.8796	-7.4450	-11.7711	23.1039	12.4331
1632.0220	8.3064	-0.9412	-6.0554	6.2991	-8.5401	6.0606	-10.8709	-15.4528	-15.3387	-23.4372	-10.1496	-4.9343	-5.4758	-10.3343	21.4915	7.3641
1640.0221	6.4989	-6.2830	-17.1987	1.6885	-16.0787	2.9011	-14.0944	-24.8581	-14.0557	-11.3337	-18.2482	-14.2538	-6.5938	-2.7530	15.6744	3.3979
1648.0223	5.0441	-9.5088	-14.5069	11.5755	-23.5051	-0.9889	-4.7710	-18.9622	-19.4977	-37.7414	-41.9414	-15.6672	-9.4276	-8.0046	21.4176	9.1785
1656.0224	8.6706	4.6907	6.9881	24.1726	-7.6076	11.8736	-3.7943	-20.6736	-5.5012	-42.9696	-12.0028	1.1038	-7.2535	8.6078	22.9276	9.0440
1664.0225	10.4500	5.8995	-4.7932	37.3092	-9.2736	7.8350	-11.1544	-15.4093	-5.7629	-34.1278	-4.0371	0.6136	-7.7886	22.3569	21.7965	8.7218
1672.0226	4.7359	9.0512	1.7677	35.1902	-8.9587	19.0509	-12.3880	-13.9035	-5.9497	-53.5554	-16.7216	3.7363	-8.3086	17.8968	16.4746	6.3405
1680.0227	-1.3626	14.7123	10.4228	21.6678	5.4234	25.9384	-12.9596	-17.7200	6.9149	-47.0409	-0.6472	8.4039	-3.8707	24.7623	2.2763	-8.1212
1688.0228	1.4297	6.5653	-14.5860	28.3580	-5.6665	5.9551	-10.4961	-5.7442	-5.6270	-49.0761	0.9133	-4.4529	-2.9747	19.8118	3.0628	-9.2945
1696.0229	3.3814	3.6848	-14.3111	9.5498	-11.0761	16.8378	1.2791	-4.1824	-13.8238	-70.6025	-9.7401	-11.7966	-2.0794	6.6605	11.5842	2.9126
1704.0230	1.8641	5.1942	-2.5880	11.3535	-3.6060	16.4010	2.9681	-10.4338	-7.0715	-70.9906	-13.4737	-6.6444	-4.0697	10.7621	12.1426	4.6653
1712.0231	6.3008	5.5093	-8.1181	43.0250	-8.6693	2.8041	1.9338	-7.1342	-9.1901	-76.6140	-10.6376	-4.7330	-7.6558	21.3051	16.3434	7.8761
1720.0232	4.7449	5.5095	-15.6216	4.1537	-16.0660	31.0653	2.0594	-12.2629	-7.7975	-73.2065	-10.8444	-16.3236	-1.8888	26.0398	12.5575	8.1363
1728.0233	-0.7534	5.7919	-13.6268	7.0630	-20.2281	32.1260	-10.7593	-18.0278	-6.0280	-62.1166	-19.0632	-13.3060	-3.1463	21.5402	1.1374	-2.1489
1736.0234	4.3407	8.4174	-1.1955	52.9645	-13.2830	5.2613	-7.5252	-14.7205	-3.1970	-58.6743	-7.0039	1.7830	-8.3631	22.3507	4.9403	0.5633
1744.0236	7.6465	6.9892	-1.1233	24.9111	-9.6018	14.4570	1.2479	-9.1766	-2.9044	-44.0337	1.7974	-1.5795	-3.4276	18.9007	12.3092	8.4670
1752.0237	5.6306	7.9327	-3.1131	14.7913	-16.2217	30.4263	-7.6924	-6.7009	-10.7115	-37.8742	-7.6514	0.1117	-2.9960	2.9961	10.7270	7.1224
1760.0238	3.9752	1.5452	-4.8927	-2.2326	-11.2920	19.0310	2.3288	-5.3051	-7.5658	-28.6894	-8.9627	-6.6217	-1.1348	2.0845	9.5786	8.7017
1768.0239	3.6266	-9.8370	-12.6229	-28.0056	-10.4155	2.0714	14.9714	-2.0804	-6.0367	-15.4903	-15.0033	-20.2784	1.6187	2.7287	13.2339	13.8855
1776.0240	10.1801	3.5967	3.7686	13.6912	-13.2735	22.0802	1.9813	-11.1075	-6.3097	-8.8116	-7.0934	2.5442	-4.6153	2.9161	18.2842	16.6584
1784.0241	12.7185	17.0167	21.4067	25.2540	1.1785	39.9282	-5.2428	-11.6415	8.2740	28.7744	20.8027	24.6329	-3.1909	16.8411	14.9649	13.9289
1792.0242	9.0021	14.5587	22.6989	23.9445	15.6794	21.4902	2.8716	3.7763	20.3611	72.1909	31.8920	31.3986	0.3947	26.0036	7.2810	6.1699
1800.0243	10.7780	6.5944	11.3318	29.9181	5.6220	9.7480	10.2353	-1.0771	21.0303	96.8609	25.3116	24.2267	-0.4838	31.8337	6.8788	0.9665
1808.0244	12.2943	-18.3327	-24.3937	5.6805	-26.7912	-22.7213	7.1790	-4.1497	-1.8291	96.1446	-3.5656	-11.5046	-1.3182	7.2553	9.5752	7.4692
1816.0245	10.8988	-26.8220	-30.6667	-10.0875	-34.1861	-32.4059	-0.3536	-2.0192	-21.4001	76.5944	-22.7154	-21.3445	-4.7336	-29.1275	11.3249	22.0821
1824.0246	5.2641	-11.0232	-5.8258	-60.4656	-8.1868	22.4640	-2.9786	-14.2999	4.3226	100.4245	-4.1632	-9.1230	2.5840	-4.8510	4.9279	20.5514
1832.0247	-1.1163	-7.5335	-0.4643	-40.1304	0.7536	6.7965	-2.5110	-0.5386	19.4106	113.5888	3.8804	0.9905	5.0621	16.1900	-7.8530	4.7763
1840.0249	1.1022	0.1968	8.9825	55.6239	5.5928	-27.9395	1.6778	18.6639	9.8719	82.6823	5.9718	27.8378	-6.2195	5.0094	-9.5166	2.0178
1848.0250	-1.4754	6.2678	14.2846	-0.1020	21.7826	10.4303	3.5465	5.1499	20.7741	73.8800	14.6234	20.7959	0.0863	20.2440	-6.6028	4.1154
1856.0251	-8.4330	-4.5051	4.6348	-60.7622	20.5544	1.0220	-3.9690	-2.8533	20.6220	50.2263	8.2200	-6.0475	7.8816	14.2310	-10.0947	-3.6752
1864.0252	-8.0882	-3.8628	4.4870	-14.8156	13.3847	-27.9497	-17.2013	4.4498	5.4116	21.1504	9.3466	1.2551	2.1749	-12.1373	-16.0107	-8.1821
1872.0253	-10.1276	-1.2982	0.0530	-22.7438	13.3263	-16.8447	-15.0089	13.0677	5.2710	10.4691	10.6642	-1.0728	4.4749	-6.3202	-19.8941	-4.8365
1880.0254	-11.1565	-5.0058	0.4196	-42.0388	10.4375	-17.7758	-0.3895	19.1077	7.8406	-13.7753	5.0969	-11.5759	8.9644	-0.0905	-16.0643	-0.9037
1888.0255	-8.7142	-1.6293	4.0270	-45.4244	1.6981	-8.0098	-14.6121	15.0356	7.7610	-9.6691	11.9046	-10.3519	10.3236	-0.6164	-16.4134	1.7720
1896.0256	-11.1692	-3.6987	-5.0636	-43.6120	-3.7265	-13.1069	-23.3939	13.5856	6.0129	-8.0253	9.8175	-15.4822	9.4071	1.0761	-24.9964	-0.3689
1904.0257	-11.0083	-9.2932	-3.3741	-18.2960	3.7161	-40.3340	4.1964	15.2592	4.0126	-32.6792	2.7121	-16.2658	4.9360	-4.4670	-22.9921	-0.5340
1912.0258	-8.0579	-10.0705	-1.8214	-36.4374	3.7426	-31.4909	6.9882	13.9183	0.5199	-35.1033	3.4566	-19.5450	6.4421	-11.7917	-15.0332	7.7373
1920.0259	-7.9050	-5.8114	-0.4140	-41.2901	-0.2829	-20.1249	-5.7343	18.9467	-1.2058	-31.3575	8.1393	-15.7425	9.0457	-14.6571	-14.9379	5.7461
1928.0260	-8.3457	-0.2594	9.2693	-22.0611	7.4209	-17.8738	0.2536	17.9316	7.7232	-15.4601	16.6957	-2.7093	8.7363	-7.2092	-18.7970	-5.3076
1936.0261	-9.1107	-5.3907	0.8038	-39.8222	2.6438	-16.1970	-0.5835	11.1025	4.0828	-18.3948	8.2155	-13.6596	9.0131	-10.0716	-17.9205	-4.4348
1944.0263	-5.9795	-9.3945	-3.8570	-28.3529	-3.7346	-30.8636	0.9144	11.7836	-7.8696	-49.4532	2.0501	-19.8562	5.6656	-23.2112	-11.5367	3.9141
1952.0264	-2.5607	-14.0224	-8.3288	-29.0186	-5.0041	-36.1346	9.0168	2.0994	-11.5957	-47.0110	1.1778	-25.7636	2.9410	-28.6706	-8.7428	10.0620
1960.0265	-3.8202	-23.2046	-25.0137	-56.2409	-18.6505	-31.9521	8.6834	-3.0117	-22.1153	-48.6355	-15.3209	-43.0925	4.4439	-41.5532	-7.9394	8.6183
1968.0266	-0.7323	-13.0587	-13.2405	-23.4140	-15.1713	-25.7405	6.6726	13.7649	-21.3657	-42.1110	-6.1473	-21.9017	3.7836	-39.8567	-2.8037	8.5620
1976.0267	-0.2628	-4.8170	-4.1449	-9.1248	-6.6096	-10.0728	-3.3436	9.0750	-12.0734	-13.1793	-2.8261	-6.5760	-0.1812	-23.4239	-3.4376	13.3627
1984.0268	-7.5612	-4.0231	-3.1708	-20.9238	-11.8913	4.9830	-15.0863	-4.6513	-6.0365	-6.9433	-17.3787	-8.5208	-0.0068	-17.6371	-14.0887	-0.5956
1992.0269	-5.3461	8.9608	16.2555	10.5596	0.0467	7.4109	-7.5108	11.1354	10.8872	16.7185	12.3207	16.3718	4.4340	1.3163	-16.7888	-12.8047
2000.0270	-2.5828	-0.6455	-2.8271	0.3469	2.2137	-9.6793	3.5845	16.6542	3.5205	14.0233	8.9513	1.7534	3.8332	2.6550	-8.4501	-3.3180
2008.0271	-9.2428	-18.7405	-27.6007	-35.7446	-12.9823	-18.4236	4.1518	7.2912	-16.5497	-20.2045	-36.6191	-28.4471	0.9677	-21.7952	-5.9439	-1.5174
2016.0272	-5.1297	-10.4860	-8.4351	-5.9919	-8.8993	-16.7248	9.9659	10.6617	-8.5071	-11.7091	-24.1784	-9.8224	0.3068	-16.0280	-2.2218	-3.1492
2024.0273	2.0267	-4.7733	-7.1554	18.5704	-3.8383	-21.4698	12.4649	7.8684	-5.9566	-18.2355	-1.5122	-4.3208	-0.6324	-3.7138	3.6215	-3.1575
2032.0274	-2.3807	-5.2226	-15.4669	0.4486	-2.3121	-10.3013	4.7587	2.2671	-8.7415	-22.1393	-8.7144	-10.2942	-0.0377	-5.9051	-0.1850	-10.0049
2040.0276	-2.5952	-2.7980	1.3724	3.5011	3.9797	-7.4580	7.0832	-2.1056	-1.5916	-6.3575	-10.5576	0.6996	-0.9938	-7.9438	2.2414	-11.1175
2048.0277	2.5927	-4.0517	4.7070	16.7236	-2.1377	-22.3528	8.0118	-9.2282	-1.5019	-16.4528	0.0492	-1.4197	-0.8025	-8.7654	6.0547	-13.9182
2056.0278	2.7581	-8.0036	-16.9461	6.3613	-15.7778	-21.3944	-0.6587	-2.4896	-6.6209	-5.2393	2.3354	-13.4565	2.7329	-2.9513	1.3630	-16.8727
2064.0279	-0.7699	-10.8966	-19.1050	3.5316	-18.9337	-16.4788	-6.6079	-10.5237	-11.0959	-8.3743	-20.7298	-15.6606	-1.6716	-8.8111	2.1140	-16.1467
2072.0280	-3.9199	-1.2648	4.2956	20.0464	-6.6838	-9.3086	-10.6758	-23.2400	-2.0416	-22.1936	-16.7966	0.0726	-4.5722	-9.1312	-3.0376	-24.7589
2080.0281	-4.4257	4.1557	1.2285	26.3065	-3.1843	-4.6128	-7.8882	2.6995	6.8252	6.9097	-0.0103	8.9397	0.8034	11.3334	-9.0204	-24.2801
2088.0282	-3.1355	-0.4056	-7.8354	27.0107	-10.5160	-5.9461	-7.6216	5.5602	0.6897	3.6742	-16.0119	3.0097	-1.7071	13.5283	-1.3112	-15.6827
2096.0283	1.3577	10.9771	15.0478	37.1080	2.4745	9.2752	-8.7881	-16.4005	6.8131	-10.8761	3.5642	16.5463	-3.6050	10.4849	3.2776	-19.9519
2104.0284	5.7459	22.5112	27.9639	49.8069	14.8916	20.5200	-3.1386	-3.8921	12.9025	-0.5644	32.5120	34.1782	0.2041	14.5222	5.8650	-21.4770
2112.0285	3.1348	19.4379	21.2729	54.8344	11.0390	16.1166	-7.5894	-2.8154	9.3643	-2.8891	17.8979	31.2968	-2.8095	15.1229	4.4173	-19.9930
2120.0286	-1.5078	12.7752	6.2808	27.8797	9.0372	13.8538	-5.2176	-5.0161	10.7253	-3.0946	13.6355	14.9705	0.4853	21.6139	-3.6406	-24.2995
2128.0287	-0.1139	7.0801	-5.0836	6.3223	-0.2671	12.3572	1.9231	6.5101	1.3072	-23.5724	10.6151	0.8686	5.0342	13.1039	1.5060	-17.3808
2136.0288	4.0089	6.3619	3.6818	30.0051	-5.8779	7.6398	-5.7418	-20.1060	-5.8570	-43.5172	-2.2962	2.4383	-5.8792	0.1301	6.1971	-5.6206
2144.0290	0.7651	8.8993	3.8318	29.2858	3.3394	14.0712	-5.3338	-24.5776	-0.3197	-30.7695	0.5173	5.9754	-7.3196	6.5700	-2.2772	-7.6665
2152.0291	-3.1709	18.5355	3.7204	18.9700	7.9020	35.8603	-7.1919	12.2891	1.8716	-27.6192	10.5247	16.4699	1.8162	14.6127	-4.1437	-10.8560
2160.0292	-0.5904	22.1742	11.2583	46.1415	12.3139	28.9583	-8.2893	13.1787	5.3922	-25.3327	12.8977	26.7534	-2.4161	23.4830	-0.3047	-5.7178
2168.0293	-0.9876	9.4596	-2.9966	41.5541	13.6767	6.2558	8.1321	0.3419	3.0345	-30.9780	-1.1792	9.6809	-6.7718	25.4410	0.7099	-2.6659
2176.0294	0.5744	0.0406	-21.2210	10.5902	-4.3013	10.5030	11.2513	0.3324	-9.2827	-44.6976	-13.2395	-11.7323	-3.0724	14.5704	5.9983	1.5849
2184.0295	1.5188	-8.2782	-29.8158	-14.2061	-20.0255	12.9813	5.8567	0.3247	-17.2583	-39.1687	-30.6191	-24.4642	-1.8484	5.3197	12.4252	10.6620
2192.0296	-2.1178	-1.8234	-17.0609	-5.4418	-11.8755	26.3047	1.8270	-5.1845	-10.4371	-31.6622	-36.2537	-11.7838	-4.9612	9.5012	8.3102	8.2520
2200.0297	4.9255	20.8752	7.2593	60.7352	7.3290	39.5863	-1.8164	-16.7040	7.4250	-3.3319	8.8126	25.1875	-9.9896	32.4227	0.7590	-2.5427
2208.0298	4.8990	15.0203	-1.6090	49.8435	16.5102	21.2845	6.9236	-5.0765	10.7004	18.2057	17.8593	20.2929	-6.8396	38.2122	1.1693	-2.0708
2216.0299	-4.7236	-3.5945	-15.4642	-26.1098	0.2935	17.4249	5.6739	4.9446	1.4214	4.1143	-20.3219	-10.6758	1.5336	17.8558	2.6841	2.1605
2224.0300	2.6637	-11.5669	-15.5650	-11.6115	-23.7930	-3.2856	-0.6331	-11.5001	-6.0698	9.0285	-20.2613	-18.2731	-1.2242	0.7595	4.0142	4.8249
2232.0301	9.7176	-15.3546	-16.5038	30.8947	-20.2730	-38.3937	-0.8120	-16.0308	-13.7494	16.5524	-12.3931	-12.1388	-10.1186	-11.3774	8.3820	13.0095
2240.0303	8.8642	-2.7125	0.3254	27.0019	-4.6276	-7.1610	-7.7465	-17.2225	-3.8648	36.1803	-4.2385	6.3195	-10.2217	-1.8578	9.6307	16.1052
2248.0304	10.7700	5.6169	13.2062	-5.2884	2.6985	35.0909	-0.9263	-25.1685	14.7424	92.4729	14.6302	15.8037	-3.0926	15.6631	8.1777	13.3633
2256.0305	9.6307	3.0498	10.6329	4.5340	6.0355	23.7512	1.2402	-20.9429	15.6492	114.2986	13.5605	19.5102	-4.6956	14.2266	4.6102	10.5541
2264.0306	9.9404	8.6576	17.2622	60.1218	-1.1221	4.1526	-16.3681	-5.7514	15.6298	114.0206	13.0679	36.8109	-9.5294	20.7344	1.5148	9.0172
2272.0307	7.7831	10.9321	22.0830	2.5992	4.6243	34.1505	-10.8748	7.5074	26.1435	138.5612	21.9492	33.6565	2.1294	30.0618	3.4609	14.1685
2280.0308	6.0362	7.8957	15.2132	-42.3728	16.6477	50.0517	1.8813	-0.9515	24.7913	143.3037	27.3748	22.6759	6.0726	19.9161	2.0063	13.6093
2288.0309	10.3996	-2.4033	5.9430	33.2387	0.5748	-10.6715	-2.4588	-7.3350	3.6618	104.8041	11.6401	20.6105	-8.6256	-5.9307	1.6541	15.3742
2296.0310	5.5179	-12.0668	2.7986	-14.9236	-1.7508	-17.8753	-1.8882	4.0013	-2.4564	80.7954	-4.8016	3.1691	-3.1768	-20.5736	6.0141	25.8009
2304.0311	2.8192	-7.1085	3.8036	-69.7458	10.9444	11.8098	-1.0980	-0.0889	7.5834	87.7785	16.0045	-3.3356	7.1984	-11.9949	2.2727	18.7934
2312.0312	6.1879	-6.2728	8.3690	8.0439	6.9527	-28.4232	-6.8955	-11.3778	-1.1292	53.6290	14.6790	7.1963	-5.6315	-22.8511	-0.8242	12.9265
2320.0313	-0.6827	-2.4323	20.5787	-9.4023	15.6562	-19.3367	-11.5703	-14.8846	1.9379	18.2736	6.7286	7.2288	-4.6091	-26.1418	-4.0885	11.1734
2328.0314	-1.7608	3.1644	20.3402	-50.5591	17.3445	6.0134	-6.9042	-10.2545	14.9649	22.7262	32.0099	0.6634	8.7897	-7.0913	-9.0693	-0.6541
2336.0315	3.5129	-5.0703	16.2329	-10.8559	4.3061	-31.6928	5.3390	9.1335	-2.2812	-15.7484	15.3557	-1.4649	3.8725	-24.8056	5.3766	10.4168
2344.0317	0.1382	12.5109	40.3905	2.8392	25.3844	-1.1740	1.8543	21.2872	5.8327	-25.4373	17.3743	25.5652	2.6274	-16.0292	9.0895	13.5395
2352.0318	-4.1234	36.8450	55.5369	11.2557	49.3982	41.1966	-4.4765	18.2968	38.3257	22.0808	65.0030	52.2928	10.0989	29.4156	-13.4924	-13.9991
2360.0319	-8.1453	17.0453	31.8002	-1.2260	33.7874	0.1406	0.6598	14.6666	26.5378	-5.3595	42.3741	22.8581	9.6393	16.1232	-17.6387	-19.7030
2368.0320	-10.1278	0.7142	15.1519	-24.4634	16.0201	-23.8691	-2.9224	17.8974	7.0539	-42.9317	11.7733	-2.1210	8.7247	-8.9658	-10.7758	-9.7812
2376.0321	-7.2415	2.5946	11.9893	-14.8811	18.9422	-21.2323	3.1218	26.5912	4.8847	-33.6681	17.9647	2.3205	7.5060	-7.3493	-9.2476	-0.7798
2384.0322	-5.4723	-11.1029	-1.5639	-37.4364	9.7548	-30.6203	15.6600	18.5829	-7.5800	-54.6621	-6.6368	-19.0573	4.8713	-20.2835	1.7705	12.6939
2392.0323	-1.0431	-13.7480	0.8147	-42.7043	-6.4799	-25.8688	6.9595	0.3383	-15.5958	-69.8640	-14.0960	-26.3322	3.0102	-34.7428	8.0834	16.5987
2400.0324	1.7343	-1.5201	14.8510	-18.3890	1.9196	-13.7162	4.2963	4.4672	-8.8467	-53.5339	8.7956	-6.2073	2.6239	-30.0802	3.4141	16.4459
2408.0325	-1.6779	1.0457	18.5951	-29.4647	7.9582	-7.0040	9.6176	16.9762	0.2441	-43.2232	12.6402	-2.8420	7.3117	-17.6858	-0.1217	14.5110
2416.0326	-0.7213	3.9998	22.9367	-12.2795	6.0495	-3.9711	8.5814	15.2843	0.0241	-36.6059	12.1645	5.1898	5.3483	-20.0920	-0.4146	10.0464
2424.0327	0.5824	5.3028	16.6852	4.7963	14.0443	-5.5071	14.5177	16.6533	-2.6755	-28.9386	14.7619	10.0900	1.6947	-18.7196	0.4483	9.6346
2432.0328	-1.1522	-1.1380	5.0874	-24.1422	7.9433	-1.2701	17.7032	16.4986	-2.0204	-31.3704	3.5380	-5.4047	5.0960	-8.8238	3.4275	11.7735
2440.0330	0.7353	0.0649	5.3042	-16.4681	1.7246	11.2519	10.4932	-1.4946	-9.6037	-41.6512	-8.4732	-5.0876	-0.6341	-18.4433	7.4540	13.0451
2448.0331	1.7067	13.1659	12.2946	11.2634	11.5259	23.4796	-3.6837	-2.4156	-0.7100	-19.9527	13.2935	14.0611	-1.9346	-2.5311	1.2463	4.1291
2456.0332	0.2069	10.3587	6.3509	-9.5470	5.4590	20.6759	-8.2085	8.4632	10.1400	9.1182	21.9210	7.5715	5.8892	17.7045	-3.6563	0.3479
2464.0333	-2.3575	-16.9896	-30.6276	-50.6398	-11.7884	-0.0906	7.3260	-5.1391	-17.7503	-14.5791	-26.2256	-32.7309	1.0040	-17.7926	3.2474	8.7838
2472.0334	-2.7438	-17.5674	-30.7827	-37.4977	-5.5716	-6.6863	14.4975	-5.9732	-24.0441	-29.7927	-32.1834	-29.9832	-2.5570	-29.2067	6.2207	5.6601
2480.0335	2.1515	4.7936	6.0314	17.4985	16.4046	0.4432	15.1714	2.8860	-0.2613	-7.8456	7.2110	10.8162	-2.1277	-2.2354	7.0567	-2.9128
2488.0336	1.2112	3.0137	-4.5480	24.6678	17.2928	-0.4114	14.7310	-7.6006	-0.5170	0.2903	3.8307	7.3392	-5.4894	4.0683	2.7529	-8.9125
2496.0337	-3.9761	4.1659	-6.2240	3.1087	11.6344	13.6927	2.0570	-2.5312	3.7257	10.9454	-1.6153	5.0182	-0.9810	10.7841	-3.6643	-13.4477
2504.0338	-3.7703	9.6561	6.2733	-0.2575	16.4699	26.4646	-0.8831	0.2555	8.6603	23.8901	2.0322	15.8016	0.9372	10.7023	-0.0303	-15.3194
2512.0339	-1.1109	5.4188	-0.9056	8.7972	9.0051	14.0999	0.3969	-8.1638	3.1952	22.6547	5.4539	10.1292	-0.0166	1.7081	-1.3181	-22.9159
2520.0340	2.2788	16.0027	21.5715	35.8725	13.2746	9.4236	0.4675	11.3711	14.4320	29.6651	29.7514	31.2110	4.2615	11.1398	0.0622	-24.2525
2528.0341	-0.4019	9.6045	7.8269	25.5964	19.2798	5.9558	10.8983	24.0671	8.2078	27.9990	10.0517	24.6122	2.6428	12.3730	7.4121	-16.7348
2536.0343	-3.8349	-13.5068	-31.6815	-16.8998	-6.6195	-8.6577	9.1278	14.2078	-10.9845	11.5633	-28.4257	-16.9648	1.5484	0.4813	7.4138	-9.7131
2544.0344	0.7802	-11.6671	-21.2072	-12.6761	-11.9182	-12.6578	3.4664	8.6029	-9.8134	7.1431	-16.9217	-14.8655	2.1677	-3.7144	9.8802	-4.7358
2552.0345	0.1461	-7.0227	-19.5175	5.2790	-2.1719	-7.4898	7.6776	4.0776	-9.3571	7.9486	-14.6968	-6.1258	-1.6008	-3.3057	7.4651	-10.0812
2560.0346	0.3500	-8.5325	-13.9564	6.9808	-14.8459	-6.5103	3.9082	-0.6122	-7.1522	6.7876	-24.1305	-7.9118	-2.2702	-0.8207	6.4717	-5.5383
2568.0347	5.5818	-7.3848	-4.8235	7.7041	-14.9249	-6.4257	-1.0423	-14.8638	-5.6364	2.9165	-17.9866	-7.7061	-5.2637	-0.2872	12.1820	7.8132
2576.0348	0.4996	-2.7503	-16.6626	13.5655	-5.7807	6.6363	-1.1312	-11.8449	-5.7911	-0.2423	-19.6742	-5.6101	-6.6052	10.2073	4.4185	-1.5014
2584.0349	-2.4496	5.6867	-5.0317	29.8643	-7.9504	10.6845	-2.9694	16.1316	5.8402	7.3894	-13.1341	9.7729	-0.0061	29.0609	1.6260	-10.9272
2592.0350	2.0829	2.0126	-8.4799	25.1826	-13.8792	4.1363	-3.4039	3.1472	1.4940	-0.3959	-6.9080	0.9200	-0.5735	22.0429	4.3759	-8.0430
2600.0351	1.0512	2.7007	-14.6808	23.1788	-14.6163	19.5888	1.5541	-14.9739	-6.1356	-21.4589	-13.4282	-4.7401	-4.6974	11.1089	-0.8602	-9.7762
2608.0352	-1.1991	8.4169	-1.0543	38.0628	-6.9724	20.6904	5.0159	3.3302	2.6250	-19.0627	-17.0954	9.7488	-4.1623	24.8317	2.4076	-6.5999
2616.0353	-1.4903	-3.0615	-16.1923	21.7454	-12.3423	-1.7909	2.6370	-0.5211	-1.4756	-22.3279	-24.2350	-8.6702	-4.2750	24.8441	3.2900	-2.2116
2624.0354	-1.6942	-9.9118	-20.4972	3.0672	-21.3502	-10.6929	6.4499	-10.2367	-8.3449	-46.6130	-24.7957	-24.0963	-2.3036	7.0677	-0.9448	-3.3407
2632.0355	-3.3841	-5.8430	-15.1407	-2.5501	-15.8956	0.5360	0.8368	-9.2620	-9.0781	-48.4946	-25.5187	-18.6060	-2.3485	1.9136	-0.6679	-2.7557
2640.0357	-3.5785	3.9187	-13.3299	13.7670	-13.6711	21.4289	-14.8346	-13.7710	-6.3301	-30.1718	-19.6373	-5.4905	-4.9139	10.5018	-5.2169	-7.8027
2648.0358	3.4967	6.7909	-1.0769	46.3669	-17.9736	-0.3251	1.4223	2.8912	0.7640	-31.6200	5.8388	3.9121	-0.5888	17.7183	-2.7630	-9.4035
2656.0359	7.1516	-14.3892	-23.5940	9.0818	-32.0539	-26.2018	16.8675	2.1982	-16.6872	-54.8662	-15.3705	-29.0356	0.1028	-1.8377	11.2543	8.3276
2664.0360	5.3655	-18.5177	-31.7127	-19.0577	-36.8110	-0.4446	-0.9674	-26.2731	-29.4546	-54.6627	-46.1423	-38.8674	-7.7351	-19.2377	16.2460	19.0078
2672.0361	5.9455	-1.4482	-5.3829	26.3162	-13.5668	2.3170	2.2061	-21.2330	-8.9083	-28.9603	-14.7951	-5.7034	-8.4397	1.2676	8.9620	6.2260
2680.0362	3.4449	-0.0182	-4.7466	27.4564	-4.4859	-1.2782	16.0946	-6.2474	-2.3995	-23.7862	-7.3627	-1.6115	-4.2436	9.6430	6.1881	-2.0123
2688.0363	3.3816	1.1168	-3.2825	17.4458	-14.0733	13.8523	2.1578	-7.8285	-5.6318	-19.2463	-17.9362	-1.2131	-4.0020	5.9901	10.0580	1.1219
2696.0364	5.9655	0.1668	-9.4632	18.4484	-21.3604	4.6921	-5.1728	-2.7832	-1.6113	-4.6782	-2.9990	-5.2671	-0.7465	18.3120	6.1769	2.4614
2704.0365	-0.2982	-15.0889	-33.4564	-22.6688	-34.6260	-2.5232	-4.0576	-7.0929	-11.9206	-15.1846	-27.0384	-33.5681	1.0130	6.1031	-1.2093	3.3225
2712.0366	-1.9587	-21.2053	-35.2289	-17.2721	-33.3153	-15.6719	-9.0578	-29.9735	-18.1847	-20.4788	-41.6237	-38.3278	-6.6197	-10.1625	-3.5504	0.7767
2720.0367	4.9419	-10.4050	-22.9267	20.6097	-21.2408	-13.5369	-5.0431	-30.2325	-12.7464	-1.5815	-14.0993	-17.2186	-9.4756	-5.0484	-2.0344	0.4023
2728.0368	5.3034	-1.8940	-9.9685	9.8949	-25.0883	10.3519	-8.4024	-3.3650	-9.7340	18.6832	-5.3572	-2.6540	-1.4107	-8.0113	0.2457	3.4822
2736.0370	2.7734	-6.2419	-13.3881	-20.5010	-24.9687	6.9547	-14.8642	-5.0204	-2.3237	43.2142	0.7891	-10.6561	4.6606	-2.3957	-4.0190	-4.2923
2744.0371	1.9565	-5.5645	-17.0054	-26.2654	-14.7035	23.2352	-4.9705	-25.9701	1.6294	55.1736	-2.6543	-11.8636	0.7122	4.5228	-6.1664	-7.8939
2752.0372	3.3364	1.9454	1.8946	19.1760	-8.7341	21.2687	-3.5836	-22.4516	3.4140	59.2114	-7.0670	11.3093	-6.9699	1.6486	-4.4340	-1.9598
2760.0373	3.8536	-0.4487	2.2105	27.0167	0.6546	-11.8199	-9.8485	-19.7400	15.6986	88.1763	18.6139	12.5109	-4.3500	15.6806	-12.1634	-9.3589
2768.0374	-3.3687	0.4397	0.7132	-9.4085	13.6522	7.4555	-6.6144	-17.4318	22.1638	107.6988	16.6452	11.6758	0.8730	17.5673	-17.9359	-19.7898
2776.0375	-4.4148	4.4503	10.6063	17.6078	14.5219	8.4811	-7.0229	-7.0088	17.2040	103.8799	3.9052	27.0171	-3.3836	6.1192	-14.5280	-18.9006
2784.0376	1.6733	-5.0063	-7.9879	8.8321	0.7200	-10.7240	-14.0454	-15.7183	11.2046	116.5871	14.9957	9.3820	-2.2561	4.6121	-14.0626	-15.6853
2792.0377	0.3410	-10.4113	-12.8115	-25.2942	-5.0967	-4.8823	-12.7632	-12.1757	6.7141	118.9343	9.7127	-1.3222	2.1430	-7.3013	-13.9680	-10.7547
2800.0378	0.9316	-0.8001	7.5925	3.1132	5.3900	-1.2170	-2.3219	1.9823	10.0575	95.1968	11.2874	17.4823	0.2806	-5.3668	-8.0534	-4.9330
2808.0379	2.8200	-0.4755	-1.8074	-32.2300	1.1614	20.4461	-8.4442	-12.2439	8.5623	82.4411	17.5689	2.6279	4.2860	0.2045	-4.9689	-3.8035
2816.0380	-0.2812	-14.4267	-16.4389	-49.5439	-18.5451	-10.5953	-23.6053	-6.6542	-7.2510	53.7394	0.0722	-18.9396	5.8258	-23.8843	-6.7053	-2.5806
2824.0381	-0.0899	-13.5466	-6.0099	6.2178	-13.8943	-50.6894	-14.9978	12.6892	-9.8578	9.6989	-2.9126	-8.2851	-0.1217	-24.4443	-4.5617	4.1177
2832.0382	-1.2151	-0.0619	5.0916	-32.0655	5.2113	5.8823	-5.2116	-5.8267	2.2704	1.1352	10.6233	-5.1122	3.5643	-8.1664	-4.6825	5.4148
2840.0384	-4.5887	-2.0343	3.2200	-65.1427	2.4871	11.7701	-8.8654	-8.1921	4.4215	-4.4930	14.1904	-15.3298	10.0285	-10.9631	-9.8255	-1.7612
2848.0385	-4.8683	-9.2123	-4.0622	-27.0354	-2.4498	-37.1826	-3.6478	17.2457	1.2315	-27.2814	9.2123	-17.8205	8.3123	-4.0898	-8.6861	0.9110
2856.0386	-5.1345	-4.7632	1.8999	-28.8401	8.9090	-25.4720	4.2496	20.4562	0.9280	-41.9698	7.6736	-12.5001	7.0938	-4.0909	-3.4102	7.7875
2864.0387	-4.9634	-3.3754	9.7755	-55.6029	7.2966	-13.1830	2.0127	14.2803	-1.1165	-59.5977	12.2514	-16.6944	11.5981	-18.1010	-1.2059	6.2056
2872.0388	-5.0219	-9.5645	5.6915	-71.8754	1.0991	-22.8948	1.2048	7.6761	-2.3100	-68.7785	10.3757	-29.1390	13.2534	-21.2652	-1.9255	7.2109
2880.0389	-4.7993	-2.9870	19.9008	-36.6499	17.6045	-29.1547	2.8013	5.4524	1.8809	-61.5523	14.0829	-9.5777	6.6031	-21.3964	-1.5409	5.8976
2888.0390	-5.2957	12.3695	32.8953	-1.5869	22.0948	-15.8493	-15.0120	15.9621	7.2339	-57.8159	27.5580	14.2971	6.1734	-11.5181	-4.8855	-3.5296
2896.0391	-8.8582	10.7862	20.9290	-31.2230	12.0431	-2.5809	-19.1969	20.6397	10.4793	-53.0039	29.0682	1.9330	13.4176	-0.2860	-13.1223	-9.0205
2904.0392	-7.6918	-0.4924	20.4775	-35.4267	19.2571	-27.5772	10.4299	19.0558	9.6509	-59.1908	18.7235	-6.6778	11.6877	-7.6732	-5.2830	-4.4202
2912.0393	-4.4727	-1.9593	21.5880	-24.4491	15.9159	-32.5061	3.8617	8.8660	1.5404	-74.6664	9.3814	-7.3033	6.2473	-17.4408	3.5209	1.6986
2920.0394	-6.4362	4.2127	18.7035	-19.0253	7.3215	-15.3088	-12.0710	8.3727	1.4401	-66.0570	13.8429	-2.9281	7.0936	-14.9024	-7.2797	-4.9506
2928.0395	-6.0983	4.6544	18.9890	-16.5528	13.2046	-12.8217	11.1244	24.7269	4.8417	-64.2076	13.9593	0.5447	10.0026	-6.9846	-2.4033	-5.1057
2936.0397	-4.0601	-1.5955	5.5261	-46.6125	7.6552	-2.0343	10.8559	17.4463	-6.9225	-85.4063	-2.8778	-16.3200	9.5035	-13.5565	11.4376	5.3736
2944.0398	-6.3433	2.6299	8.5020	-24.5053	12.5529	-6.2123	3.7852	19.2872	-5.1094	-73.0629	2.2704	-5.1739	7.1163	-14.9301	2.9298	-3.0212
2952.0399	-7.3107	5.1326	10.3824	-6.4914	24.4576	-15.9238	13.5458	33.8184	2.3606	-53.6333	12.2643	5.1493	7.3687	-3.5707	-0.9511	-5.2491
2960.0400	-6.3670	1.2464	3.2762	-19.3986	18.5827	-7.3566	8.5659	22.6024	-8.3817	-67.2162	-4.2199	-3.8926	3.4213	-15.0783	5.1505	4.8285
2968.0401	-5.5646	11.9575	25.9598	25.3319	26.8134	-5.0900	12.8120	29.1617	0.2110	-52.4211	1.5328	23.7814	-0.0610	-11.5458	4.4273	-1.1507
2976.0402	-1.2176	11.7209	18.2642	4.0298	27.4355	2.4656	12.4528	23.9674	9.6445	-19.5871	22.9669	17.1243	5.3334	8.7494	4.9047	-1.2448
2984.0403	-2.4920	4.0698	2.1592	-21.3248	14.6840	12.7317	4.3413	3.1546	0.5395	-14.1199	7.8463	0.2319	3.2403	-3.1489	0.3692	-1.2726
2992.0404	-7.9808	13.8990	24.0108	40.0166	19.7435	10.5502	15.6242	29.8098	6.9336	-7.7117	-7.1224	33.0233	-1.7267	-0.4067	-5.6250	-7.6831
3000.0405	-2.2486	9.8543	8.4005	24.8571	11.0237	6.6599	13.9052	30.9148	6.0337	-10.1511	4.9235	17.2605	1.9560	15.3295	0.0537	1.9440
3008.0406	-0.3882	1.5233	-6.8461	1.9083	1.8844	5.8660	9.5380	10.4880	-2.6670	-17.4211	-1.2945	-2.0791	0.6410	6.3108	1.4113	3.9127
3016.0407	-5.0120	7.5283	10.1311	28.8819	9.6416	10.1144	18.5829	33.1682	0.7738	-8.6243	-16.7224	20.8298	-1.5341	3.6806	2.2856	3.1152
3024.0408	2.3763	7.5036	8.1589	24.1292	7.6596	8.5926	16.9257	31.8274	-0.5849	-8.3112	-2.5255	16.9709	0.0102	8.0386	12.6128	12.6790
3032.0409	5.4483	3.5411	3.2960	20.2622	3.0916	-0.9880	14.3895	13.4956	0.6761	-5.5689	6.8747	7.5679	0.1353	9.2142	11.0436	6.4431
3040.0411	1.3408	-3.6519	-6.1885	7.6659	-9.0780	-6.4009	10.7381	17.9999	-6.6755	-10.0810	-10.3135	-2.5546	1.1279	-2.3756	6.6100	4.6153
3048.0412	5.2563	-3.0953	-6.2380	9.6726	-11.2468	-0.4207	7.1367	11.7995	-15.8198	-22.3262	-13.9415	-2.9344	-2.5832	-13.9306	14.2966	15.4044
3056.0413	5.6055	3.2114	3.3799	22.8296	3.9841	5.5534	14.3433	7.4048	-2.7684	-1.8956	-3.3189	9.4709	-3.9815	4.2513	13.3921	11.6759
3064.0414	3.0392	-3.2023	-2.2298	12.1640	-1.0798	-5.4491	17.0850	11.6110	-1.2205	6.7874	-9.0256	1.8858	-1.4725	5.1119	9.5991	8.1993
3072.0415	6.2358	1.3692	9.9765	32.4537	1.2440	-4.6292	13.2597	2.5955	-3.5305	-4.3774	-7.7606	11.4519	-6.3798	-3.0972	14.0851	12.4335
3080.0416	6.3957	12.3268	14.4621	42.1882	19.5033	10.6921	11.3506	0.1053	8.3191	10.2747	12.7646	23.9150	-6.5542	19.6301	10.7406	8.1611
3088.0417	2.3156	10.6119	6.4283	31.7151	17.2898	10.1395	12.1933	18.0340	9.7153	17.0714	9.7676	20.7416	-1.9493	26.3285	6.3826	5.0175
3096.0418	2.5891	4.9438	3.1966	28.7216	0.2825	5.4665	7.9866	18.2853	3.4230	1.5810	-8.1398	11.7776	-2.7092	21.4878	10.1314	11.7268
3104.0419	7.0914	1.4351	-13.0561	23.0766	-9.6507	9.3047	2.6728	-1.6261	-3.5895	-11.2940	-6.7813	-3.9685	-5.6958	25.0092	11.2419	17.9839
3112.0420	7.9738	12.4866	3.4063	46.6550	3.0947	27.4940	12.3182	7.9255	0.6448	-9.0043	-4.5455	17.5548	-8.6417	28.9894	15.0849	24.3864
3120.0421	7.3516	11.0568	8.8449	34.9099	5.2601	24.1432	15.3313	19.0659	6.8085	0.1205	-6.1764	18.2766	-5.1329	36.8193	19.8934	28.8242
3128.0422	7.7678	-4.0330	-15.4295	11.6428	-9.7804	-5.3420	3.6948	1.6566	-5.9989	-12.7135	-4.7517	-10.8895	-4.3411	18.0918	12.5225	23.7019
3136.0424	4.9475	0.2544	-6.1244	22.0668	-7.4447	4.2692	3.2196	-2.0579	-12.4081	-30.6620	-13.2969	-2.3948	-8.2666	-1.8849	8.2293	22.8506
3144.0425	3.6252	-7.6341	-20.4189	0.8380	-13.5430	4.8202	7.1461	-6.7426	-14.9234	-33.1624	-28.3032	-18.1846	-7.9344	3.9623	10.8545	25.8284
3152.0426	4.2236	-7.7394	-18.6356	24.0268	-15.1753	-6.1168	2.4003	-21.8442	-13.6211	-27.1942	-25.5397	-15.0713	-12.8950	2.3878	3.6003	19.8273
3160.0427	2.9876	13.8972	11.9685	38.3617	-6.3326	30.8420	-9.1046	-9.8725	3.1073	-5.2560	-1.9479	17.1532	-7.9726	15.0042	-3.2718	12.9136
3168.0428	2.0693	4.1098	-15.9058	1.3933	-21.1050	26.0831	-15.7658	-0.6671	3.1405	14.0782	0.1589	-6.1175	1.1561	30.9105	-4.9381	5.9802
3176.0429	1.4965	0.4014	-10.9374	41.3409	-16.2040	-0.4655	-8.2760	-11.4795	-1.4562	4.7482	-12.5263	0.6335	-8.6795	16.9018	-6.4254	1.6801
3184.0430	2.8287	15.3391	16.3870	52.3153	-0.6267	23.4385	-5.6710	-6.2467	4.8784	-5.1580	-0.4668	23.8634	-8.5556	15.3719	-1.0521	6.2706
3192.0431	3.0999	13.1740	0.7778	21.7490	-4.0719	34.8885	-9.4779	3.5513	8.6882	23.2835	6.6530	14.3135	-1.6319	32.6038	-0.4159	7.2096
3200.0432	0.9239	9.7280	2.8457	23.7333	1.3379	23.5412	-7.2229	-4.0136	12.3887	37.4054	3.7341	14.9203	-3.7857	30.4197	-4.9257	2.5427
3208.0433	1.5033	-5.4180	-10.4720	4.1986	-5.5398	-11.7754	-6.3265	-15.3083	-5.0320	-7.2723	-4.2851	-10.5240	-4.6248	-0.8041	-1.4557	3.4529
3216.0434	0.0375	-11.8398	-18.8456	9.9490	-11.0982	-17.1862	-3.8676	-18.5706	-18.6496	-11.1037	-24.9923	-14.3186	-10.3879	-23.4030	-2.2049	6.6943
3224.0435	-3.1045	-0.4875	-3.8375	-11.1658	-1.8082	23.9698	-2.7900	-14.4454	-2.4610	32.8830	-13.8846	1.8450	-3.9974	-10.1660	-8.4039	-0.1476
3232.0436	-0.2717	-13.6241	-20.9213	-24.8011	-15.2918	-16.3203	-10.3656	-15.4760	-5.8207	22.9613	-3.7631	-21.8402	1.0011	-9.4145	-7.7439	-5.1532
3240.0438	2.7846	-16.2204	-18.9009	15.0202	-26.7781	-28.9105	-16.2245	-20.0440	-18.8787	12.1374	-26.2796	-15.7069	-10.0355	-25.8928	-2.1696	7.0227
3248.0439	1.6125	-6.0084	-11.9098	-37.0388	-23.1102	35.8596	-17.1478	-22.9982	-10.7389	42.5097	-23.0144	-11.0475	-2.6460	-17.5238	-0.3805	11.2183
3256.0440	3.5028	-14.9995	-16.5100	-11.0385	-17.7003	-11.5336	-13.7464	-38.0430	-2.8335	60.9090	-11.8860	-15.9154	-6.8588	-7.6655	-5.9730	1.1458
3264.0441	6.2663	-7.3081	4.9606	64.6170	-6.6500	-34.5869	-12.1117	-37.3450	3.3910	82.7293	-5.5304	15.4780	-17.7732	-7.5216	-9.2246	-0.5192
3272.0442	1.6293	2.9320	1.8988	-44.8526	-4.4287	45.1372	-15.2537	-14.0572	11.2930	111.2085	14.7506	7.8653	5.6692	-0.8567	-9.7435	-2.5535
3280.0443	-0.1138	-6.1246	-7.0126	-59.7960	-4.4269	22.7337	-11.4844	-14.3921	12.1045	116.7964	16.3946	-4.3676	8.5487	-2.9239	-13.0748	-9.0919
3288.0444	5.6064	-4.4826	4.8624	46.1261	0.0600	-28.0425	-7.9598	-15.2180	6.5510	108.1496	12.7965	20.7848	-9.0300	-9.8955	-11.0626	-6.2781
3296.0445	5.5803	0.6682	4.6156	24.8285	1.2709	-6.3506	-10.8496	-4.7322	7.0006	98.6892	17.5377	19.9405	-4.0494	-2.9910	-6.7489	-0.1901
3304.0446	1.1640	-4.1253	3.0212	-37.6121	2.0167	8.8767	-8.3133	-11.8024	11.8241	89.1988	14.6039	1.5101	4.5495	-2.2702	-7.1099	-1.6846
3312.0447	-0.9865	-3.4098	1.5458	-63.4100	2.8312	24.0252	-0.9329	-9.7160	7.3833	68.6170	15.2387	-4.5835	9.5016	-14.0770	-7.5556	-6.5330
3320.0448	0.3638	9.4919	16.8361	-13.3070	14.0485	26.3798	2.5498	-6.5176	12.9970	50.2165	25.1188	17.0027	4.1719	-2.0782	-8.2533	-8.3982
3328.0449	1.7683	15.0220	29.7138	28.9434	23.2236	5.7664	-2.9966	-13.4527	24.4370	47.0688	37.1839	29.5833	-1.3965	16.9801	-11.5929	-9.6256
3336.0451	-4.0890	3.2924	8.1519	-32.9696	12.3255	3.1446	-8.6379	0.0489	13.9675	28.9521	27.5696	1.5225	8.3829	3.2203	-14.3947	-8.7573
3344.0452	-5.6614	-4.4856	1.8277	-37.8868	2.0603	-11.4520	-6.7728	6.4196	1.7155	-3.7921	9.2247	-9.7866	7.6772	-13.8528	-10.9445	-3.6342
3352.0453	0.0843	-4.5855	6.8627	-10.9372	3.4593	-27.8124	-6.4854	-6.6629	-0.7767	-22.3464	12.4993	-7.8904	1.5485	-14.7038	-2.9428	1.2320
3360.0454	-1.5311	-3.2257	3.7994	-34.3715	7.9032	-11.7379	-5.7607	-4.3208	0.0076	-24.7901	11.3380	-11.6215	4.5131	-10.3157	-0.5030	3.2428
3368.0455	-4.4760	-1.6420	3.1068	-32.9638	5.3867	-7.2921	-2.0204	11.6921	1.6861	-27.6395	6.3963	-9.2787	7.1069	-3.8433	-2.8808	2.8157
3376.0456	-3.2188	-7.7471	-7.1058	-44.2208	1.9909	-19.6141	-0.5998	14.0472	-6.3882	-42.1192	6.2472	-20.8192	8.5315	-13.2385	0.6456	4.7302
3384.0457	-3.1694	-9.9873	-3.4390	-48.3482	8.9912	-21.7361	-0.5564	-5.2136	-11.5537	-53.5433	-0.5840	-22.6675	3.8526	-29.7977	4.0852	3.4220
3392.0458	-5.8984	-5.7033	3.8148	-25.1564	13.2562	-22.4043	-0.3254	-9.4455	-7.3849	-57.7263	-3.3343	-13.2475	0.4423	-26.1847	-1.7131	-4.8545
3400.0459	-10.1032	-5.8338	-4.3467	-33.7572	13.2286	-20.4538	3.3108	10.1840	-3.6924	-60.0175	-6.7108	-16.5074	5.4152	-10.4915	-3.6314	-8.2818
3408.0460	-8.6654	-5.8517	-4.3347	-37.6091	9.7755	-18.1254	1.9219	6.7257	-2.6551	-57.4331	-3.5532	-18.1518	7.1174	-8.9891	-1.7600	-12.1458
3416.0461	-7.8847	-8.0882	-7.0445	-36.5525	2.9215	-18.8048	-4.8604	-12.6840	-9.5587	-62.7639	-4.8550	-23.1519	3.9274	-25.5858	-6.8349	-16.8472
3424.0462	-10.5863	-3.0391	-0.0148	-27.3584	9.9866	-6.6196	-2.2686	-5.7797	-6.9194	-56.6552	-12.7553	-11.5341	1.8351	-22.4194	-6.9262	-15.0753
3432.0464	-5.4256	15.0914	22.1663	13.4340	20.6714	10.3497	0.2639	14.9162	9.5806	-28.7020	13.7921	20.9112	4.1400	5.2547	-1.8692	-16.3130
3440.0465	-4.7502	18.7453	23.5742	20.0510	26.0101	16.0464	4.0603	21.5605	15.2697	-13.1607	19.8528	27.8081	4.8889	17.3923	-1.1801	-16.3017
3448.0466	-9.7194	8.9288	14.9264	-4.3963	28.0833	12.7574	13.8536	17.9914	14.2815	-0.9775	-1.9812	17.1975	4.4182	12.9945	-1.2980	-18.0001
3456.0467	-4.7654	7.0493	13.8836	1.0644	16.1971	1.0287	9.7574	16.9192	10.4039	1.9294	12.7323	14.3703	7.3589	2.4675	-1.6691	-23.1938
3464.0468	-1.2791	7.5892	15.0268	20.7127	5.1834	-5.5925	1.7124	21.3348	3.1538	-11.5618	9.9113	16.3887	4.3966	-3.4791	1.6799	-13.1552
3472.0469	0.2531	8.7802	11.9925	15.7485	3.1006	10.0088	-2.8125	17.3444	5.1594	7.0588	4.1497	17.0563	2.7321	7.8791	5.7038	-5.4114
3480.0470	2.5845	13.9791	13.9617	6.8403	7.3012	26.7276	-8.1755	0.3321	11.7993	28.5283	23.5978	19.3358	4.3033	13.6107	0.9110	-12.5776
3488.0471	-4.8043	10.4623	23.2290	17.5431	15.4555	13.5911	3.7187	-1.5452	14.8708	14.3650	0.5724	22.6989	-0.6289	8.7693	-4.1967	-15.3870
3496.0472	-3.2729	-1.2210	6.8577	12.7885	0.1132	-11.4570	9.4543	8.6268	7.6850	6.6149	-6.7572	5.8787	2.0303	6.5142	-1.0055	-14.0660
3504.0473	8.1702	-7.6500	-19.3942	0.3847	-23.5816	-18.5505	-3.7835	6.4813	-9.9112	1.3559	13.4315	-15.3694	5.6526	-3.7458	6.1158	-4.9085
3512.0474	4.5128	-13.6806	-23.2480	0.9271	-25.5820	-18.5982	3.6843	6.4588	-20.7322	-17.2894	-19.5638	-19.7326	-1.5079	-17.9233	8.6112	9.1248
3520.0475	-1.1979	-10.7158	-9.6179	-1.2451	-14.5579	-9.2090	16.0463	13.5343	-10.6275	-12.8996	-31.9670	-10.0007	-1.3771	-9.6519	7.3561	8.5738
3528.0476	2.5556	4.8945	7.9092	7.1319	3.5294	10.1120	10.7925	13.8783	8.9753	17.7590	4.4789	10.7383	2.9287	17.4785	8.0304	1.8665
3536.0478	1.6223	-3.6067	-15.7604	7.0016	-2.1470	-0.4961	6.0169	0.2859	-1.8071	18.1341	-5.7338	-3.9272	-1.6639	10.7169	3.6308	-3.3974
3544.0479	-3.6363	-16.0786	-35.3806	1.9025	-18.9509	-17.2575	-3.3996	-10.8212	-23.4651	-13.3185	-35.0459	-23.0000	-6.5067	-22.8063	-3.2031	-10.4999
3552.0480	-2.3755	2.0328	7.5360	19.3797	0.1102	-3.9058	-5.8260	-0.6888	-4.2164	-7.2561	-9.9019	9.6494	-3.0538	-14.0622	0.0929	-10.6080
3560.0481	3.7458	3.6876	15.7518	14.8009	2.2925	-4.3142	2.6821	-1.0131	6.8296	5.3363	8.1677	10.7242	0.9232	3.4065	7.6999	-5.0918
3568.0482	2.5888	-5.7277	-5.2141	9.1924	-12.2873	-9.0390	2.3079	-2.2323	-10.2651	-20.1330	-17.3608	-6.4604	-2.6563	-9.5542	10.4038	0.4906
3576.0483	-0.6420	7.1142	12.6518	23.2935	7.5258	7.6083	8.8262	13.5750	-0.2262	-21.7726	-10.1103	15.1050	-2.1586	1.9369	9.6758	0.9535
3584.0484	3.1176	2.0819	0.5704	4.6340	1.5752	1.4018	9.9636	-4.9125	4.6294	-21.3340	6.4298	-3.0179	1.8826	15.6407	8.0314	-6.3946
3592.0485	3.7425	-11.0469	-19.5291	-2.6645	-22.2267	-10.9350	0.2666	-24.1686	-17.8555	-54.2539	-20.0925	-26.5509	-3.6427	-12.8005	9.2515	-3.7587
3600.0486	3.2396	0.5472	0.5208	23.9737	-10.9393	3.4047	2.2950	-8.4243	-17.1454	-56.3362	-21.0974	-1.6005	-6.9754	-18.2216	12.2058	4.3599
3608.0487	5.3430	9.2458	-0.3542	28.2758	-8.8713	14.1640	-11.2177	-10.1001	-4.4240	-40.4835	4.2823	2.5203	-3.4256	11.9794	7.2532	-0.2549
3616.0488	2.5959	7.6080	-9.8074	21.4530	-12.1824	14.8707	-20.4007	-14.0447	-7.1753	-46.7560	-0.0722	-4.6968	-3.9381	13.3465	1.8461	-2.3173
3624.0489	0.8680	5.2186	-0.7850	18.7688	-6.1970	10.8371	-4.0202	-9.2328	-6.3162	-55.2531	-11.1827	-2.3239	-4.3383	6.2407	6.2605	0.5435
3632.0491	2.9748	2.2495	-3.5003	13.9294	-13.0322	6.6542	-3.6097	-20.6521	-3.1917	-62.4220	-9.5109	-11.6051	-3.5191	15.5415	7.6674	-0.8045
3640.0492	2.8914	1.4816	-11.2359	16.0579	-13.4098	8.8008	-4.1718	-23.6568	-10.1536	-62.4628	-10.1830	-13.3696	-5.5451	5.7331	4.4828	-1.8502
3648.0493	0.3535	1.7155	-7.6350	14.0559	-11.4864	8.0926	-3.6432	-19.7282	-7.1836	-56.1180	-11.9170	-10.3733	-4.1682	5.0821	1.7772	-6.6360
3656.0494	-0.7851	7.2942	2.7977	6.2295	-5.7286	16.6442	-6.9070	-20.3994	6.2746	-50.4444	-0.8584	-5.9677	-0.5335	23.8932	-0.6427	-8.3638
3664.0495	-0.2877	8.5547	3.2570	20.6242	9.4837	14.4549	8.5362	-7.9799	1.4735	-35.9101	0.1260	5.8745	-3.3946	11.5361	2.6094	-6.5831
3672.0496	-1.9395	4.0511	-4.5671	46.2272	4.2929	-4.6545	7.2187	1.6919	-5.7634	-30.0940	-13.0491	8.5325	-7.4423	3.7634	0.7156	-10.3323
3680.0497	-1.6061	11.7818	1.3995	24.4697	4.5155	24.1504	0.6536	-11.2369	5.0332	-30.4969	1.2917	6.8685	-3.4485	21.7496	-4.0791	-9.1588
3688.0498	-0.4591	9.9687	-1.5040	-19.6553	8.9771	44.4492	7.9458	-19.6776	7.2198	-18.5244	7.0608	-2.7375	1.8519	20.7501	0.1601	-7.1679
3696.0499	0.3491	-11.6161	-25.6131	-10.5021	-19.1013	-12.0040	-1.1929	-15.4926	-6.4077	-24.8186	-15.2568	-27.6068	-0.4334	10.4415	1.2047	-5.5099
3704.0500	5.6342	-14.6294	-26.7332	11.2831	-30.1179	-24.9555	-0.1075	-22.5292	-14.8592	-37.3597	-16.0266	-30.1687	-5.6087	-0.7696	2.2628	5.0117
3712.0501	3.4231	0.4310	-4.3015	-1.8522	-11.4425	24.6021	2.3902	-20.3430	-7.1916	-14.4706	-13.6811	-6.4770	-5.2968	-2.4700	3.5491	11.0396
3720.0502	-1.0082	2.6413	1.4710	-3.3024	-6.9829	15.8282	-11.3686	-7.2967	6.5069	11.8814	-6.5427	0.2025	-1.4319	16.7165	-3.6910	6.9252
3728.0503	4.8449	-0.6965	-2.2629	20.2390	-7.8814	-15.9644	-9.2360	-10.6358	6.9199	24.8619	18.3608	-0.2511	-1.1158	13.6084	-6.4903	-2.3058
3736.0505	5.8158	2.2774	0.2946	20.9227	-5.2993	-3.2779	-5.8619	-6.6786	2.9717	40.1302	19.8666	8.1481	-0.7786	0.9338	-4.5534	-5.2387
3744.0506	3.5669	1.2699	0.8035	-8.4220	-0.7364	8.8714	-3.7409	-2.6100	7.4745	47.9631	15.0375	3.9610	2.2246	8.0188	-2.4117	3.2492
3752.0507	4.9993	2.5398	6.7223	-12.1971	7.0837	14.7620	1.0896	-11.2001	13.1485	69.2918	20.8800	8.5904	1.4076	10.0617	-1.8585	3.8886
3760.0508	4.1784	2.8614	2.2501	-0.1489	1.0816	16.5669	-4.5690	-6.8782	11.9640	94.2012	18.3837	13.7254	0.2171	8.9555	-7.8446	0.3534
3768.0509	3.4061	-12.1373	-18.0201	-18.2709	-9.0619	-14.8105	-1.4983	-5.1736	1.6111	72.7898	9.7541	-11.2766	1.3586	-0.8978	-8.6614	4.6127
3776.0510	2.3005	-15.0012	-11.1506	-26.6960	-4.8040	-24.0188	2.8217	-4.3797	-1.3541	49.3849	2.2699	-13.9393	1.2181	-12.2230	-2.9483	8.2778
3784.0511	3.3499	-8.6307	-8.4640	-25.0747	-5.8279	-4.4194	-2.7789	-0.3957	-0.2861	59.4260	5.1121	-6.1179	2.2290	-7.4305	-0.8693	8.5521
3792.0512	3.7081	-20.9365	-29.6367	-31.7522	-13.5445	-27.9146	-4.3599	-9.2693	-12.2442	52.7935	-3.2388	-24.8847	-0.1883	-20.3014	-1.7407	6.5402
3800.0513	0.1749	-20.2036	-18.0432	-22.2094	-7.8137	-35.6113	-3.7456	-8.7360	-12.9728	31.4402	-14.3196	-19.3324	-3.5663	-29.2938	-2.2676	8.6358
3808.0514	-0.0339	-4.9012	-4.1294	-29.1703	-1.3718	3.9709	-5.3186	-7.1796	-1.8867	29.4968	3.5439	-6.8769	0.9944	-12.7853	-6.2089	8.4752
3816.0515	-4.2493	-4.4974	-10.2570	-32.8813	2.6018	2.8451	-7.5939	-5.8760	0.5033	33.7224	8.4254	-8.6445	2.5111	-9.6278	-16.7130	-0.4403
3824.0516	-9.6188	-9.5416	-10.9563	-22.0288	9.8790	-22.4287	-0.0529	9.4646	1.0852	22.4554	-5.1814	-8.4478	0.7008	-8.2637	-18.2185	0.3730
3832.0518	-7.8823	-16.0827	-22.9854	-50.9532	2.9387	-19.4149	7.4793	9.0315	-5.8588	3.9631	-10.2561	-25.9708	4.0756	-11.8834	-11.3371	6.7870
3840.0519	-7.3958	-13.1052	-18.4951	-55.4767	-5.1764	-6.2864	-1.1103	5.5068	-9.4503	1.5016	-9.6875	-24.0213	4.9450	-22.7227	-13.5490	6.8332
3848.0520	-5.5088	-5.7813	-5.8410	-28.1971	-2.3353	-5.5415	-2.2021	4.9982	-2.8750	3.5547	0.2025	-10.5003	2.9487	-14.7420	-15.4116	5.8850
3856.0521	-4.1498	-11.9706	-12.9418	-28.6009	-2.0279	-17.0271	7.6314	-2.6376	-6.8651	-3.5382	-5.0326	-18.6577	1.1166	-19.1516	-11.4241	3.7797
3864.0522	-6.4460	-5.8704	0.9067	-19.1594	2.6205	-11.7903	5.6124	10.2389	-0.7949	3.1067	-5.1347	-4.4657	2.4728	-15.8794	-11.6102	2.0946
3872.0523	-6.9182	-2.9690	-0.3944	-24.1954	0.1955	-9.2815	0.0514	14.6219	8.7624	8.0176	7.4770	-6.4878	7.1733	5.2284	-16.5336	-0.8041
3880.0524	-8.0272	-15.8664	-18.6676	-41.1792	-11.1194	-19.7723	4.1184	-0.5981	-4.8372	-12.4568	-14.4782	-28.5683	3.9679	-11.5701	-15.7515	0.0751
3888.0525	-5.2024	-5.4359	0.6985	-21.9298	-4.7146	-3.0157	5.3000	2.5056	-4.3137	-17.2428	-10.7002	-9.1963	1.9432	-17.6582	-8.5458	3.4907
3896.0526	-2.2514	2.3151	9.0295	-11.9660	2.5061	-4.7300	2.8916	15.8918	6.5712	0.2014	17.1492	2.6035	7.5841	-1.9116	-8.0693	-2.6143
3904.0527	-4.1745	-4.4822	3.7851	-10.1058	3.1944	-21.0727	8.5174	27.4001	-0.8032	-1.6248	1.5274	0.4510	6.0966	-13.7768	-3.3611	-1.1711
3912.0528	-3.3316	2.0793	8.6483	-9.3157	11.3746	0.8661	5.9630	20.7156	-2.8757	-11.9579	-3.7193	7.3815	2.7739	-12.9659	4.7716	2.8754
3920.0529	-4.7241	-3.0137	-2.1306	-23.8836	7.4322	-5.2738	-2.4562	5.7091	-3.4439	-17.1559	-5.1017	-6.3122	3.1040	-10.0347	1.2980	-4.3388
3928.0530	-3.4710	-14.3400	-11.5919	-22.4919	-5.4470	-30.5287	0.7590	9.8765	-13.6650	-26.3939	-19.4692	-18.2172	1.7056	-23.7473	5.3600	0.9372
3936.0532	-0.4334	-11.9682	-16.1406	-29.4756	-6.1059	-14.6385	4.8688	12.0918	-16.8628	-21.8712	-14.1512	-18.4593	2.9382	-23.8565	9.0016	5.9068
3944.0533	-7.0454	-10.6857	-12.2608	-39.1020	-1.3673	-0.9777	9.9634	16.4701	-13.6287	-7.8725	-25.2877	-12.8965	3.8366	-28.0832	1.2150	-0.5657
3952.0534	-5.5960	-1.7460	5.2888	-2.9973	6.7527	2.4271	8.4192	15.5892	-6.8114	1.7560	-22.3648	8.1518	-1.5505	-21.2094	2.2295	1.1675
3960.0535	2.0720	15.6618	23.9468	39.4506	19.4945	14.9085	-1.1693	-0.2430	9.4332	21.6508	14.9387	32.2372	-4.7596	5.1617	1.3888	-3.7093
3968.0536	1.0137	21.1547	37.7782	36.8665	19.4517	21.4344	2.4076	13.0868	23.8417	38.6864	26.9501	41.6892	2.6427	20.3170	-1.2443	-11.3290
3976.0537	1.1455	4.6772	4.1727	4.4647	1.9318	7.9290	6.3574	27.4448	8.1529	31.0821	6.6052	12.6880	5.9799	16.2019	6.2304	-1.6118
3984.0538	1.3695	-9.9158	-16.5055	2.4038	-7.2743	-12.6656	2.7454	14.5131	-14.6116	13.3430	-23.1355	-5.1306	-3.0724	-13.0429	11.5889	7.8326
3992.0539	3.0488	6.2786	32.7272	30.6624	4.5401	-3.4719	-1.4180	8.8765	3.4858	16.8564	-5.9397	27.8868	-3.6292	-13.6221	12.1264	5.6234
4000.0540	5.2696	14.4154	33.5318	28.6770	12.3857	9.0206	-4.7359	8.9346	17.2418	34.3140	20.2117	32.3775	0.8198	14.9505	9.5400	1.6235
4008.0541	1.9402	-0.8224	1.1316	10.4983	-3.2699	-2.6723	-7.9503	9.3622	-2.4045	20.8880	-11.0192	7.5231	-1.8933	0.3314	10.6283	3.9268
4016.0542	6.2186	-2.5031	4.1111	11.1429	-19.1565	-8.8646	-15.0279	1.2903	-7.3447	3.3220	-5.2662	1.1944	-0.4843	-10.7333	11.6614	4.7020
4024.0543	6.7479	1.9619	1.1157	26.5737	-3.5104	-5.1203	-0.3209	0.0928	-1.4156	16.9078	8.9500	8.2366	-2.5557	1.4220	6.2519	1.6128
4032.0545	-0.9553	12.7390	28.1273	48.8688	23.7957	10.5093	16.9276	23.3892	10.1032	23.0217	-11.6457	39.4840	-6.2404	10.1637	12.0736	3.6707
4040.0546	5.6542	26.9059	47.3494	56.0013	25.2157	21.0450	1.3226	23.9571	28.7404	28.4221	27.3406	51.9318	1.4020	40.7446	16.4779	-1.3816
4048.0547	8.6563	22.3504	21.0766	53.3872	17.3019	12.7078	-5.7687	13.9349	24.5268	39.3337	44.4981	36.1700	2.4738	48.1628	8.1403	-8.8088
4056.0548	0.6752	19.1857	29.8249	51.2296	23.4802	10.2937	-0.6218	15.0191	20.3647	23.2341	14.8538	39.5416	-2.2177	29.8866	5.9711	-7.0467
4064.0549	2.0290	7.9211	18.8534	22.4924	16.1665	-7.4609	0.2394	-0.7328	14.3745	0.0844	14.2058	15.5589	-0.3928	19.9492	7.4392	-5.7958
4072.0550	3.8118	-11.0793	-15.4633	6.2244	-6.5951	-24.5605	0.0749	-6.4913	-12.5952	-16.1192	-16.3568	-13.9596	-5.3102	-6.7819	12.9856	6.1455
4080.0551	3.3684	7.3440	14.5200	46.1682	2.8182	0.2818	-11.0527	3.9317	-6.4842	-16.4821	-17.3692	20.4539	-10.3781	-2.5668	15.8049	12.8881
4088.0552	6.6622	23.5371	33.6033	55.1018	22.7151	13.7198	-2.0997	7.1391	14.4958	-6.1558	31.7897	38.2439	-2.4916	21.1875	10.1087	-0.5325
4096.0553	9.4511	8.3893	16.9429	22.3624	8.9097	1.7177	13.4052	0.3726	0.9974	-22.9025	20.4447	12.4464	0.2424	-0.0916	17.1087	2.6579
4104.0554	10.7290	10.4853	23.3377	38.9282	4.6663	4.4248	5.5573	-6.4882	-1.4895	-27.5863	11.2535	18.2354	-4.9615	-3.0040	19.7753	8.7515
4112.0555	7.1804	13.6703	18.2226	38.6232	10.7482	4.9814	7.7164	3.8381	9.2797	-12.8770	25.1361	19.7256	-0.4599	18.2045	8.9598	-0.4648
4120.0556	5.1235	-5.5741	-8.5436	-6.8115	-11.1257	-4.8325	7.1872	-8.2145	-6.6464	-33.8773	-5.6034	-15.8919	0.6301	1.9112	12.7564	3.1660
4128.0558	7.6203	-7.4895	-9.5598	4.7153	-18.5478	3.0537	1.0972	-32.3043	-21.1911	-49.1488	-25.8800	-17.1924	-9.0206	-21.1787	18.1204	8.5771
4136.0559	7.5382	6.4893	7.3613	32.7345	-6.0435	18.0465	5.3040	-19.1340	-9.5989	-28.8274	-7.0198	8.1419	-8.0677	-9.1769	12.5236	3.4913
4144.0560	6.1471	9.2006	-0.0337	24.0976	-8.1687	24.9995	-5.3151	-18.3748	0.8246	-11.6496	4.9496	4.6175	-3.7488	16.9865	5.3054	-2.3834
4152.0561	2.3244	12.2748	-7.0979	19.0975	-9.3776	44.3943	-11.3397	-27.1542	0.8521	-11.5983	-0.1629	2.6987	-5.0643	22.1809	-3.5929	-7.4177
4160.0562	2.3574	13.3242	3.3808	11.0379	-9.5585	46.8455	-0.7119	-20.6104	7.4161	-16.9185	3.0823	3.9441	-0.9832	26.3134	-2.4441	-4.8544
4168.0563	6.2553	4.7600	-7.7174	-0.0504	-8.0888	30.2641	4.0584	-30.7644	8.0189	-4.7167	6.4223	-8.8408	-1.6062	32.9236	3.6273	-1.0396
4176.0564	1.9324	11.3569	-4.9236	15.1652	5.5236	43.8119	1.9314	-27.4719	4.2443	16.4759	4.6704	8.5476	-5.8885	17.5791	-4.6520	-8.4590
4184.0565	0.5738	22.5830	18.7444	31.6695	8.2925	43.2990	-7.5791	-12.7103	16.1800	26.8445	29.2005	28.9732	0.0893	18.7004	-14.1724	-19.6155
4192.0566	5.0796	10.4118	-1.4675	-0.4994	-5.7201	29.9450	-8.9462	-16.0988	13.7610	38.2753	32.9663	4.6536	5.3201	25.7322	-8.3805	-14.9754
4200.0567	6.8958	-4.6971	-22.5629	-17.1507	-16.0509	26.4931	-1.4306	-19.6657	-2.7249	62.8436	0.8572	-9.5793	-0.2143	6.7385	1.8077	-1.1854
4208.0568	10.1397	-4.8257	-5.7428	29.8091	-9.1250	-3.3430	-1.9908	-25.0128	2.0333	85.5046	2.0259	8.2762	-8.6620	2.9387	3.6489	0.5020
4216.0569	8.9367	5.7232	6.2116	26.6632	6.1066	13.5998	-1.0388	-15.4965	10.7860	84.5600	17.6971	20.6289	-5.3609	13.5246	2.9564	1.0698
4224.0570	4.3580	8.4418	3.3890	-9.9023	9.2716	34.7830	-4.0912	-3.9079	16.3846	94.2092	22.1285	17.3447	2.8476	21.9911	-0.8458	-2.2647
4232.0572	1.1236	-8.1171	-7.1945	-2.5595	4.7234	-18.0932	-10.8704	-17.1660	15.7954	106.5539	11.4757	2.8032	-1.6471	15.0998	-9.5938	-10.2489
4240.0573	-2.5439	-9.8149	-10.6518	-13.1593	1.4017	-7.4793	-4.5455	-6.7498	0.5401	70.9469	-10.5103	-1.3418	-3.1776	-8.4428	-7.5480	-0.6053
4248.0574	0.2227	0.6984	-5.7983	-28.4846	-2.0607	26.7420	0.1522	8.9505	1.6832	49.2316	2.5805	1.6785	4.6437	0.8984	-1.5143	5.2687
4256.0575	1.2428	-3.2349	-4.5256	-28.3505	-0.1547	4.7811	-4.2990	-2.7554	9.7866	52.3126	12.5107	-4.6501	4.6415	11.8541	-4.0794	2.9743
4264.0576	-2.7449	4.8500	8.7018	-13.2181	9.9242	15.1857	-4.1943	7.2380	8.7984	33.9541	5.7563	10.2288	1.4646	5.5824	-6.1416	7.9218
4272.0577	-2.2702	11.4168	14.2110	18.7591	16.0672	6.7716	2.0565	19.9523	15.7014	26.2420	18.9848	21.3673	1.4854	21.2056	-9.3414	4.3696
4280.0578	-4.4980	-2.8673	2.1057	-9.1821	10.9292	-17.1414	11.5561	18.2958	10.9927	8.7669	5.9851	-1.1237	3.8365	13.6789	-7.5059	5.5643
4288.0579	-5.0982	-6.4026	-1.8597	-39.2512	9.1970	-6.2765	19.5404	27.4374	0.5077	-15.0328	-6.7478	-10.2389	6.8652	-2.1885	1.9669	14.5756
4296.0580	-1.6605	-8.9358	-9.7315	-28.9119	6.3733	-19.1969	15.6042	12.9000	-0.5914	-17.8587	2.6939	-17.2345	4.0922	1.7458	-0.4806	13.5372
4304.0581	-5.6729	-8.5518	-2.3116	-35.5371	0.3966	-13.6828	5.2485	3.8664	-2.9223	-30.1869	-7.3139	-17.6546	2.9453	-12.1790	-7.6060	11.5882
4312.0582	-7.5394	5.4359	21.5612	-17.7341	12.7187	-1.3327	8.2267	33.6431	7.8681	-27.2030	4.5087	8.6879	7.7647	-3.0268	-5.5058	9.3781
4320.0583	-4.1565	-2.4718	10.7926	-24.6772	16.2455	-24.9458	16.6864	24.3091	9.9293	-31.3353	14.3845	-5.8996	8.4680	6.0399	-1.7847	8.3163
4328.0585	-4.7738	-8.5500	6.8970	-41.7440	7.7469	-19.4781	11.7679	-2.3879	-1.8539	-49.6022	-2.3328	-18.2774	4.2197	-19.4107	-2.2313	7.5093
4336.0586	-5.5587	6.8462	22.5179	0.6859	19.1528	-10.9343	4.8810	17.4627	7.2585	-26.5845	14.9411	12.3220	3.8377	-8.1456	-7.7650	-0.5579
4344.0587	-5.7852	-2.6673	-3.0949	-26.2670	12.1792	-21.6001	4.7391	18.2405	2.3501	-30.2331	17.6940	-10.8504	8.1210	-2.5671	-9.9556	-2.1093
4352.0588	-7.2443	-22.5116	-27.4456	-68.7994	-10.9804	-26.9817	3.8570	-5.8905	-20.1046	-60.3347	-21.5176	-46.3916	4.6809	-33.4221	-5.4132	5.2437
4360.0589	-8.1781	-22.3213	-24.2210	-41.1347	-12.2034	-38.5015	2.1303	4.0571	-21.1406	-56.1907	-32.1371	-37.1084	0.6721	-32.7915	-4.3401	6.6897
4368.0590	-6.6269	-22.9459	-32.7182	-55.9563	-17.0689	-35.4110	5.9976	13.1216	-23.0022	-62.3000	-21.1111	-44.8226	6.9298	-30.8507	-3.6734	3.8078
4376.0591	-5.1377	-29.1323	-41.0480	-61.9116	-21.3919	-32.1741	14.2559	-1.8724	-32.5482	-69.6831	-36.6505	-54.1911	2.1475	-43.7916	0.2572	9.0505
4384.0592	-9.0417	-28.7093	-40.4292	-39.2258	-18.1170	-36.7046	8.6537	-4.2402	-31.5209	-66.1194	-53.9123	-47.4731	-5.0503	-37.7084	-3.2486	10.6819
4392.0593	-6.7760	-22.2312	-30.4369	-56.8575	-24.4795	-24.9009	-2.9790	1.4766	-26.1170	-66.7247	-30.8927	-45.4360	4.1203	-36.3582	-4.0624	5.9961
4400.0594	-0.9632	-20.9889	-25.6572	-49.4036	-20.9346	-21.6634	2.5053	-1.6038	-27.5169	-55.2124	-26.7738	-39.6375	1.3963	-38.9759	5.3368	15.9385
4408.0595	-9.1002	-17.3615	-30.0847	-16.6790	-9.5380	-17.9076	2.4702	2.9487	-24.5270	-43.2819	-48.5039	-26.6775	-7.4788	-25.0804	-4.4101	12.5162
4416.0596	-12.0137	1.3925	-2.8808	0.0249	-1.2528	-0.9774	-8.2229	9.6989	-2.0465	-20.2556	-9.4114	-0.4332	0.6869	-9.4132	-23.2358	-10.2524
4424.0597	-7.5766	3.5083	2.2669	-4.0277	3.2291	0.1594	-9.9232	-2.2805	4.3512	0.3153	10.6492	2.0488	2.6255	-6.1987	-21.8463	-15.5279
4432.0599	-13.0539	-10.5295	-19.9292	-23.2154	-4.2838	-7.2158	-11.6702	-13.3388	-9.1461	-9.7322	-28.3411	-17.9791	-2.6925	-18.1409	-19.4593	-15.9313
4440.0600	-6.8945	3.1757	15.0660	6.1202	-0.5234	-2.2840	-5.0363	5.1818	0.0168	-9.5381	-4.0815	9.8439	1.0827	-20.4748	-12.8294	-11.3984
4448.0601	0.5013	12.1808	14.0844	33.5613	4.2265	0.6205	4.3977	25.7383	5.9378	1.0540	24.3005	21.7828	4.5273	3.0087	-6.5436	-9.4802
4456.0602	-9.6799	-9.6572	-30.3983	-5.8946	-12.1070	-15.1452	-3.0006	7.4607	-5.1327	-4.5741	-15.5736	-18.4050	3.0204	4.1947	-16.5739	-24.1290
4464.0603	-5.7186	-8.3084	4.2539	-1.6290	-6.6341	-18.2962	-1.2315	-7.4700	-4.0247	-12.5934	-24.1353	-4.9395	-1.9184	-19.5610	-2.7715	-11.4010
4472.0604	4.0516	9.4286	23.1967	39.4296	12.1472	-0.6610	7.6171	12.8051	0.5936	-9.2493	0.5868	25.3982	-4.1652	-4.0728	14.7791	4.8895
4480.0605	-2.0535	8.2649	-2.6724	26.7225	7.1499	8.3722	2.7663	15.5085	5.7949	0.2724	1.5258	12.1621	0.1271	23.4629	0.4221	-10.2143
4488.0606	-3.2519	13.5402	16.3828	27.2153	7.1939	18.1768	-0.6069	7.5534	12.1817	-2.2935	2.9026	21.0614	0.8334	19.0495	-2.2200	-14.6090
4496.0607	1.6456	18.7405	21.9640	43.3274	11.4571	16.5773	-1.5324	10.5186	11.6376	-9.0770	16.9376	28.6625	0.3545	20.3686	4.3135	-11.7987
4504.0608	2.2532	11.0983	7.6105	28.1677	1.7096	5.3529	-8.3399	-6.8017	9.8600	-18.2672	17.8591	9.0712	0.7050	24.3299	0.2177	-14.2714
4512.0609	-1.5958	7.0762	3.7506	22.5176	-5.5912	8.0412	-13.1224	-14.9887	1.0150	-41.5086	-5.6399	1.5309	-3.4431	11.6113	-1.5731	-10.6391
4520.0610	-3.2350	-2.3923	-11.5466	11.7979	-15.5722	-5.4101	-7.6864	-3.5491	-9.7714	-59.7434	-21.4220	-13.2202	-2.5601	2.7003	0.2834	-5.1985
4528.0612	4.8060	-2.6524	-2.3932	11.1035	-22.5885	-10.4378	-3.8000	-5.3254	-10.0149	-67.9367	-8.7080	-14.7929	-0.5681	-0.4859	10.1587	6.3259
4536.0613	5.5444	8.6151	11.0360	31.2940	-8.7377	9.8974	-3.2949	-10.6223	-6.4393	-66.3104	-3.8430	3.3596	-5.4903	2.6044	10.8556	9.4537
4544.0614	-1.9826	7.1939	3.2513	15.9715	4.0813	15.7697	7.9451	-12.1295	0.5676	-54.7275	-7.9214	-0.0639	-4.0745	11.9881	0.2212	-2.8586
4552.0615	-0.8543	12.1029	4.4872	20.6930	0.1090	20.3217	4.7357	-0.9974	4.1760	-51.1831	6.0429	4.3419	0.8336	19.8869	-1.7831	-8.7615
4560.0616	-0.0400	9.2367	-8.5701	33.5428	-9.2997	10.3905	-4.1688	3.5694	-3.8596	-53.2341	2.9262	-0.2699	-1.6244	18.0407	-4.5350	-5.0506
4568.0617	0.0401	-5.9934	-15.7022	3.3227	-12.6830	-3.9117	8.4531	-13.7215	-8.9223	-52.4315	-16.8381	-20.0080	-3.8556	3.9233	0.5253	3.1349
4576.0618	5.1349	-0.3100	-1.8655	1.7110	-12.9027	10.5788	3.0221	-16.9528	-7.2795	-43.9228	-9.5391	-10.6776	-3.0247	0.9070	10.3662	8.5135
4584.0619	5.7960	0.1621	-6.1091	6.3352	-14.6403	8.9058	-7.7349	-27.6362	-7.4313	-32.9138	-1.9147	-11.5605	-4.7597	0.7270	3.9372	4.9842
4592.0620	4.9651	2.8424	0.6161	23.9740	-5.2620	7.5793	-1.3369	-37.7510	-4.3239	-32.5275	-1.1922	-3.8229	-9.1427	-0.3056	0.4318	-0.1034
4600.0621	4.7481	15.5382	7.4851	57.3632	3.8852	15.9692	-7.4224	-15.9786	3.3730	-29.2778	7.7264	16.6920	-9.1366	23.9562	3.1452	-2.0468
4608.0622	1.5847	1.5108	-9.8077	8.3713	-4.3027	4.6045	-5.4296	-18.5216	4.6877	-22.3514	-0.2490	-9.9218	-2.8991	28.5651	0.7779	-1.3266
4616.0623	2.4476	-4.4494	-10.3021	-20.8422	-12.7933	11.5940	-0.0319	-24.2456	-4.8145	-26.0787	-7.5550	-19.4799	-0.6087	1.7996	3.0460	2.4547
4624.0624	3.7104	-0.0072	-11.2127	18.0279	-15.4748	3.7897	-6.1572	-1.0318	-12.9355	-29.6908	-10.7846	-5.5499	-4.0951	-1.8349	6.2530	7.0749
4632.0626	0.6490	-5.2392	-8.3809	15.8608	-8.3367	-13.4962	4.2790	5.1535	-5.5832	-19.0893	-17.2375	-6.3009	-3.9043	5.4166	5.4040	8.0027
4640.0627	3.3805	7.1752	15.6826	8.5860	6.5108	14.6119	11.4144	6.0645	7.9571	3.6927	4.3559	12.8737	0.4498	11.6200	8.9280	8.0284
4648.0628	9.9295	5.6337	9.3571	25.4070	4.0895	0.2797	9.3462	2.8835	8.6314	24.6121	19.7002	13.1163	-0.3204	18.6532	12.8133	6.3543
4656.0629	10.8363	-11.6080	-10.7700	21.0364	-10.9123	-34.3246	9.7068	-9.2316	-1.4327	32.1156	7.6848	-8.0673	-2.9972	3.8147	9.7936	3.6440
4664.0630	6.7814	-14.4534	-13.6503	-40.3074	-19.6266	-5.0083	-5.7682	-18.8713	-7.9134	28.7016	-3.8337	-22.7925	1.9566	-14.5297	7.6098	10.1125
4672.0631	4.1933	-16.7143	-12.4606	-57.2246	-12.8967	-3.4442	-16.1786	-37.3031	-5.3678	37.6310	-9.5334	-26.6718	-0.8917	-16.0666	5.4578	10.5330
4680.0632	8.0649	-2.4065	5.8591	45.3338	5.0415	-25.2969	-6.7352	-17.8830	1.7641	63.5949	8.6272	16.5395	-10.9937	-6.0722	2.3150	3.0068
4688.0633	6.8094	9.2994	14.8779	33.6161	10.9445	6.7558	0.6814	15.7700	10.2555	77.7647	20.3032	31.4473	-1.8915	9.0002	4.2686	7.0448
4696.0634	-0.2241	-1.6159	1.3093	-55.0693	9.7724	30.4707	-0.4621	-7.1564	14.6086	85.6683	5.8654	0.7837	5.4453	11.0500	0.0578	5.8004
4704.0635	3.7765	7.9448	11.6170	16.7068	16.8980	20.8332	-4.2156	-16.8567	14.1698	97.6485	16.5735	26.3542	-5.8464	8.0107	-5.1405	-1.2353
4712.0636	6.6586	20.6371	27.9197	55.9310	23.0043	16.9676	-3.5717	13.9276	23.0149	103.7675	40.2556	51.0248	-2.1842	22.4292	-3.3689	-3.0224
4720.0637	2.0559	6.2504	7.9955	-11.5803	15.9350	7.9363	-0.6824	19.3930	23.6007	100.3131	36.1273	19.3090	8.9838	25.7978	-4.9399	-4.5983
4728.0639	2.8992	-5.5728	-7.0886	-23.7311	3.9899	0.4292	-4.9892	-2.3977	2.4423	75.4600	11.0041	0.3200	1.3647	-5.6763	-1.8014	5.2744
4736.0640	1.1639	2.6634	13.4472	-4.9678	11.2024	8.4387	-13.8489	-8.2939	2.4064	65.1548	7.6912	17.4012	-3.6836	-18.8447	-3.6149	6.6924
4744.0641	-1.0231	7.1801	16.8271	4.6519	17.7552	2.3019	-6.3434	7.2943	16.0541	76.4540	26.1248	24.1158	2.0025	2.2841	-12.0911	-3.9918
4752.0642	1.9246	-6.6778	-2.7723	-14.7639	3.4622	-10.7859	6.2112	-1.8033	4.3327	48.6090	9.9926	-2.4396	1.2548	-3.9744	-4.2659	4.8416
4760.0643	-0.9246	-9.5278	-4.8012	-33.4858	-1.1716	-7.2389	-9.6865	-10.7810	-6.5024	22.6163	-5.9287	-10.8681	-0.9173	-22.7318	-2.6743	9.4675
4768.0644	-5.9534	-4.2385	-4.9819	-23.2904	7.8220	-9.8557	-16.5118	2.6480	-1.2319	31.7514	3.9489	-1.9891	0.7162	-15.2931	-14.0365	0.9351
4776.0645	-8.8042	-8.5107	-2.2560	-42.3966	17.1874	-12.0964	-0.3870	-11.2346	5.5825	25.4744	0.7179	-9.9668	1.2123	-12.6269	-16.5140	-2.9654
4784.0646	-11.1461	-4.5033	2.3201	-45.6091	15.4389	-6.3536	-8.8546	0.6141	6.4443	19.1195	1.3880	-5.3325	5.0866	-12.3693	-16.3515	-8.2558
4792.0647	-8.8851	-7.4007	-8.3309	-24.0128	0.0411	-22.5458	-11.1155	29.7550	-0.5915	15.7454	-4.7710	-5.7140	6.6907	-6.9402	-10.4433	-2.5554
4800.0648	-3.8068	-17.5991	-6.3780	-30.9246	-3.3495	-36.3013	11.0554	6.7183	-3.2356	-6.6631	-15.8584	-20.4785	2.4983	-14.0248	-0.3983	8.1581
4808.0649	-1.5455	-11.4258	-0.9456	-31.3840	-1.3601	-17.8549	15.4223	6.1452	-3.6180	-10.4253	-7.7243	-14.6194	3.7983	-16.6367	1.7258	8.1948
4816.0650	-1.2810	-2.9581	1.5537	-22.5176	3.4406	4.0582	14.6956	14.1591	-0.3762	11.5752	-1.2620	-1.1056	4.3798	-9.3501	0.7246	5.9008
4824.0652	0.3950	-0.9411	5.3168	-20.8937	11.7265	5.1559	14.1470	-0.5347	5.2773	19.9492	8.4150	0.9422	2.5855	-3.2835	0.2982	3.5756
4832.0653	-2.1703	-7.1742	-11.7739	-31.1719	2.1639	-6.2530	0.9890	12.2667	-4.3444	6.8663	-3.1113	-11.5127	3.6059	-5.3928	0.5587	8.3450
4840.0654	-5.7213	-7.6722	-3.9666	-30.4108	5.0158	-9.4992	0.0525	7.6946	-3.6615	1.2704	-11.2083	-8.8731	1.5173	-13.9473	-3.7975	7.0460
4848.0655	-1.6028	-0.5932	11.1721	-11.9037	9.6037	-12.3822	9.1554	3.2723	4.7301	1.4771	17.5344	1.7063	4.3902	-13.5506	-8.2819	-3.4838
4856.0656	-1.4926	-9.4790	-9.4735	-23.0252	-8.7592	-15.4505	4.5053	6.3874	-9.4674	-11.9438	-2.0178	-15.2317	4.0505	-21.5500	-4.4011	0.8847
4864.0657	-4.3247	-3.5039	4.0966	-14.9454	1.5131	3.5384	-6.3609	-14.2168	-8.9137	-6.2662	-17.2026	-1.8425	-3.9384	-29.4874	-3.3698	-0.8049
4872.0658	-2.2980	8.4318	15.9355	3.5444	12.9312	5.9632	-2.5540	13.6779	4.2229	14.7174	14.8608	18.5265	3.7401	-10.8234	-3.5879	-9.5991
4880.0659	-2.7012	-11.9028	-13.3413	-20.0086	-5.7680	-23.9893	11.8831	26.5881	-8.3098	1.4609	-7.9601	-12.0487	6.5831	-15.5224	1.7107	-2.7221
4888.0660	-0.3198	-13.2726	-0.5237	-5.6492	0.6105	-24.7478	15.9027	-11.5842	-14.5631	-19.0076	-22.0745	-9.9064	-5.4224	-37.9019	5.9303	2.3537
4896.0661	2.2575	5.9558	23.6148	14.0767	18.6623	-4.6333	11.7252	-0.1528	1.6405	-10.6302	11.3682	16.6191	-2.0198	-16.7448	5.8463	2.1060
4904.0662	-2.5528	0.6559	4.7480	-7.4696	11.3089	-9.1604	5.4345	11.9872	4.2680	-4.4987	8.6913	2.2480	3.9310	0.0621	-1.1322	-3.6211
4912.0663	-5.4522	-3.9825	-8.7801	-4.2269	0.0496	-9.6113	-5.6787	1.0448	-9.5540	-14.4873	-8.9977	-5.4064	-0.5876	-19.0561	-6.8220	-10.7270
4920.0664	-6.4447	7.6960	9.3244	14.9131	9.0406	6.7406	-11.2114	4.0707	-1.8618	-7.4807	-3.5655	15.0433	-2.1128	-12.8780	-8.2193	-12.1895
4928.0666	-5.9083	15.6523	29.4306	31.4668	22.2681	1.8942	-6.0800	4.5741	20.3576	13.3714	19.3194	30.5480	1.0794	13.0118	-11.4555	-22.3972
4936.0667	-1.4524	6.8692	17.3955	17.2711	8.2774	-11.6178	0.3505	11.4275	12.0518	4.7272	20.2232	15.1479	5.4276	5.2922	-4.1644	-18.6967
4944.0668	-1.3449	-9.7424	-13.5251	-19.7677	-13.9712	-11.9471	-3.4116	4.5715	-12.2839	-20.3947	-14.9116	-16.6135	3.3568	-16.1169	5.1328	-5.8229
4952.0669	-5.6380	-17.6547	-32.8697	-9.1785	-21.9214	-28.8875	-9.1844	1.8733	-21.2344	-31.7347	-34.8931	-27.6679	-1.0874	-18.5774	-0.0539	-13.0729
4960.0670	-4.9325	-14.9267	-24.1543	11.5163	-21.4833	-39.1267	-4.2007	17.4962	-19.1019	-41.6501	-32.0107	-19.3311	-0.9628	-15.3102	1.1528	-8.0410
4968.0671	-0.1886	-3.4632	-0.7552	10.8404	-11.6217	-15.2770	-1.7538	10.9827	-9.1192	-37.3719	-14.2611	-4.3592	0.1722	-9.0859	7.3093	-0.4413
4976.0672	-1.0693	0.6024	0.7472	10.4854	-1.9977	-8.9443	1.3424	9.3779	-1.9537	-16.9606	-0.0650	1.8551	2.4423	-3.0030	1.9544	-11.9424
4984.0673	-1.1110	-0.2433	0.9683	9.3949	2.9316	-6.6149	7.3609	4.4672	-3.8066	-17.3103	-4.6097	2.2775	0.3155	-8.0072	4.1000	-11.2001
4992.0674	4.5934	6.7313	1.2502	19.4020	0.2849	17.3468	4.1271	-4.5696	-7.7787	-23.1051	-2.0807	7.2002	-2.8626	-3.8972	12.5725	-4.4105
5000.0675	2.0340	1.6498	-17.2427	19.3899	-8.6859	14.1252	7.2558	6.7106	-9.5471	-14.7462	-12.4397	-1.4869	-1.8896	8.0382	8.1037	-5.6115
5008.0676	-0.6383	0.6907	-7.5549	11.3798	-4.5271	9.7994	4.5087	-10.5266	-2.8797	-20.7707	-13.6604	-3.5775	-2.8085	7.5317	3.4793	-10.6064
5016.0677	5.5346	12.4201	7.7498	20.1235	1.0317	21.8184	-7.1127	-21.4287	0.1736	-34.4542	14.7413	6.9231	-1.4794	7.2657	7.8150	-13.0215
5024.0679	3.3417	8.6181	-1.7928	27.0542	2.4136	10.3175	-1.4431	-0.7138	-3.5304	-32.4378	3.8589	6.2811	-2.2130	10.9118	9.5914	-6.8261
5032.0680	-2.1530	16.3881	12.4206	37.6739	12.2514	22.9374	-8.9548	-4.2012	5.8602	-25.9294	-2.3944	20.9101	-4.8005	19.3972	4.0076	-13.1638
5040.0681	0.6065	34.8338	28.0909	51.2408	16.2035	53.3073	-18.4866	-5.4124	19.3728	-18.7352	32.0218	39.2754	0.5174	38.2938	-2.2755	-25.3661
5048.0682	0.0887	27.6090	18.4709	49.4254	16.2690	37.4486	1.8293	10.2765	19.2413	-16.2905	28.2677	31.9532	2.3770	42.9677	-2.2808	-20.6339
5056.0683	-1.8767	20.3736	10.2261	39.8485	16.0149	27.9840	3.9822	11.0957	11.6637	-26.9830	11.7095	22.7971	-0.3387	34.3311	0.4736	-12.6985
5064.0684	0.9184	22.4171	4.2787	33.9324	3.9627	42.0344	-14.1469	-3.6020	8.2032	-30.8446	14.8546	16.5001	-1.1398	37.1221	-0.5195	-9.7924
5072.0685	-0.4353	19.2632	6.6292	35.1415	-3.4237	39.9425	-14.2335	-9.9481	10.7346	-24.9763	3.4372	14.4499	-2.7310	38.8292	-3.1589	-9.3526
5080.0686	-0.9451	19.8901	11.7748	33.5438	3.4424	40.8873	-2.5402	0.3985	11.2366	-23.1428	3.0203	19.4669	-1.6264	34.3679	-0.6265	-6.5306
5088.0687	3.0688	12.1634	-4.1375	19.8010	-2.5759	28.7918	-2.1400	-1.9011	1.7191	-31.0516	5.9944	3.8199	-0.6885	27.3300	5.0665	-1.4547
5096.0688	2.0328	-2.9482	-20.4976	6.4270	-23.5984	3.4118	-13.1152	-3.6166	-14.5316	-51.5280	-19.5637	-17.7466	-2.2870	7.0271	8.5331	3.4472
5104.0689	4.1797	0.2526	-12.3404	17.6847	-20.9416	10.7328	-5.3479	-0.4529	-16.1236	-51.1575	-21.5570	-8.9901	-4.9717	1.6878	12.2336	12.5842
5112.0690	7.4528	1.4568	-10.9129	8.3351	-9.6914	17.1021	6.3324	-15.6691	-7.4906	-36.6540	-5.1663	-10.6427	-4.7521	12.8826	12.0248	13.7102
5120.0691	1.0259	-10.6747	-22.3032	-39.8753	-19.1178	8.7922	1.3478	-14.3900	-13.0685	-50.2589	-22.9419	-33.3471	0.9032	0.1496	9.4272	11.3737
5128.0693	0.8754	1.2982	-5.2809	-5.2402	-12.2126	20.5600	-1.4197	-2.2239	-9.0631	-41.8363	-19.2519	-8.3471	-2.0355	2.5081	8.4389	12.1624
5136.0694	5.0275	19.7786	13.0471	65.2994	5.6052	21.6332	-5.0008	0.9711	7.5791	-7.5998	13.3737	27.8694	-7.3565	28.9589	1.7210	2.7627
5144.0695	1.7144	14.1500	9.3899	19.9156	7.8635	25.1659	-0.0463	9.8003	9.2930	2.7870	12.5045	17.4095	0.6513	24.0588	2.4914	1.4961
5152.0696	1.7782	10.1105	7.4048	-36.0526	5.7887	49.9963	1.6691	-0.6858	12.4853	26.0625	10.1849	5.4096	6.8747	22.2376	6.6462	4.7310
5160.0697	4.1492	-1.0702	-13.5094	-4.3814	-14.7115	10.1640	-11.9845	-16.6361	5.8179	27.7363	7.2222	-9.4944	0.7084	23.9663	-2.6645	-2.0423
5168.0698	6.0200	-19.2688	-27.7673	19.5041	-31.7979	-45.6652	-3.4774	-5.0162	-15.9744	-10.9255	-17.6502	-26.0609	-5.5773	-4.8799	3.2510	11.1113
5176.0699	9.6406	-15.6851	-15.0406	-24.7484	-26.0957	-9.7160	6.1020	2.9062	-12.7790	4.9028	-17.9538	-22.8946	0.1612	-5.8781	19.5162	31.0248
5184.0700	10.4281	-14.5968	-18.3512	-44.9535	-24.5883	9.7632	6.3993	-11.6981	-5.4486	32.1679	-10.7261	-26.2964	2.0521	5.3427	16.4661	27.7457
5192.0701	9.4450	-14.1928	-8.4952	12.3507	-11.6574	-25.2585	12.2110	-17.9431	-6.7992	25.0261	-10.9125	-10.8108	-8.3200	-7.2426	10.0909	19.1265
5200.0702	6.3078	-2.1060	11.1963	18.0974	0.5488	-14.9495	-1.3892	-5.1239	6.1370	46.4864	6.8920	10.3174	-4.4970	0.9633	3.4936	13.3466
5208.0703	4.7892	-2.8124	4.7616	-16.7177	-4.9663	2.7681	-1.8745	-4.8325	11.0948	65.3327	14.7374	1.5671	3.0073	7.2312	-2.8945	9.2788
5216.0704	6.7997	-2.7657	8.5471	-2.6508	-0.2462	0.6171	11.5618	-8.6918	8.7133	58.6305	12.0486	5.5878	-0.5704	1.0180	0.9209	11.0579
5224.0706	4.5763	4.3286	16.2149	-8.1915	2.0448	12.8382	-0.3879	-2.8516	13.8359	53.9310	18.9408	11.5896	2.5790	8.1036	-1.8270	9.7778
5232.0707	1.3736	9.1198	19.4550	-1.8340	7.3068	14.2121	-7.3578	-7.3636	17.6511	48.6917	28.1755	15.7611	2.5750	9.7691	-12.3039	0.7902
5240.0708	0.3862	10.0664	21.1276	11.2862	13.7249	3.2289	-4.1099	-0.1085	20.8592	52.4130	33.3558	21.1414	2.6635	13.5413	-14.2087	-4.3365
5248.0709	0.7365	-5.2982	2.3839	-26.8865	-4.6220	-13.5030	-0.9436	9.7781	8.8826	37.4991	19.3052	-5.3808	8.5107	0.4588	-7.6911	2.7097
5256.0710	1.5917	-9.6491	3.6655	-20.9991	-3.8420	-19.5267	6.1507	-2.6986	-6.4477	9.4155	4.1733	-8.0608	1.6342	-31.6000	-3.3576	7.8008
5264.0711	-0.4169	3.7620	17.0703	-4.9669	13.9353	1.0903	5.9197	2.5663	2.4200	18.6538	15.6390	13.0119	1.2265	-21.3570	-5.8529	1.0803
5272.0712	-1.4563	2.8932	6.1377	-25.8596	10.4604	2.6589	6.9009	20.6548	8.4541	23.3636	25.4729	4.3092	10.1670	-0.7132	-6.3093	-2.3358
5280.0713	-3.1769	0.6915	8.2280	-16.2614	10.4599	-6.4008	8.3526	19.1411	4.4852	4.6471	12.6377	3.9065	6.4623	-7.4389	-5.0476	-0.3300
5288.0714	-4.2430	5.3205	18.4301	-7.4759	13.3609	3.0885	5.2225	6.6649	8.1494	3.3162	10.6991	11.3918	3.7328	-7.9843	-7.4873	-5.5569
5296.0715	0.0073	6.5437	14.0697	-14.6832	11.9780	5.3058	7.7513	7.6532	8.9334	7.8420	30.1667	8.0540	8.5081	-4.9278	-5.8153	-9.6202
5304.0716	-0.3634	2.0570	9.1115	-24.3607	12.2186	-2.1070	14.8561	24.2817	6.2146	7.1825	23.1183	4.0682	10.8778	-4.9938	0.7981	-3.3183
5312.0717	-1.6017	-8.7849	0.4310	-31.6616	0.9971	-15.7595	10.7109	9.9982	0.5853	1.3865	-0.3908	-10.5091	6.2993	-10.2873	1.9450	1.8739
5320.0718	-0.5538	-13.9532	-13.2406	-34.3425	-9.8071	-23.7264	-4.5254	-12.7345	-10.9520	-20.9705	-2.9112	-25.9406	2.1638	-23.4202	-2.8636	0.7153
5328.0720	-5.5967	-12.8657	-13.6449	-49.9717	-4.9193	-13.4565	4.0887	4.7457	-12.1475	-33.1041	-11.1500	-25.6652	5.9489	-25.8270	-3.2156	0.6572
5336.0721	-5.2401	-6.9887	5.7572	-32.9655	7.0777	-6.3257	18.1757	13.3961	-2.8556	-10.5069	-11.6309	-5.7115	4.3138	-21.6668	0.4171	4.6085
5344.0722	-0.4277	3.1338	16.4053	5.6483	11.4476	-4.9828	2.5479	10.3319	0.4243	9.6227	5.5274	14.2905	-0.6089	-16.4986	0.0288	5.9153
5352.0723	-2.8520	9.7556	17.5225	18.7429	16.8514	-1.3403	-3.1276	20.9315	5.6971	11.0803	12.8391	23.0692	0.9437	-3.4505	-3.8613	-2.0967
5360.0724	-3.7113	5.4653	14.1174	-6.4142	25.1182	-4.2571	8.6837	12.5308	12.6752	18.0166	20.4516	13.3436	4.6714	3.0502	-5.2385	-7.7640
5368.0725	-1.3157	-17.3503	-19.0559	-55.3632	0.8929	-23.4497	8.4775	0.9157	-6.6798	5.6448	-0.8828	-27.5268	6.4578	-16.3603	1.9496	1.6560
5376.0726	-0.2293	-23.0339	-30.1226	-25.2984	-21.0201	-33.9464	-1.6720	10.1457	-27.5809	-11.8031	-32.6684	-28.8446	-1.4874	-36.2216	7.9977	12.2350
5384.0727	-0.9232	-10.1203	-7.5260	6.3213	-2.4956	-22.7812	-2.4252	8.8800	-13.3265	10.6325	-22.8825	-1.8723	-5.9070	-22.1800	4.8728	11.0840
5392.0728	-2.4808	-17.2040	-3.9982	-31.3277	4.9095	-26.3824	11.1026	-10.9685	-0.8986	17.6823	-21.0011	-15.7455	-2.1557	-13.3721	4.2668	6.8394
5400.0729	0.5617	-4.8510	15.4830	10.0948	7.2453	-21.2484	6.2869	-9.2525	0.5925	7.5022	-8.0378	6.3027	-5.0906	-17.5298	3.8317	3.0269
5408.0730	1.2890	11.2008	20.7127	32.6709	18.4367	-4.4646	-4.7842	11.6350	6.8831	21.7858	20.5099	27.7484	-1.7508	-2.4719	-0.8610	-2.3436
5416.0731	-4.7947	-6.1438	-8.9636	-20.8466	8.6689	-12.0732	-2.0977	6.9973	-0.1623	17.7392	-2.7387	-5.6223	2.2725	-4.2510	-3.3453	-5.0176
5424.0733	-6.3346	-0.2677	1.2820	-4.5950	6.9973	-0.3443	-9.9590	2.7474	0.3448	16.7783	-10.1094	5.6508	-1.1523	-7.2856	-5.6393	-7.1428
5432.0734	-2.7989	4.6786	2.4780	6.0119	11.0848	4.7328	-3.8407	9.6962	6.5119	32.3710	6.1276	12.7298	0.7194	6.7742	-4.5009	-6.6245
5440.0735	-3.1850	-6.4631	-9.8347	2.9292	4.6593	-11.3404	6.4284	-3.1623	-0.0547	24.4460	-9.7063	-2.3544	-3.1347	-1.2915	-5.3180	-6.1141
5448.0736	-7.8825	8.2527	14.7549	27.1117	13.4959	4.7720	-6.7273	0.7705	11.8958	33.5396	-2.7255	23.7767	-3.4130	4.5246	-14.4005	-17.6727
5456.0737	-7.5426	0.3290	-3.0293	0.6853	7.3061	-5.7583	-0.8051	14.1370	9.8894	35.4163	2.6518	6.9319	4.2619	9.6206	-12.6174	-20.2971
5464.0738	-2.9429	-16.0253	-27.8225	-8.9352	-10.3151	-23.0440	11.7377	7.4381	-13.4399	3.8855	-21.5390	-19.2483	-0.4161	-13.4686	-1.6337	-5.4650
5472.0739	-2.5552	-1.8540	4.3488	10.2317	1.2526	0.5571	8.1326	6.3717	-1.1543	11.7869	-20.4778	7.5159	-3.6868	-5.2071	2.5084	2.5958
5480.0740	0.6980	-6.9498	3.0836	-4.4609	-2.1506	-6.9929	5.6683	-7.7787	2.7836	21.5335	-15.3767	-2.2536	-3.2406	0.2606	4.6528	7.8203
5488.0741	1.9427	-16.2530	-20.9401	-3.2073	-21.9206	-18.4701	-1.5079	-18.3475	-13.0573	3.3863	-26.1216	-21.8040	-6.3184	-11.8621	0.8767	7.1485
5496.0742	-4.4504	-3.4021	-3.2343	16.9921	-8.7834	-4.0811	-1.5547	5.7834	0.5359	16.6082	-23.9479	3.3338	-3.9161	4.8198	-4.8988	-1.2133
5504.0743	1.1691	4.1308	9.3533	25.4954	0.2921	1.3712	-0.0621	8.5950	6.8640	26.5899	-2.8526	15.4537	-2.3110	11.5032	2.3767	2.2241
5512.0744	8.0227	-2.2025	-4.8603	13.5275	-17.3971	-0.0650	-7.0328	-13.7769	-4.5288	11.2177	0.8015	-3.6179	-3.0042	0.9989	6.6455	4.8270
5520.0746	0.3381	-12.4116	-12.1295	-2.1801	-19.4509	-11.5509	-0.0062	-10.4054	-7.5147	8.6452	-26.2913	-13.9316	-4.0857	-7.1107	1.3439	4.1764
5528.0747	0.1397	-6.7080	-8.7121	8.3665	-10.1656	-6.7901	3.1080	4.6532	-8.9885	9.8851	-19.1418	-2.8497	-3.9266	-10.2169	1.5268	6.6508
5536.0748	4.7876	-3.1198	-13.5946	7.0740	-14.8429	0.1935	-5.9587	-10.2628	-8.4633	2.7531	0.6225	-8.2055	-2.2506	-3.4079	0.4605	1.2198
5544.0749	0.9797	-13.1185	-21.2325	-5.0341	-20.2419	-11.4931	-4.8818	-22.9905	-12.8378	-6.8861	-21.4695	-22.0560	-5.5901	-11.0838	-1.9201	1.4118
5552.0750	1.4067	-5.0689	-12.2181	9.7065	-16.9416	-0.9552	-5.6473	-4.1302	-13.7128	-10.5143	-19.0121	-7.3692	-4.7369	-11.6656	2.2888	4.9656
5560.0751	3.5352	2.2386	-2.0577	13.2309	-9.3681	3.2963	-12.3111	-14.1040	-3.4946	-10.0418	2.6295	-1.3682	-2.7728	1.0378	1.1927	-2.0675
5568.0752	-2.0256	-3.1685	-10.6418	3.1096	-3.0458	-4.3358	-7.6920	-26.6705	-2.2588	-16.7845	-5.7350	-11.4554	-4.7756	1.9154	-7.5243	-9.8755
5576.0753	-6.3206	-0.1418	-14.9975	11.5503	-3.4003	0.7500	0.9310	-1.1996	-1.6048	-26.8590	-11.9548	-7.3176	-1.6317	11.9994	-10.1077	-13.2226
5584.0754	-4.7940	-2.0296	-7.8623	5.4878	-0.1526	-5.3656	1.0663	-10.8855	-1.4951	-43.3541	-15.6554	-10.3208	-2.9520	8.8412	-1.8738	-9.6045
5592.0755	-3.3834	-7.8054	-19.0319	-10.1430	3.8452	-8.5330	2.4736	-24.7157	-12.2061	-57.7753	-20.6531	-22.1989	-5.7056	-5.9074	4.0258	-7.7485
5600.0756	-4.2050	-4.9352	-25.0758	12.0449	-6.2708	-10.5592	-1.9284	-5.5559	-14.5266	-57.8182	-19.7296	-17.3078	-4.3439	-0.1186	-1.1887	-11.0644
5608.0757	-4.9907	4.4412	3.3218	34.1279	-9.7263	-7.2141	-16.3124	-5.6930	-3.9487	-57.4444	-16.2167	1.4459	-4.9521	2.9342	-5.1983	-11.0258
5616.0758	-1.6084	13.2845	16.0492	28.7581	1.1980	13.6895	-4.5771	-3.3949	6.1082	-47.9846	2.7529	11.8845	-0.6118	14.1853	-0.1373	-11.6536
5624.0760	3.7686	15.6392	13.2613	34.2981	9.9042	21.6446	15.9683	6.5843	9.6446	-28.9754	13.5671	17.3265	0.7183	27.2649	9.2384	-6.6703
5632.0761	2.3697	24.9858	32.8676	41.7710	24.4277	31.6230	7.9135	10.2318	17.4437	-21.1892	18.1440	35.6957	-0.3686	30.6731	11.7222	-4.6075
5640.0762	2.6366	27.8453	28.1133	40.8293	25.9612	34.4062	5.4771	9.6933	22.7249	-13.3507	33.5895	34.9100	2.9229	42.5029	6.6229	-13.6071
5648.0763	10.5692	16.7681	7.9799	52.2876	6.2183	21.2140	11.4433	-4.5197	7.6803	-5.7756	26.1581	20.4421	-2.1695	28.7269	11.8504	-8.4589
5656.0764	12.1017	19.3429	15.2839	52.8363	1.7453	29.4602	-0.6895	5.7767	1.4872	-4.0905	17.2310	28.1629	-3.4213	18.6273	20.3247	4.7043
5664.0765	10.0720	12.4654	-4.5753	14.7601	-12.3513	31.7200	-15.8989	10.8801	2.4981	3.8851	13.5901	7.2439	2.7000	35.7959	17.6278	10.4064
5672.0766	10.4560	-3.3299	-22.2107	-2.0510	-31.6529	19.6342	-14.8298	-12.9154	-6.8046	5.1890	-10.8121	-16.8201	-1.7295	24.7831	16.0643	14.9185
5680.0767	10.3061	6.6180	15.1074	37.2272	-4.9672	7.9053	6.6378	0.8112	2.6310	-1.5363	-2.0374	14.8818	-5.1893	15.1105	20.1404	16.8649
5688.0768	13.3815	8.4711	19.4025	31.9668	7.2217	-0.3472	13.1186	11.3871	4.2213	-3.3206	18.0819	17.7658	-1.6262	13.4428	25.0872	20.9659
5696.0769	12.4339	2.3442	3.2341	10.3801	-4.9454	10.2876	0.4015	-4.7611	-6.1612	1.0697	2.7891	3.6174	-3.6644	2.4184	23.6696	20.7406
5704.0770	9.4978	14.7802	29.6011	52.8493	17.7672	7.4065	9.1992	0.5981	14.1146	28.2627	19.2188	34.4202	-6.1157	18.7156	13.7679	9.3053
5712.0771	11.0628	9.9120	21.8911	23.2620	14.4152	5.7321	6.3731	-5.2775	14.0628	51.0841	34.2441	23.9364	-0.4038	10.9941	9.7099	3.8866
5720.0773	6.1676	-6.4803	-8.8992	-39.5842	-14.8794	17.2401	-12.4785	-13.8390	-9.6389	37.4850	-1.5504	-10.7597	2.8165	-19.6764	9.6142	4.9475
5728.0774	2.7063	-4.9981	-2.1886	-7.0599	-6.7911	-2.7284	-5.7293	-1.1735	0.3315	42.1242	-3.5566	0.1347	0.0924	-2.7160	3.8999	3.0060
5736.0775	5.7992	-5.0751	-4.9395	-2.5148	-5.5233	-7.9519	-6.9516	-3.8948	3.3181	66.8685	11.5667	1.5539	0.3432	0.8123	0.5369	2.9219
5744.0776	3.9370	-2.9250	-4.5143	-10.0874	-7.8971	12.1498	-14.2382	-4.9528	-5.2744	72.3215	-0.5508	6.1230	-1.5363	-17.2894	0.4949	4.3735
5752.0777	3.1605	8.0903	17.5668	27.7470	12.4589	8.4956	-0.4763	7.0425	14.9631	91.9775	16.0917	31.7044	-2.6596	8.1564	-3.9982	1.8897
5760.0778	4.6074	0.7896	9.2886	10.6642	8.1218	-5.5683	5.5545	2.8732	19.8631	102.9535	25.7540	17.8856	1.2115	16.2395	-7.7262	1.7301
5768.0779	2.1990	-12.5368	-6.1302	-23.1645	-6.2342	-11.7758	0.9468	-4.3571	-0.2454	81.6371	1.1282	-3.9940	0.4502	-18.8462	-6.4068	6.6546
5776.0780	1.3763	-4.3866	5.0073	-28.3398	2.0467	9.4290	-3.4704	-9.3605	2.7570	85.2511	8.6198	6.0493	0.7590	-22.7554	-8.6568	5.3511
5784.0781	2.6354	2.8034	12.6852	-23.4845	7.5926	20.2305	-2.8459	-16.7876	15.5074	91.6869	24.8936	11.8477	2.5706	-1.8877	-11.5323	-0.0483
5792.0782	0.9824	-3.8990	10.3244	-14.7293	5.5462	-10.3962	4.9803	1.4158	12.4157	67.7114	17.0557	6.5672	3.8496	-4.0780	-8.0486	0.8475
5800.0783	-0.8665	-6.0932	9.5270	-36.3125	7.5371	-13.0285	4.5100	14.4159	6.1550	48.5788	14.6280	1.2827	7.6245	-16.7775	-4.2071	5.8601
5808.0784	0.1799	-5.3937	6.8201	-32.9942	7.4628	-6.1753	1.0891	-6.1643	3.6395	36.5628	11.9499	-2.6667	2.7906	-17.0919	-5.3904	6.9417
5816.0785	-1.2321	-5.2296	3.6321	-1.7837	4.1439	-24.2532	1.3574	4.4996	1.4075	16.5874	8.3434	-0.2168	0.0369	-12.2635	-9.2967	5.4152
5824.0787	-3.5683	1.2264	8.7240	-16.6472	11.0453	-8.8640	0.7774	25.5600	-0.9606	-10.7079	9.6264	3.5473	4.3733	-13.2067	-4.6831	13.9656
5832.0788	-4.6705	3.7461	12.6088	-29.2587	18.1849	8.3398	0.7970	7.4951	0.4868	-22.9617	4.4711	1.5916	1.3798	-11.8647	-3.9848	17.8249
5840.0789	-8.5717	-2.3425	1.8235	-20.7279	10.0255	-14.1915	2.3618	10.4835	3.0755	-20.6897	5.1273	-6.8536	3.0188	-6.3336	-17.9077	5.4668
5848.0790	-8.1907	-3.4912	-3.7699	-27.3903	8.5569	-19.0513	4.7608	18.5678	-1.4307	-41.1330	9.8848	-13.2586	5.9821	-9.4283	-16.5629	6.1155
5856.0791	-6.6568	-1.8786	-2.3251	-38.5776	7.0028	-0.4734	-2.8446	-1.3723	-6.8741	-58.2608	0.9781	-17.2787	2.0147	-15.7330	-11.0705	13.4012
5864.0792	-8.6797	-5.8399	-13.6058	-48.6849	-5.4004	5.0814	-4.8868	-1.5574	-9.2628	-49.1746	-7.3915	-25.7824	3.4454	-14.9965	-17.4137	10.9754
5872.0793	-5.0755	-6.8549	-16.3187	-43.3286	-2.1081	2.9737	6.3216	2.1485	-12.7579	-51.9651	-6.4406	-25.7022	2.2042	-15.8854	-9.6280	17.2999
5880.0794	-4.4396	-5.7669	-9.5550	-23.5754	-3.3754	-5.7493	1.1887	3.4617	-15.8773	-65.0264	-13.0703	-19.8073	-1.7714	-20.8735	-6.3142	21.7494
5888.0795	-7.6643	-4.2746	-13.0722	-20.0621	-8.3729	-4.3854	-3.5581	14.6291	-14.1216	-60.0212	-12.9946	-18.2903	0.6139	-15.3353	-14.0846	16.9634
5896.0796	-6.7735	2.7625	-6.9583	-32.7286	7.8826	14.7661	-1.5572	10.1337	-5.8563	-45.1926	1.8395	-11.1814	2.5290	-5.0224	-11.5136	15.7742
5904.0797	-9.4585	5.1767	3.8631	-26.9617	7.3572	10.5343	-11.0047	15.9895	-1.1990	-43.7676	-1.1338	-3.5522	3.7889	-3.9892	-12.2154	10.2295
5912.0798	-8.6302	8.0784	5.9811	-4.7468	3.7057	7.1038	-7.7940	21.1313	2.1890	-43.1886	3.0279	2.5325	4.1062	4.2156	-14.0103	3.1086
5920.0800	-3.9645	10.5088	5.9893	-13.7590	13.8676	17.0317	-0.4424	0.7670	4.8758	-38.7030	21.7647	0.4062	3.8791	5.4047	-12.0144	0.4862
5928.0801	-5.6001	-0.7424	-3.1889	-24.8213	2.3637	-1.8951	-0.4555	4.5822	-4.8211	-41.8259	4.5364	-11.4767	4.5087	-12.5551	-9.9901	-1.4302
5936.0802	-4.3611	-3.6235	-7.1848	-12.9388	-2.9512	-6.3008	6.9527	10.4087	-4.3943	-29.0740	-4.6275	-10.3725	3.7353	-5.7425	-5.1319	-3.1191
5944.0803	-3.0408	-6.1922	-12.6995	-28.5531	-5.3075	-4.2006	7.0928	-6.0749	-1.9189	-29.6107	1.8682	-20.9818	5.4162	-1.1058	-6.5830	-8.7829
5952.0804	-6.5656	-14.3789	-16.6660	-26.2998	-16.1849	-25.6941	3.7727	7.3150	-13.2326	-48.2144	-19.5796	-26.6993	4.8566	-20.9995	-5.2853	-8.4739
5960.0805	-4.7533	5.7175	15.3119	10.1723	4.3743	-4.6195	1.4871	25.1727	2.4430	-21.7108	-0.2064	12.4147	3.9660	-4.7651	-1.7474	-4.3792
5968.0806	-3.1661	13.8600	14.6334	-0.3972	13.3136	14.4602	-3.4992	12.4661	14.7411	0.3602	29.6293	14.7402	8.2967	14.8417	-9.2493	-15.6348
5976.0807	-8.8769	-10.6353	-24.7183	-17.7761	-5.6210	-18.3575	3.2058	7.7864	-5.9536	-11.4122	-10.9677	-19.1144	4.7831	-5.6055	-12.5455	-22.4914
5984.0808	-9.9025	-12.0569	-4.8842	-5.6700	-5.0401	-26.6253	4.7159	10.7977	-6.2443	-11.4995	-31.2417	-8.1057	-0.1662	-19.1616	-6.4002	-10.8400
5992.0809	-2.8915	2.0291	19.5358	-3.1088	4.1583	-3.0286	-1.2819	-0.9614	4.6792	-7.3174	-2.1561	7.8826	1.7311	-11.0394	-0.0150	-6.9639
6000.0810	-3.1573	1.6894	-0.0974	5.7210	7.6129	1.0355	-1.9489	-5.4114	2.7525	6.7284	-2.4326	4.8023	-0.7605	1.8176	-1.5578	-16.4644
6008.0811	-8.7339	-4.8251	-7.0957	-0.1823	-0.6443	-11.7935	-13.5409	0.2297	-0.0939	5.5086	-21.5216	-2.2641	-1.1299	-0.1583	-5.6292	-18.1943
6016.0812	-5.2950	-8.5589	-9.4441	-23.0509	-8.8627	-11.2520	-16.1332	-8.3203	-5.4005	-11.2417	-17.3169	-14.9845	1.4880	-9.6191	-1.3013	-11.9168
6024.0814	-1.1834	-17.4653	-25.3740	-18.4948	-18.7938	-23.6833	-0.1365	-11.9223	-12.5435	-6.3073	-19.7584	-26.9502	0.2419	-14.3485	-0.1743	-10.8851
6032.0815	0.1963	-32.4670	-39.2824	-20.2633	-42.6399	-47.2390	5.6683	-4.6193	-29.3646	-28.8158	-48.8585	-44.9491	-1.4039	-33.4893	8.0772	-1.5420
6040.0816	4.7114	-22.5208	-31.1045	-18.1880	-25.4954	-17.3364	8.9167	-14.2674	-31.8024	-41.0630	-46.9394	-34.2071	-6.8061	-31.4922	22.1651	12.7196
6048.0817	3.9776	-4.1964	-11.4909	6.3714	-1.4850	5.3804	6.9824	-16.8210	-10.1463	-7.8584	-16.8953	-6.3343	-6.9533	-3.9779	12.3691	3.0401
6056.0818	2.5782	-6.1552	-13.2614	10.8288	-18.7755	-12.1115	-7.8200	-10.1480	-5.4032	-7.1509	-8.1732	-11.5458	-1.3041	3.4384	2.4164	-8.2397
6064.0819	3.4682	-1.8549	-12.8019	14.3339	-10.0371	-2.9674	-10.8303	-21.0675	-3.3882	-12.2654	-4.1136	-9.2466	-4.3853	11.6242	4.0195	-6.5500
6072.0820	-3.1213	-1.3449	-4.2434	8.9158	1.6726	-3.2793	-5.2939	-20.2604	2.6574	-13.7653	-12.7883	-4.6659	-4.7422	10.9179	-1.2718	-11.9659
6080.0821	-3.5910	-9.9719	-9.7803	-8.9955	-7.9097	-14.1486	-1.1885	-19.7762	-8.5308	-42.3384	-26.2418	-19.0778	-3.4617	-8.8874	3.2385	-8.8605
6088.0822	4.0381	-5.4368	-13.8676	4.1894	-6.5579	-1.7206	-0.6788	-32.5511	-16.1340	-51.7334	-16.1236	-17.4690	-7.9502	-11.5454	11.2989	-1.4501
6096.0823	3.1689	2.9249	-2.0256	19.4524	-8.4042	6.4448	-4.7528	-11.8495	-9.5942	-42.5795	-9.7704	-1.8515	-4.2039	-2.9313	9.9129	-4.0967
6104.0824	3.8636	11.1213	16.1722	28.3163	2.4604	11.4596	2.8687	9.4311	3.9144	-25.4287	2.6768	16.0289	0.0802	13.3520	14.2650	-1.0746
6112.0825	7.2653	6.3523	5.4640	26.2785	-1.5068	3.1081	1.1066	-3.8544	1.4453	-23.3853	6.3613	5.8309	-1.3150	15.9414	16.2170	-1.9906
6120.0827	1.0835	-0.6932	-5.3932	10.5995	-17.9297	-2.4957	-12.0259	-4.5794	-8.8863	-50.9526	-15.2760	-9.3019	-0.5515	1.7799	9.6592	-6.8861
6128.0828	-2.7064	9.5035	10.3327	18.0611	7.6547	10.8681	-0.7487	7.1849	3.4134	-45.5635	-9.4478	9.3115	-1.0760	16.4692	8.9201	-3.9731
6136.0829	0.7720	5.5232	-4.1455	16.8350	10.7178	6.3527	4.1012	0.2549	0.0780	-38.4920	-6.1878	1.3888	-3.2154	22.0201	13.4023	-1.3618
6144.0830	2.6798	0.7459	-8.0110	24.7779	-6.1278	-4.8372	-7.8770	-9.2556	-11.3459	-57.2231	-15.0881	-6.3371	-6.6980	4.6386	12.7111	2.2189
6152.0831	2.7947	5.3807	4.9168	30.9230	-1.7385	-4.6114	-5.1799	-5.5485	-3.6507	-47.8890	-1.8508	3.0869	-4.7194	6.0951	7.5109	1.2543
6160.0832	0.4648	-2.6140	-21.8300	-6.1085	-14.5959	9.7104	-1.6829	-1.6656	-14.2160	-46.5838	-14.1209	-17.5579	0.2699	1.0351	6.3475	-2.7293
6168.0833	-2.2022	5.1212	-8.1088	22.4108	-5.8570	16.2110	-1.2615	2.2495	-10.4990	-46.1422	-20.6031	0.8955	-4.4580	2.8806	4.5273	-4.3355
6176.0834	-1.8303	15.1641	18.4748	50.4851	16.2993	3.4452	0.3646	2.5815	14.3296	-14.8129	8.7015	24.6787	-3.6755	26.7078	-1.1386	-13.4718
6184.0835	-0.7002	5.6371	-10.2699	6.9715	4.9097	12.2181	-3.3568	-12.6458	4.9239	-19.9609	5.3434	-3.7220	0.0681	25.8341	0.9882	-17.0581
6192.0836	0.1734	7.7195	-10.5137	29.6910	1.7350	14.4645	-8.0917	-10.8902	-5.3337	-36.2861	-7.6286	2.1719	-6.2229	15.7593	5.0777	-9.7814
6200.0837	0.0240	17.0270	10.8110	47.7722	12.1327	18.7715	-5.5384	4.7046	7.4661	-9.9695	6.1646	24.5287	-4.9618	24.4008	1.4211	-5.6843
6208.0838	1.3739	21.4783	15.0586	22.4670	18.7715	45.4974	4.4009	-1.8316	16.9329	10.9697	19.8152	25.3745	-0.3148	34.4132	0.3786	-5.5427
6216.0840	6.4304	18.5668	13.3656	36.9211	9.3826	26.5208	-7.9139	-3.0985	14.6992	17.7072	25.1041	24.1138	-1.3993	35.0578	5.7493	-3.3881
6224.0841	7.4518	5.6621	-3.4181	28.4033	-11.6257	6.1498	-20.4043	-1.9788	1.9999	21.1183	7.0189	7.4538	-2.9175	22.4144	7.9894	5.1156
6232.0842	2.8627	-2.0534	-8.5944	3.7829	-9.6484	14.0171	3.2794	-12.1103	-1.6240	10.7507	-13.8615	-4.5895	-4.2868	10.0658	4.2884	6.4849
6240.0843	1.7885	0.5176	-2.8998	-11.1746	-0.6259	17.1844	6.5300	-4.7817	3.3852	17.4923	-1.0389	-1.2964	1.0539	9.2677	3.6581	1.1246
6248.0844	3.9322	11.9941	6.8619	13.1908	7.7012	26.6754	-10.3916	4.5243	8.5265	51.9082	16.8536	21.4718	0.1425	15.4707	2.7910	-0.4708
6256.0845	5.4817	14.4112	17.1314	69.5992	15.7720	0.3029	-1.9383	4.6404	20.1429	77.3763	24.5955	39.3939	-6.5896	31.0673	-3.1211	-5.3638
6264.0846	6.9486	-0.2897	-2.1559	17.6956	4.7688	-9.0631	0.5143	-3.7201	15.9909	76.8020	20.6766	9.1450	-0.8567	29.4361	1.4819	0.2717
6272.0847	3.4859	-2.9605	-10.0743	-37.6664	-0.4492	31.6296	-7.7272	-16.0534	2.6684	79.2258	-1.8876	-2.0860	-0.0087	3.4625	4.1474	7.1304
6280.0848	-0.0842	3.4206	4.2428	1.0187	2.0612	25.9245	-4.5023	-1.5461	11.0561	102.7984	0.4757	19.9486	-1.2771	5.6637	-7.4155	-3.1337
6288.0849	4.4561	0.6230	3.4247	14.1196	-1.4606	-1.1745	1.3395	7.8937	18.6257	109.3894	20.6871	17.2294	2.7769	20.8100	-7.0912	-4.2800
6296.0850	6.3162	-0.3706	7.5445	27.5311	0.3533	-6.4017	2.3072	-2.1123	12.5988	101.5483	13.9644	20.2316	-3.0121	7.3665	-3.3861	-0.2097
6304.0851	2.2732	3.3703	9.9270	-4.4464	-0.0178	21.4754	-1.6175	-0.7975	14.2438	110.2568	15.1477	19.9611	2.4202	1.6166	-9.9547	-3.5545
6312.0852	0.7778	0.7940	2.1782	-55.1955	-3.1503	34.7321	-3.7617	-4.2055	15.3507	96.9873	23.2937	1.7347	11.3484	3.5444	-11.1149	-5.5186
6320.0854	2.8670	-1.8301	9.3091	33.5884	-0.8019	-27.5278	0.5786	7.7618	7.3538	62.6418	15.6478	16.7643	-1.2102	-5.7322	-8.7935	-5.5290
6328.0855	4.4291	5.2977	15.2393	45.5074	4.6312	-21.8751	1.7841	21.8306	7.3080	48.9359	24.9046	25.7504	-0.5547	-1.7666	-5.8246	1.7149
6336.0856	-1.2564	-0.1796	-0.2200	-64.9252	-1.2095	20.3775	-14.0625	-6.8500	7.3499	31.2149	25.0206	-11.6137	11.2237	-4.0057	-11.3398	0.7334
6344.0857	-5.9547	-13.1967	-12.7924	-31.5430	-11.7896	-30.2378	-19.3224	-7.9153	-5.7860	-2.8297	0.1086	-22.8852	2.5952	-20.4275	-19.2543	-1.7348
6352.0858	-3.8076	-2.7116	-0.0691	11.0862	3.3211	-22.8582	5.0736	21.1073	-6.8208	-21.1078	-1.5694	0.5753	-1.6253	-15.0339	-9.4901	12.8852
6360.0859	-4.6053	4.7533	9.1775	-42.8678	14.6590	19.7409	12.7763	13.7581	8.0332	-11.1260	14.8737	-1.8874	8.2854	1.4632	-7.8999	10.9928
6368.0860	-3.8502	-4.1557	1.1303	-33.0264	2.8771	-13.5670	6.2497	10.1359	7.2677	-7.7784	16.4035	-11.8986	8.5372	0.6727	-12.1551	2.8594
6376.0861	-3.9962	-6.3088	1.1224	-21.0486	4.1452	-25.7977	7.2220	18.4192	-0.8168	-32.8644	2.9800	-11.4503	4.9397	-7.2274	-4.1197	10.3085
6384.0862	-8.2458	-4.6117	3.6326	-45.7850	7.5100	-13.8311	-0.1428	15.0212	2.3401	-38.6917	2.1743	-14.6635	8.2646	-6.8681	-7.5917	6.0174
6392.0863	-4.5151	1.5825	10.3079	-15.1967	6.1184	-9.0881	2.8910	16.2058	2.1701	-21.9532	13.2528	0.0805	5.9643	-11.5844	-10.5665	2.8407
6400.0864	-2.8729	7.6618	24.3244	11.6765	16.4837	-6.7726	6.9749	9.2593	7.5047	-15.6404	15.3369	15.4575	0.4469	-7.9671	-8.6615	4.2391
6408.0865	-6.8110	-0.3881	14.7728	-14.1300	13.8431	-25.5270	2.8716	6.8700	17.4888	-12.9094	17.8075	-1.9500	6.3423	11.2432	-14.3458	-4.6755
6416.0867	-5.7358	-10.9490	-2.1522	-38.8229	-0.1041	-30.5918	10.7430	15.5841	2.4842	-31.5225	3.1143	-20.5838	9.5885	-5.7670	-6.2816	0.0485
6424.0868	-5.1003	-5.3051	10.0366	-25.3871	9.7848	-16.4320	8.9977	9.6368	-5.5211	-39.3100	-8.1444	-6.2155	2.2993	-25.4817	1.1071	7.4033
6432.0869	-4.6088	3.8154	18.9322	-8.2702	21.8838	-7.5496	8.1116	10.2438	8.6316	-5.5555	10.5699	10.3274	2.8220	-5.8239	-3.8450	-0.5999
6440.0870	-5.0332	-7.3204	0.3984	-27.3682	5.9079	-16.8944	12.5418	12.7631	0.4133	-13.1314	-3.1776	-9.3076	5.7601	-10.4264	-1.8837	-2.5025
6448.0871	-5.6500	-9.1386	-0.1714	-24.7246	-1.8475	-23.0293	0.0959	7.7561	-10.0326	-44.0247	-13.9743	-14.2092	2.7302	-25.9811	-0.4171	1.0915
6456.0872	-1.3851	4.4628	14.4060	-6.7773	5.8577	-1.9824	0.8551	15.6859	-2.6160	-22.9641	11.1960	6.8579	4.6095	-19.1755	-1.1347	1.6947
6464.0873	-0.5359	-8.8170	0.7463	-22.8592	-3.1850	-18.0713	14.0169	10.0379	-6.6004	-16.3899	-1.2627	-10.7599	4.9170	-23.5630	1.2525	2.9760
6472.0874	-0.6667	-20.7085	-8.4831	-25.6828	-11.0583	-44.1467	18.4257	1.6124	-16.6363	-48.7791	-19.7100	-28.0226	1.5346	-35.7714	6.1811	6.1646
6480.0875	1.1881	-5.5916	7.1725	-14.2432	-5.8983	-9.0520	13.8011	15.0624	-16.4736	-44.3982	-12.5213	-5.5255	2.2446	-37.3555	11.1718	11.5090
6488.0876	1.3010	12.5297	25.9349	15.3291	8.7666	16.7276	1.0989	16.1996	2.3116	-5.3743	7.3228	23.9179	0.6036	-8.3855	5.3681	7.7345
6496.0877	3.6667	20.0977	33.4206	32.1984	19.2811	16.8225	4.5924	11.3544	18.2624	7.7745	32.4457	32.7428	2.0405	18.2147	1.4194	0.2789
6504.0878	2.8132	3.8513	9.8711	-14.9613	-2.1495	15.7837	6.5255	7.7286	2.1020	-4.8996	7.0041	2.5223	5.2370	-0.9483	6.4979	6.0961
6512.0879	-0.0112	-3.9651	-0.9966	-10.6912	-8.8298	1.9579	-9.2736	-6.1867	-7.2992	-8.5617	-15.7034	-6.2801	-2.5929	-10.9462	3.6729	10.1159
6520.0881	-0.1425	8.7917	17.5324	20.1322	15.3185	4.8863	-1.5396	-0.9252	2.9068	-3.4562	6.0836	17.8096	-4.5602	-4.4890	-0.3848	5.0451
6528.0882	-1.1043	2.5748	10.2855	1.1761	15.7493	-1.7631	16.7313	17.8542	0.8129	-1.0074	3.5405	10.7276	1.4357	-8.6503	3.6617	3.6543
6536.0883	-0.8515	-4.0939	-0.2088	11.1366	7.2511	-22.6958	10.8386	14.3773	-3.9020	-9.6455	-4.2482	1.6286	-1.0550	-8.0512	3.8771	1.7183
6544.0884	-6.0285	-5.9954	-4.6405	-17.4428	2.3931	-8.0393	-0.6640	-5.7839	-5.5568	-21.0333	-14.1649	-10.1711	-0.7518	-14.4813	-4.7037	-4.7273
6552.0885	-8.8688	-14.5461	-18.5540	-44.9122	-3.8540	-4.9569	3.5410	-13.5211	-7.2088	-11.4230	-27.5660	-25.7665	0.4637	-14.4792	-7.8366	-6.2033
6560.0886	0.0190	-9.9278	-7.8160	11.8902	1.9470	-27.0291	13.6334	-6.2630	-5.8793	-5.4546	-11.6860	-7.4513	-5.3378	-9.9537	0.8695	0.1700
6568.0887	0.9598	-10.0044	-2.1512	9.4437	-6.1406	-23.8462	4.9066	-12.7281	-10.8485	-17.2055	-18.3325	-7.9462	-6.0523	-22.2312	4.4300	0.9400
6576.0888	-1.0359	-15.5140	-17.5240	-11.6244	-17.7903	-17.9304	-7.1624	-23.1232	-16.6128	-16.7239	-29.7016	-22.4986	-5.4945	-24.1840	1.9598	-3.1760
6584.0889	2.3423	-15.2992	-17.5489	-1.1745	-8.7107	-26.8885	7.8499	-11.4952	-15.2263	-14.5714	-20.5756	-18.9549	-5.8419	-18.1118	7.1405	6.0473
6592.0890	0.3183	-19.4507	-16.2081	-18.1944	-4.1620	-28.4258	16.7407	-8.1987	-13.2484	-18.4346	-31.8620	-23.9024	-5.4226	-15.7326	11.4058	14.2678
6600.0891	0.0606	-12.5348	-13.8959	4.4416	-1.9523	-22.5672	-2.5016	-22.6150	-13.6527	-10.1476	-25.0507	-13.5411	-10.0442	-17.8098	4.7680	3.2213
6608.0892	-1.5043	-3.8311	-0.3437	22.3500	4.3391	-16.6842	-3.0175	-13.5315	-8.0188	-2.3251	-13.6286	3.4013	-8.6448	-18.9078	-1.3716	-5.0697
6616.0894	-1.8189	0.5522	11.5762	14.8831	7.0090	-3.1398	12.1178	6.5331	2.8384	-0.3612	-14.2397	10.3349	-3.1627	-0.6599	4.8340	2.4465
6624.0895	4.6920	11.3707	14.2834	29.4825	12.0772	11.8865	2.0584	3.3518	5.5208	10.9471	13.0642	21.2383	-2.9522	9.4015	7.3047	3.1322
6632.0896	-0.4204	5.0482	2.1296	9.9928	11.8479	7.3414	-1.4937	-7.5378	5.2959	21.6760	8.4463	9.8772	-1.9114	5.4840	-2.8391	-9.8405
6640.0897	-3.3874	-5.5667	-6.6539	0.4376	2.6804	4.5707	9.7360	-20.0371	2.4623	21.4360	-22.0984	-2.9730	-5.3907	3.6852	-1.3644	-11.1722
6648.0898	2.7731	-1.6939	-4.7988	17.4907	-7.1285	12.3258	1.8354	-17.4078	-4.8034	24.8838	-18.8449	4.0934	-7.2233	-3.2482	5.9197	-4.2045
6656.0899	1.6002	-1.7818	-1.1475	17.8764	-9.2956	0.3242	2.0524	5.5991	-2.7313	19.1559	-15.0216	6.1063	-2.1929	-0.5004	6.6876	-2.6324
6664.0900	6.7694	0.8564	6.5621	28.0644	1.0294	-1.6143	13.2936	-7.8770	-1.6864	-2.9030	-5.5423	7.5589	-5.8471	1.3539	14.4813	4.4351
6672.0901	6.7725	5.9813	4.4623	25.3283	6.0812	17.3564	3.9522	-26.7557	-3.8618	-4.1302	-0.8255	8.8089	-9.1043	-1.5631	10.5148	1.2872
6680.0902	-1.0986	11.4464	9.6328	31.9291	5.1798	22.8282	-0.1202	-1.2891	5.2106	4.5062	-5.5361	19.7060	-3.8513	12.2896	1.3107	-10.5729
6688.0903	7.6830	27.1511	25.1288	57.1908	17.7185	38.9882	8.0902	11.2239	15.4745	5.4783	27.9773	40.1614	-0.5377	34.6409	13.1512	-7.6666
6696.0904	5.9010	25.8602	6.4829	38.8312	19.8127	51.4653	1.1212	5.8139	13.4433	7.6540	23.6873	29.4482	-0.6779	47.4686	13.1275	-8.1251
6704.0905	-3.1841	10.0585	-7.4762	20.6782	3.1505	32.1430	-5.0393	0.8785	3.4983	-10.6735	-18.6156	8.5285	-3.9052	32.6061	6.3179	-8.2918
6712.0906	9.0277	14.5217	8.5307	33.9088	3.1824	28.4042	0.5590	-12.8524	3.9508	-18.0443	10.2884	14.1340	-3.9694	24.5140	16.9621	-0.5858
6720.0908	11.3209	18.5324	0.5735	38.2241	6.6910	34.2991	-1.6173	-10.1412	5.7194	-5.4580	27.3670	15.8707	-2.3711	35.1744	14.6872	-3.6467
6728.0909	2.4372	15.6514	-0.9194	31.8230	3.0785	37.0198	-2.3385	-1.8235	2.1105	-20.4274	-0.0156	13.5618	-3.6622	28.2186	7.7423	-4.1496
6736.0910	5.1644	23.0250	14.3037	26.8728	6.5545	53.4132	-1.8168	-6.3880	9.8944	-22.4512	12.3663	20.7091	-1.2162	34.7958	11.0562	-1.2283
6744.0911	5.2123	14.9930	-4.8056	24.1191	-5.0965	37.6246	-15.1385	-13.3578	4.0191	-14.5288	9.1226	6.5866	-2.5295	34.9502	6.0488	-3.4351
6752.0912	1.5649	7.4981	-7.5769	15.7186	-5.5825	21.3017	-7.3650	-5.9920	-2.4524	-29.1162	-3.5528	-0.6517	-2.9309	18.8009	3.4625	0.8770
6760.0913	2.6367	18.6560	8.4708	-0.3655	9.5711	50.4950	12.8758	13.9049	11.2884	-20.7230	15.6086	12.6319	5.5687	35.6995	8.7004	4.8090
6768.0914	5.3261	6.5817	-13.4858	-4.8861	-14.6110	34.9905	-2.1220	0.2961	-1.4921	-22.8038	0.5411	-8.1133	2.8376	28.4516	10.5294	5.9550
6776.0915	6.9590	-3.1960	-15.8928	19.3578	-24.6107	-1.8000	-12.0600	-18.7767	-11.7744	-40.6302	-11.8715	-16.1405	-6.2756	9.0858	8.6754	9.8223
6784.0916	6.2975	10.6173	3.2311	20.8573	-3.1737	23.8345	1.4177	-0.7896	4.5352	-12.5083	9.3588	7.0122	-1.8426	25.9600	6.5527	12.4102
6792.0917	6.7078	3.7802	-7.1176	-10.5306	-12.0631	22.8834	0.1358	4.4606	4.2983	6.9230	11.0804	-5.5182	4.6133	26.0438	7.2747	12.1415
6800.0918	9.0057	-0.3235	-4.3707	13.6865	-14.1465	-4.7779	-4.7158	-9.8582	2.1395	-2.7022	11.6610	-6.7556	-1.0973	19.1178	6.4076	10.7423
6808.0919	9.7590	13.1088	10.9331	23.0135	-1.3807	30.7653	-6.3553	-15.4148	4.7067	17.5803	19.2149	15.4094	-3.7694	13.4042	6.0151	9.4982
6816.0921	5.9200	8.0531	5.5860	-36.3408	-5.3598	39.6504	-13.6415	-5.3387	10.0452	47.9958	25.6787	3.6116	9.1285	12.0260	3.4330	0.6908
6824.0922	1.7345	-8.0517	-8.4628	-28.3954	-12.7594	-21.3098	-18.1792	3.8129	12.2683	44.4648	18.8683	-13.7355	9.6210	20.0325	-4.1266	-4.4002
6832.0923	4.0633	-16.5719	-16.9226	11.0290	-20.0801	-42.4403	-10.0889	-6.4889	-8.5648	21.5773	-10.8662	-15.7274	-4.7463	-7.7038	0.4452	7.6630
6840.0924	7.0702	-8.4720	-3.6234	0.7591	-8.3702	-14.2420	9.7954	1.7146	-5.8654	25.6298	-0.6267	-3.9877	-1.4723	-11.5534	7.9487	14.1977
6848.0925	6.7246	2.2167	4.5433	-13.1959	2.3919	8.5614	7.5907	9.6851	11.1085	45.8492	23.5059	4.7834	5.8633	16.1049	4.9233	11.1503
6856.0926	3.5679	-4.5881	-9.1378	-34.3343	-8.7488	13.6539	-8.6277	-11.6048	1.0515	39.7547	5.3531	-10.7177	2.8040	2.0526	0.2453	7.9819
6864.0927	-0.5903	-11.9076	-16.3670	-33.3711	-8.4970	-8.8491	-1.7206	-10.6602	-1.4402	31.2874	0.3871	-18.8970	2.2810	-6.1685	-8.7674	1.7309
6872.0928	0.6284	-15.7123	-21.5456	-18.0862	-12.8564	-27.7092	2.5756	1.2700	-6.5719	30.1685	1.0888	-19.8280	1.2014	-11.9522	-10.5651	7.0508
6880.0929	0.9107	-10.5628	-11.4628	-30.1828	-9.2236	-5.3451	0.1196	7.0765	-13.1120	20.3996	-6.1069	-12.1388	0.9265	-27.5758	-2.3570	18.0995
6888.0930	-1.8628	4.5236	7.9377	-20.8304	12.2579	13.9774	1.9847	14.9554	6.3035	33.6481	14.4042	9.4475	4.2134	-2.5657	-6.8112	9.9595
6896.0931	-0.0411	-4.2788	-2.8387	-17.9044	-2.3601	-12.9074	-6.0063	5.7741	9.9524	48.5739	19.7777	-3.5553	5.9423	6.8668	-11.6455	0.1945
6904.0932	0.9799	-19.8221	-10.4947	-35.6384	-21.2600	-40.8132	-7.5081	4.3831	-7.3291	17.5978	-2.2815	-24.3658	5.4146	-23.7912	-4.0319	9.2996
6912.0934	-0.2449	-11.1788	3.2646	-26.0804	-12.1228	-25.9532	-8.2991	8.3388	-9.3556	0.0091	-3.0931	-10.9090	3.0361	-32.8094	-2.8295	14.2102
6920.0935	-1.7515	-3.5003	12.0693	-27.0544	-1.8932	-8.2526	-10.0458	5.7467	1.3963	25.1191	7.2075	0.9334	4.5880	-21.9134	-7.0464	6.5178
6928.0936	-5.3683	-4.5159	16.6717	-33.2819	8.5435	-14.2067	2.1820	17.7956	7.8244	30.3416	5.4467	4.0579	7.4209	-17.5031	-7.0167	2.7640
6936.0937	-6.2436	-0.5269	12.4480	-21.5902	11.4987	-13.6315	-2.1754	19.1137	7.3270	19.8146	12.6497	6.1305	7.1493	-12.3699	-10.8936	-4.0316
6944.0938	-5.8093	-3.1698	-1.9583	-24.6274	6.4067	-18.4738	-10.0070	14.1050	3.0007	13.9190	15.9507	-3.7292	7.6348	-9.6800	-12.8402	-9.8507
6952.0939	-6.1005	-12.0240	-8.1488	-20.7511	-0.6229	-35.9640	-1.6128	19.9784	-6.4937	-1.3117	-4.3883	-11.3642	4.8370	-21.5939	-7.0545	-3.3904
6960.0940	-4.3130	-3.8361	1.3705	-5.3374	0.5419	-22.6268	-5.1418	20.9498	-3.5125	-0.2772	2.6714	0.2353	3.6038	-16.8146	-7.4903	-0.0491
6968.0941	-5.2093	0.0565	-1.4839	-27.8968	5.1084	-5.4712	-7.5495	25.5224	1.8695	0.5334	11.5440	-2.8075	8.4012	-2.2412	-7.5963	2.4151
6976.0942	-6.3334	-21.5582	-24.8630	-58.2084	-16.7810	-26.2293	-0.4249	16.8029	-15.9572	-23.1654	-27.3516	-35.2911	6.2862	-22.4352	-0.1088	10.8895
6984.0943	-1.8335	-25.5985	-24.8951	-33.6942	-22.2027	-36.7247	7.8136	-0.9173	-23.6104	-29.7701	-34.9248	-36.2047	-1.9184	-36.0420	1.7269	16.3817
6992.0944	-0.1373	-9.3128	-8.5416	-6.0539	0.8440	-19.1580	13.6532	5.1577	-14.2223	-23.5915	-9.7099	-11.1403	-3.3042	-24.7825	0.0351	15.3853
7000.0945	-3.4442	-6.1203	-6.7267	-16.4932	1.5981	-7.5984	2.9785	5.4823	-11.2783	-18.0788	-11.2348	-8.5999	-0.7989	-21.9136	-1.9739	6.9021
7008.0946	-4.2912	-5.3914	-8.1990	-14.0025	2.3783	-2.8877	-2.2388	-3.8122	-8.5333	-4.6989	-13.0681	-7.2412	-2.7983	-16.8245	-4.9765	2.7988
