Time	Fz	Fpz	C3	C4	T5	T4	O1	O2	F7	F8	F3	F4	T3	T6	P3	P4
0.0000	-5.7098	10.0689	-2.6579	4.8520	5.7035	11.3811	-6.0918	-3.8646	1.6739	-19.9025	-20.5398	-41.1375	-0.2513	16.3445	2.7708	-17.4394
8.0000	-8.3745	0.9839	-10.6304	-12.4347	7.4832	-10.4462	-6.3847	-4.6244	12.3895	-16.8323	-9.4801	-37.0668	3.9385	34.8170	-4.0600	-21.8946
16.0000	-9.6190	-12.6461	-26.5476	-26.9366	-11.8704	-30.9656	-6.6662	-11.8619	1.4343	-39.4907	-31.4903	-63.9551	4.3682	22.6130	-2.0629	-26.5263
24.0000	-2.2148	-20.8673	-33.1547	-29.3552	-33.1044	-32.7254	-2.3943	-20.3945	-21.0916	-58.7413	-49.6132	-80.5010	-0.1998	-11.9550	9.7024	-8.9285
32.0000	0.8554	-6.1394	-9.1574	-10.3903	-19.2647	-13.1507	-0.5225	-14.3632	-21.3222	-42.2389	-38.3079	-68.8948	-2.7063	-28.4731	11.5437	-0.3944
40.0000	0.3981	8.2117	11.7563	2.7242	-1.1542	2.8249	-6.0480	-15.8367	-1.4228	-15.7536	-6.7203	-38.3996	0.6799	-9.3568	4.5472	-15.3286
48.0000	-2.7058	-5.7442	-6.1224	-18.6096	-7.7942	-17.9430	-8.4097	-26.8725	1.4217	-19.7958	-3.8419	-38.0522	3.0059	-1.5589	-4.5577	-23.8090
56.0000	-7.9767	15.2528	16.3479	9.7745	12.6329	1.0284	-8.5784	1.2682	15.1248	1.1562	3.5720	-29.6358	4.9423	14.8805	-10.6022	-29.1613
64.0000	-6.1629	28.6586	32.4910	26.9667	21.4302	21.6339	-9.0828	17.3877	29.0983	26.2450	26.0181	1.1782	9.0061	34.7392	-10.1772	-32.9980
72.0000	-2.3228	9.9584	12.5449	6.5953	-0.7893	9.4620	-7.8133	-0.9865	10.1923	15.2857	16.1300	1.9989	6.6957	2.8493	-8.7698	-28.8349
80.0000	-1.7736	27.5937	35.5216	33.2560	17.0456	33.2845	-9.0063	5.6751	17.9042	36.2629	32.8759	26.3221	4.5628	3.5649	-12.4837	-27.7653
88.0000	-0.8569	22.1421	31.1247	24.2293	18.7662	24.0297	-8.3316	8.3859	29.5209	45.9593	50.0318	48.4379	8.5049	26.6255	-13.4054	-28.4189
96.0000	0.7125	2.8465	12.9464	4.1138	-4.5349	0.4323	-4.7691	-0.4650	11.2578	19.2150	21.5139	24.0942	6.5067	2.6240	-5.4082	-20.2563
104.0000	3.6366	10.3350	24.6105	14.3911	0.8435	10.6529	-3.8708	1.6743	13.2087	23.6410	27.5278	29.1271	5.4254	2.8974	-1.0812	-13.7045
112.0000	5.5706	-7.7206	1.8635	-11.3912	-12.5032	-10.4673	-2.6869	-11.0633	5.9179	12.6032	25.8025	24.5619	6.5190	-1.8752	0.2549	-13.0427
120.0000	3.5185	-6.2134	1.8028	-3.8285	-16.0990	-5.4467	-4.1033	-22.0776	-7.8395	-8.2930	-1.7904	-2.1930	-0.5991	-24.1802	1.0733	-8.9212
128.0000	3.2018	6.5601	11.9901	9.0634	-0.0235	13.0776	-5.3997	-16.4817	3.3190	4.2459	11.9684	11.0142	-0.7275	-3.6148	-0.0883	-8.2727
136.0000	4.9602	-5.8851	-3.9977	-8.0577	-3.8498	-6.8315	-1.7496	-16.3637	0.0930	-3.7222	10.9987	7.9111	1.0439	0.4004	6.9814	-6.1579
144.0000	1.4904	0.8154	5.9660	5.6925	6.7496	-5.7934	-3.5513	-22.4967	-3.1240	-15.2060	-4.0254	-9.1264	-4.4907	-10.4831	6.4260	-7.5719
152.0000	-0.3733	-8.0273	-10.3755	-7.8274	-2.5980	-15.0108	-3.0048	-18.0468	-7.4033	-13.3890	-5.2152	-10.8965	-1.1484	-13.7217	1.6213	-14.7225
160.0000	4.2570	-22.1289	-27.1648	-20.1470	-24.0529	-29.4848	3.6944	-13.4527	-25.4022	-31.9581	-25.0760	-28.4238	-1.8817	-32.2197	13.4600	0.4996
168.0000	4.7427	-12.1704	-10.3947	-5.7662	-10.6398	-17.5689	0.3073	-28.4349	-18.8766	-35.8308	-22.9163	-25.7231	-7.5171	-26.2069	13.6160	6.3495
176.0000	2.4178	-15.1070	-19.3742	-15.3141	-13.0648	-16.9359	-1.7820	-23.9651	-12.1979	-20.3020	-8.8688	-9.6031	-2.3305	-14.7117	4.2121	-5.6621
184.0000	2.2535	-8.1706	-13.6235	-1.2713	-13.4531	-8.0665	3.5741	2.7181	-15.1693	-16.0455	-18.0091	-13.0696	-1.8618	-15.1368	8.5633	5.1470
192.0000	2.9057	-4.1661	-4.8688	3.5571	-4.1502	-6.1329	4.7029	4.6990	-9.4456	-13.8098	-14.5401	-6.9792	-2.8237	-6.5573	12.3231	10.6161
200.0000	6.0090	-18.4335	-20.1971	-19.0993	-19.6289	-19.0086	6.6430	-1.7150	-16.4759	-17.4711	-14.4319	-7.1082	-0.3448	-15.5282	15.0864	12.6605
208.0000	4.8645	-13.5776	-12.5583	-13.5452	-18.4330	-12.2205	6.0026	-6.4092	-19.1948	-25.5806	-25.6202	-23.2172	-4.3868	-22.5873	12.8052	22.0863
216.0000	0.2741	-1.5251	2.5690	-2.9734	-0.6385	-4.4466	1.4779	-7.9321	-7.6585	-15.9035	-16.3053	-22.8473	-4.3488	-13.9486	4.0207	11.1579
224.0000	1.2613	10.2561	16.5418	10.8964	8.8389	7.9442	1.6449	6.4659	-0.3609	3.0613	0.5241	-9.4371	-0.8900	-8.9114	4.3188	4.9749
232.0000	2.8199	13.6564	20.0772	15.4556	8.4762	14.7105	1.8589	12.1844	4.7674	8.3484	6.7594	-0.5758	0.7537	2.8610	6.5798	6.5851
240.0000	1.3345	5.7287	8.8879	3.9006	4.1003	4.3670	1.0925	8.9996	7.2361	4.6591	5.8026	1.0460	2.4898	13.1096	4.9841	2.0648
248.0000	-0.4211	3.2422	5.4296	3.3535	3.8280	0.1683	1.3673	6.1587	1.6992	-0.5102	-2.3641	-5.6810	0.0329	2.4889	2.0041	3.5879
256.0000	1.3178	0.6983	4.4305	3.7138	-5.2901	0.5701	2.7295	4.6216	-10.3567	-3.9688	-10.8539	-12.1094	-1.5145	-22.7425	3.6575	6.0054
264.0000	4.1264	12.8545	24.6887	18.7417	5.3212	13.4334	2.6780	12.1582	-0.4539	12.6508	7.5634	5.4486	0.2921	-15.4261	6.3848	5.9736
272.0000	0.4381	14.3769	29.3164	15.8403	15.5617	5.7617	-0.3577	10.4956	15.0183	19.9864	20.9363	12.4369	2.8969	6.5757	-2.2014	-1.5194
280.0000	-0.1705	-11.2832	-2.4436	-15.3439	-17.2966	-25.6761	2.0242	1.1212	-6.7116	-10.6588	-11.0377	-24.0809	3.2853	-19.1389	-0.3203	-0.0704
288.0000	5.6240	-14.9109	-7.4926	-14.5616	-33.1004	-21.9862	3.2025	-6.8950	-17.4534	-26.3922	-21.2323	-34.3567	0.6827	-28.2935	9.1383	11.1389
296.0000	3.7188	-12.1256	-10.7124	-11.3046	-23.6518	-17.5458	0.2395	-11.4946	-9.0208	-21.9326	-10.9292	-22.7717	0.1055	-9.1547	3.3233	6.5232
304.0000	-2.5035	-3.7928	-5.3348	-3.2104	0.9764	-14.1111	2.6868	1.8147	-9.0057	-16.4907	-18.9203	-28.5040	-2.7157	-12.4961	2.0034	4.7627
312.0000	-2.4662	19.4534	25.7099	20.6831	34.3487	12.2377	1.9383	13.6728	7.9759	14.1666	8.0077	0.6817	-2.0957	0.7039	3.1305	0.0284
320.0000	-0.6879	11.9135	16.1730	12.8296	19.7337	8.0564	-0.1702	12.3547	10.5012	26.5660	24.8839	22.8327	3.1557	3.3135	-3.8501	-10.2773
328.0000	-3.3061	0.7261	0.2415	5.9442	5.7780	-4.5084	0.4365	9.0069	0.5423	10.6649	4.5178	10.3174	0.6539	-5.8523	-7.6487	-6.7827
336.0000	-3.9090	2.7676	2.4735	5.7042	13.4736	0.5672	-1.0068	5.0623	7.2247	15.4182	10.6105	22.0924	0.2826	5.9408	-8.1588	-8.3228
344.0000	0.0796	-1.6163	-0.6158	3.0403	-0.0330	2.1748	1.3117	6.7551	-1.6087	15.2953	7.8226	25.1564	0.8110	-9.1802	-3.4587	-3.1071
352.0000	-0.8510	4.8339	9.5816	16.3205	2.9510	10.1986	-0.8166	5.6929	4.0892	15.6698	7.3842	30.5863	-1.1605	-1.2634	-6.2023	-0.9823
360.0000	-3.4079	3.4134	5.0329	10.2304	7.6438	9.7036	-5.5096	3.0666	21.1271	32.9805	30.8011	59.9966	3.7788	27.8488	-16.6699	-16.1793
368.0000	-2.0780	-0.4298	-0.8533	9.1019	3.5780	9.2867	-1.3065	8.5314	8.5117	30.0919	19.8326	57.4451	1.6664	7.9901	-11.5852	-9.2241
376.0000	-2.3820	7.6853	8.8835	23.4974	15.4851	17.2615	0.2479	12.0905	8.0421	24.6053	10.9074	52.3647	-2.7017	9.2162	-5.3552	-1.4114
384.0000	-2.1032	0.8643	-3.7886	12.6843	7.9748	9.4848	-0.3519	12.1055	11.3729	24.8855	17.7602	55.6663	0.8613	22.9107	-7.6926	-5.4248
392.0000	0.9294	1.6298	-5.5148	15.2244	-1.5063	16.8950	0.8222	11.6973	3.2619	17.5335	10.3795	44.5330	-0.6712	14.0541	-3.7119	3.2552
400.0000	3.2876	14.2379	8.6072	30.9733	8.4852	33.6579	1.6606	20.6100	11.6643	22.2909	16.9169	49.6862	-1.0069	32.4747	3.0493	11.0335
408.0000	3.5747	9.5905	5.8885	23.0566	10.9607	18.3055	6.2014	30.3230	13.6726	19.7789	16.9595	43.3286	0.7222	39.4792	7.0672	19.1292
416.0000	1.9245	5.1692	6.3134	14.1760	10.6087	2.8444	6.3356	21.1018	8.5234	4.8961	4.6046	16.3140	-1.1902	25.5807	6.9052	21.0950
424.0000	-0.4865	7.5360	8.7126	12.1791	11.8108	3.0246	2.7527	13.5619	9.5624	1.2253	2.1626	2.1457	-0.8901	22.8613	2.6702	12.2239
432.0000	-3.2272	-0.5337	0.1955	-0.9284	6.4447	-13.4571	4.5252	15.5561	3.1825	-6.8345	-9.7885	-17.0976	0.0065	11.1037	0.6941	11.0993
440.0000	-1.4297	-12.2150	-9.4492	-18.3608	-6.8595	-32.5615	8.3037	14.7912	-7.7457	-20.3167	-22.2640	-39.3393	1.1411	-6.1473	6.5469	16.6415
448.0000	3.6098	-1.8363	3.8828	-5.1452	-1.6056	-13.6088	7.4096	5.1671	-12.1790	-21.9134	-19.2525	-41.9625	-2.7885	-17.9476	14.1170	22.5003
456.0000	2.0475	15.6650	23.6880	15.6987	20.6489	10.2021	-0.2219	-8.7888	2.1072	-10.7819	-2.4836	-24.5846	-5.7541	-2.5008	8.6817	11.0588
464.0000	-2.0689	4.4749	5.1014	-1.1119	10.1285	-5.9625	-1.9183	-0.2021	10.3546	-3.4127	4.7151	-14.0004	2.1734	18.6384	0.2108	-6.2793
472.0000	-2.4821	0.6561	-0.8929	-0.4443	0.0114	-10.1687	2.8869	13.6068	-3.4824	-10.0594	-14.2326	-28.8396	1.3649	-2.1451	3.4465	0.6952
480.0000	-3.1275	23.8307	29.1299	30.4772	23.0959	18.7729	0.6195	14.8442	2.9921	-2.3857	-11.8493	-26.1991	-3.9830	-1.8671	4.5444	4.6019
488.0000	-4.7416	22.8978	22.2168	23.7609	25.4681	17.9564	-0.4793	25.4686	17.7251	12.1294	5.7072	-6.6640	2.6099	30.7833	0.7276	-5.2565
496.0000	-4.9158	4.6997	-1.1867	1.9558	11.3671	-5.0871	3.9011	26.6985	4.8885	-0.5428	-9.7822	-16.8698	3.4552	17.8835	4.9201	-3.3180
504.0000	-4.3217	10.3632	12.1988	11.5828	18.8945	3.0986	4.0058	17.4053	-3.3882	-4.8158	-19.8463	-22.7533	-2.6258	-7.8904	8.1086	2.1306
512.0000	-4.4992	15.6790	20.7381	17.9849	21.5585	13.0617	0.9074	17.4548	6.5214	11.6129	-3.1348	0.0424	-0.5431	1.6009	0.9593	-3.7993
520.0000	-2.9905	-3.2703	-1.9038	-4.6776	0.7726	-9.4127	1.6693	12.6833	2.9379	5.3795	-2.6100	4.1956	3.5595	3.7359	0.2587	-7.4782
528.0000	-0.5979	-7.0910	-6.9526	-11.3694	-1.1138	-10.7776	4.2920	8.4872	-6.1389	-3.3327	-11.3324	-5.2332	1.3449	-8.0971	8.0589	-0.3586
536.0000	-0.7244	8.3534	11.8068	3.7224	14.9910	10.9518	1.6348	9.2270	5.6102	10.1882	2.4552	6.6987	0.5219	5.6888	5.6356	0.2643
544.0000	-0.6879	-5.4484	-0.7976	-13.5173	-2.8981	-8.4371	1.0653	3.7320	4.8361	4.2841	1.5600	4.1892	3.8060	5.9893	1.1666	-2.1324
552.0000	0.6917	-18.8751	-13.0397	-27.3636	-17.9802	-22.6152	3.6243	-9.2744	-16.0042	-16.2942	-22.4664	-17.9181	-0.6002	-30.2034	5.6596	5.2934
560.0000	3.7417	0.5521	13.0266	-2.9215	-0.5400	5.7468	-0.8791	-21.5394	-7.3621	-9.6081	-8.9534	-7.5220	-5.1343	-24.3221	7.7887	7.9268
568.0000	5.3190	5.0221	14.9846	0.2790	-2.1011	13.6528	-4.0587	-19.8760	6.7380	-1.0910	9.3785	6.1822	-0.7808	5.7797	5.6136	3.2452
576.0000	3.2033	0.7255	2.3375	-5.6263	-8.0032	14.2023	-3.6573	-18.8160	-2.4672	-7.8106	-4.8286	-4.5904	-1.6150	-3.2478	5.3310	0.3770
584.0000	6.1442	5.1388	6.5540	3.1435	-5.4644	21.0531	-3.4895	-20.1721	-5.5700	-5.4142	0.9092	-0.9072	-2.7823	-10.5731	8.6421	0.7724
592.0000	9.0475	-8.9936	-13.1827	-10.7199	-20.6581	-0.7310	2.4787	-6.3558	-13.0711	-6.4894	3.4426	-1.0656	1.8036	-14.0843	11.9708	4.7721
600.0000	4.7023	-3.0414	-11.8922	-4.3957	-5.8649	6.2294	4.7318	3.7273	-14.4885	-6.3958	-7.7452	-7.7929	-1.5398	-13.3152	11.4171	9.8006
608.0000	4.3831	28.1408	28.0376	32.4114	33.3412	45.5677	-1.1564	1.4185	12.1140	18.6544	21.7030	25.2324	-4.9626	19.6609	8.8911	8.7082
616.0000	6.3980	15.5608	15.4205	18.4013	22.4189	32.2348	-2.7614	-4.5725	15.7282	31.3978	42.0186	55.8846	0.2620	22.8038	3.8977	-4.1145
624.0000	4.4265	-6.6674	-14.8467	-8.1464	0.0111	10.6404	-1.2807	-11.0905	-2.7650	18.9611	22.1188	46.5397	0.9432	-3.1901	1.6118	-11.1594
632.0000	3.5895	9.8375	4.2848	14.2579	15.2083	33.7091	-2.6985	-6.4664	4.2750	22.8627	20.6605	50.3425	-2.3228	7.6734	4.6045	-7.6214
640.0000	3.3744	10.7836	8.1068	16.8582	18.5041	33.0016	-2.2241	1.7561	11.7327	35.2976	31.6318	69.4061	0.4489	17.2891	3.2156	-11.1811
648.0000	2.9241	-9.2779	-15.6900	-12.2672	0.6197	4.9381	1.4834	3.2715	1.9463	27.8390	24.2193	57.3388	4.2587	5.0511	1.6311	-11.1946
656.0000	2.1086	-14.1340	-24.2468	-20.3937	-10.9574	-2.0963	2.1816	2.5621	-3.7029	9.6957	6.5234	28.5637	3.9293	5.1314	3.4002	-5.2069
664.0000	-0.0594	-19.7214	-31.1276	-25.4230	-22.2347	-7.8484	1.5946	-1.2043	-9.7293	-3.8207	-11.0784	11.8291	2.4144	-1.2115	0.8921	-2.7972
672.0000	-0.5990	-21.0807	-31.0306	-27.7362	-19.3112	-12.3174	2.7609	-3.2904	-12.9889	-4.1491	-11.6947	7.6720	0.6686	-11.2355	-2.1829	1.9961
680.0000	-0.5963	-15.2739	-27.5080	-22.6207	-10.4271	-7.4482	1.8175	-3.8835	-7.4718	-2.0392	-3.5557	6.7570	0.2076	-0.0478	-3.7291	3.3562
688.0000	-1.2603	-28.1580	-43.8228	-40.1648	-27.1398	-22.6064	2.2866	-11.2358	-15.9420	-20.1191	-20.4172	-14.3664	0.1293	-6.3275	-3.6455	6.2742
696.0000	-0.3992	-35.9094	-46.8143	-47.0840	-38.8088	-37.0679	4.9119	-17.1498	-30.0545	-39.3770	-41.0534	-42.3370	-2.9452	-32.6704	-0.1497	15.9605
704.0000	0.5993	-23.2241	-31.3062	-26.9860	-27.9072	-26.5715	3.9727	-12.7451	-23.6826	-33.5218	-30.7933	-39.5150	-4.0433	-26.0086	-0.8204	17.9180
712.0000	-0.2843	-17.5517	-28.2751	-21.2034	-22.0938	-18.1134	1.2752	-12.4311	-13.5992	-27.2004	-20.5767	-29.8619	-2.9922	-5.7417	-4.4908	14.4242
720.0000	-2.0510	-15.3419	-24.4625	-19.5525	-20.7090	-14.4169	-2.3757	-23.2591	-12.8781	-32.2576	-25.7005	-35.7893	-4.7999	-7.9619	-6.8696	8.8700
728.0000	-2.3125	-7.5838	-14.1287	-8.6052	-15.9680	-6.2474	-5.1095	-25.4238	-11.1516	-24.7919	-17.8100	-32.8991	-5.0009	-14.8452	-11.5109	2.1360
736.0000	-1.5817	-4.6442	-9.2277	-5.1590	-11.9591	-6.0197	-4.4596	-20.1792	-8.4423	-14.6427	-6.2151	-25.5233	-3.3780	-16.1783	-14.0072	1.1021
744.0000	-2.2738	-5.4088	-7.6409	-5.1133	-13.1491	-11.5603	-5.0287	-21.7914	-7.4904	-21.1841	-11.3438	-33.4829	-3.3607	-14.3330	-12.5640	-0.4323
752.0000	-2.6534	-1.1251	-2.3705	1.8414	-16.6876	-6.6678	-6.6156	-21.4475	-7.9630	-26.7287	-18.3170	-44.5538	-3.5613	-14.9889	-11.5244	-2.4829
760.0000	-3.2311	9.3459	12.3916	13.7455	-6.6158	3.4278	-9.7308	-24.7695	-0.5396	-19.7195	-8.4017	-41.7430	-4.2717	-11.0293	-15.9595	-5.4665
768.0000	-7.4899	13.5210	17.6509	14.1101	3.3497	-0.3361	-15.1153	-31.9327	13.3413	-16.3814	2.5269	-42.9175	-2.5771	7.8864	-26.0074	-17.4423
776.0000	-9.8051	11.4324	8.6506	6.8273	-3.1574	-5.7880	-14.0175	-20.8318	10.5193	-23.9039	-9.1883	-65.8934	0.8705	11.8193	-23.7454	-22.6241
784.0000	-6.0926	19.7899	15.4204	16.1389	2.3695	5.7582	-9.9053	-8.5348	4.6653	-23.1289	-11.1457	-74.7938	0.5744	4.6330	-11.5384	-16.1340
792.0000	-3.3468	24.5604	21.6356	22.0416	11.1261	10.1578	-10.1923	-10.3355	9.0472	-13.8585	5.7114	-61.6003	0.9198	8.0688	-10.2304	-17.2899
800.0000	-2.7005	8.0854	2.2340	2.6709	-8.2630	-9.7893	-8.0874	-10.7148	1.3287	-21.7317	-1.3697	-65.9841	3.7021	1.1004	-10.3079	-17.6048
808.0000	-0.5150	-7.7465	-11.6787	-18.1399	-22.1138	-30.2155	-6.2944	-22.5002	-2.4651	-38.7060	-10.0863	-74.2418	3.3415	2.7604	-5.8268	-8.1919
816.0000	2.1071	-13.9630	-14.3109	-27.8725	-22.0751	-38.1819	-6.0021	-38.0828	-2.4766	-48.0160	-9.1623	-74.8494	0.6652	4.5736	-2.5187	1.2421
824.0000	4.8960	-16.7415	-16.2838	-24.8046	-32.2486	-35.4341	-0.4451	-27.4325	-20.5561	-44.6382	-18.5248	-75.1357	-1.1017	-31.7647	0.2641	11.1330
832.0000	4.4118	-6.6681	-2.9450	-7.1587	-25.1730	-20.3380	0.2973	-12.1629	-17.3820	-17.6364	-1.5692	-47.9393	-0.1929	-40.3680	-9.3318	10.7266
840.0000	-0.0969	-1.7943	-3.6313	-4.0135	-8.4568	-13.2411	-2.1271	-4.9532	0.3084	3.1773	18.5514	-17.0703	2.2104	-7.9931	-19.8813	2.4558
848.0000	-0.3191	-9.5747	-21.2216	-12.0886	-5.7125	-13.9217	1.7974	-0.6589	-6.8980	2.3692	10.9382	-4.3305	0.3125	-7.6550	-13.7850	5.8747
856.0000	0.6388	0.1572	-5.5775	6.7132	9.8345	2.5178	-0.1427	-7.0615	-4.5413	15.4837	21.0511	23.6728	-3.9044	-15.6199	-13.6570	2.7053
864.0000	-3.6557	8.6195	9.4853	21.9588	18.6040	9.5974	-5.6705	-3.3622	12.4045	35.5796	37.0046	53.5558	-1.0908	0.8429	-24.8450	-14.7009
872.0000	-4.4129	-1.0473	-1.3174	11.6253	5.2920	1.5606	-5.3952	5.0759	15.9043	45.3713	42.0112	74.5641	4.4568	9.3441	-28.1887	-22.9066
880.0000	-2.3880	-0.5182	1.5624	12.7384	4.8347	10.0992	-4.7439	2.0037	12.6225	47.7047	40.2762	84.2927	2.7594	1.9400	-23.8098	-19.4122
888.0000	-5.1296	-2.0483	-1.0086	9.4591	4.3146	8.1557	-2.3279	6.5075	6.1625	34.9062	17.3854	63.8724	0.2484	-3.8104	-19.6689	-12.6375
896.0000	-5.5588	-7.5792	-5.8326	-2.3230	-2.6246	0.4700	-1.5738	3.3103	2.9170	25.3248	7.6652	47.5441	0.5008	-7.0737	-18.6351	-8.6306
904.0000	-4.5085	7.6010	14.4152	12.1724	5.8205	21.2910	-4.7925	0.6163	8.5399	32.5470	15.5298	44.9787	-0.2148	-6.9184	-19.4380	-9.5652
912.0000	-6.3492	13.3352	16.0652	16.6801	9.2157	22.1152	-4.1313	16.6808	14.9431	37.2329	19.7046	36.8252	3.6309	8.2275	-20.9966	-12.8349
920.0000	-3.8071	-4.3990	-3.2690	-5.2371	-4.3080	-9.6555	-0.8924	11.4345	8.6532	20.7723	16.4801	21.2125	5.8727	5.9748	-16.1105	-9.6157
928.0000	-0.1308	-12.4375	-6.6000	-13.5790	-15.0089	-21.4076	3.7233	2.4584	-9.5206	-8.1754	-12.2815	-13.5240	0.7090	-20.6692	-1.2674	7.1268
936.0000	0.1883	-5.7280	-0.8197	-8.5526	-10.9599	-12.8266	6.4816	13.2615	-11.2339	-11.0845	-20.5279	-28.0596	0.1408	-19.5654	4.9879	15.3452
944.0000	0.2935	7.7641	12.7875	6.5780	4.9173	3.7832	3.2786	13.7208	-2.5930	6.7721	0.4634	-12.1807	0.7084	-13.9755	0.3146	6.4669
952.0000	-1.6394	21.8577	29.5625	24.3423	19.1905	20.9500	0.1309	14.4429	3.4879	13.7244	3.2215	-8.7281	-0.9077	-10.8551	-0.7187	-0.3133
960.0000	-4.2598	19.4809	27.0919	14.7473	21.3810	12.1034	-2.5792	12.7362	17.1668	14.1366	10.4779	-7.8212	3.0551	16.3744	-4.2284	-8.0085
968.0000	-5.6561	7.0967	12.6749	-4.7400	8.5695	-5.2915	-4.0620	1.1232	12.1324	1.6830	2.2854	-24.3663	4.2446	9.8362	-7.8644	-12.8419
976.0000	-3.9579	4.2640	8.0926	-4.5053	-7.3768	-4.6811	-0.6738	6.3410	-5.1101	-13.7834	-21.7758	-51.0075	2.3040	-15.0859	-0.9836	-3.9096
984.0000	-0.4841	9.3225	14.3439	6.3682	-5.8026	-1.0089	2.4898	19.1440	-3.6747	-7.7457	-13.3672	-44.7452	3.5317	-11.0593	4.1764	2.8717
992.0000	-1.6784	17.1109	23.5631	16.6408	4.5001	6.9998	1.9258	23.9232	2.9574	-0.1624	-7.2711	-37.2722	2.9689	-2.5130	1.7939	3.5156
1000.0000	-2.2807	21.2690	28.3849	18.3778	4.2715	15.5751	-0.2011	25.2777	13.4890	5.4211	-0.2926	-30.0565	4.6181	17.6975	-2.4285	5.4517
1008.0000	-4.9464	17.1194	22.6354	10.6750	7.6365	6.2137	0.1775	28.8046	16.7540	14.3049	8.0963	-22.5615	6.6411	19.8940	-10.7265	1.6894
1016.0000	-10.9665	8.3613	9.9364	-1.8985	9.9533	-7.0732	1.3306	24.1853	3.0173	1.6737	-17.1021	-43.2200	2.9501	-5.2089	-13.0060	-3.2632
1024.0000	-4.5849	-5.6007	-4.1155	-17.2954	-13.0219	-13.3443	0.6545	2.6766	-6.3669	-17.5167	-25.4779	-46.0411	1.5989	-11.0969	-3.4269	2.7947
1032.0000	1.9899	-10.6953	-9.8647	-17.3861	-25.2582	-10.4570	2.3816	-2.0029	-13.0803	-14.8625	-16.2906	-29.4713	1.0526	-20.0897	-0.0891	11.3234
1040.0000	-2.2169	-2.8100	-3.8097	-4.3900	-11.9328	-4.0756	3.0154	7.5245	-12.6293	-10.7946	-21.5350	-31.0564	-1.5716	-21.8145	-4.2619	11.5975
1048.0000	-3.3790	4.8700	5.7948	7.9912	-4.5284	0.2788	0.1932	11.0778	0.3031	-4.3870	-10.6369	-20.8661	0.0612	-0.2874	-7.0525	5.5057
1056.0000	-4.2092	12.4004	14.9494	18.3353	4.0186	7.8769	-1.8558	17.0816	9.2994	12.7718	6.0710	-1.5782	2.5685	7.5482	-11.8912	-4.3942
1064.0000	-3.9122	-3.6427	-0.1933	-3.2363	-11.6517	-13.3428	-4.3905	-4.0747	5.4193	-5.7812	-2.7394	-13.1916	2.8084	4.7886	-11.7061	-9.0736
1072.0000	-2.4274	-18.4576	-17.7551	-20.2291	-32.1963	-27.9952	-6.0593	-23.8616	-2.8487	-32.5496	-21.0181	-32.5263	1.0715	2.8787	-7.6075	-6.5084
1080.0000	-6.7133	9.9321	8.2419	13.9828	3.0757	7.0306	-5.3988	1.8309	6.6661	-5.7724	-10.7808	-19.0353	-0.6840	10.6515	-10.0911	-9.2135
1088.0000	-4.9496	8.5585	10.5230	12.8405	5.6906	-4.0291	-1.8338	13.7460	7.2746	4.0631	0.9064	-13.0138	2.9849	5.6026	-7.7032	-11.0124
1096.0000	-1.7084	-15.7599	-15.2349	-16.0134	-21.4444	-33.1449	1.0934	0.3609	-8.8877	-20.6934	-17.6350	-31.2421	3.2616	-12.0274	-0.4734	-5.8707
1104.0000	-5.7593	2.9222	2.1000	1.4006	11.6335	-6.2505	-2.5106	-2.4487	4.6002	-6.8307	-7.8702	-15.3602	-1.1633	6.7075	-4.1256	-8.5172
1112.0000	-4.5733	-2.1880	-0.5940	-3.9817	10.4255	-17.6285	-0.5068	5.5482	10.0691	5.4002	7.9598	3.1022	3.0785	13.2787	-6.1496	-10.4232
1120.0000	-2.3896	-20.8803	-24.0624	-22.7735	-18.1849	-34.0801	4.1957	8.0582	-5.5714	-14.8776	-16.6169	-12.1429	3.5402	2.3764	1.2137	0.3956
1128.0000	-5.5018	8.4775	3.6380	13.2473	14.7128	13.3932	-4.9732	-8.5565	9.8289	-7.2083	-8.3883	1.4234	-5.4055	25.0429	-5.2236	-0.9201
1136.0000	-5.9945	29.4132	28.0494	45.2349	36.4901	37.1497	-9.9053	2.4142	31.4993	31.6444	33.4818	49.1168	-2.2172	46.3730	-17.8047	-15.6045
1144.0000	-0.0468	4.4070	1.6234	4.9048	3.9389	-3.4933	3.6626	22.6412	5.8626	1.9336	1.7850	-7.6770	4.3662	18.5411	6.5895	0.7830
1152.0000	0.5512	6.3279	2.1213	6.2162	-1.9747	6.2469	2.3067	19.9047	5.3999	-2.8312	-4.6456	-12.0825	3.6996	22.5417	8.2802	3.3423
1160.0000	2.2050	20.3983	19.5697	24.3367	10.2781	29.8260	1.0745	17.7720	8.3624	3.1935	-0.7012	-4.4234	-0.1255	22.9285	10.9614	9.1996
1168.0000	2.8823	24.4441	31.4582	28.3244	19.0164	27.1133	-0.5283	18.8851	21.7947	20.6220	24.1406	17.1833	3.2661	34.2130	5.6012	3.3300
1176.0000	2.8864	5.1424	12.9872	6.7397	1.1908	-0.8714	1.4190	13.8846	12.7994	11.5758	16.6260	12.9586	5.3081	19.2979	4.2367	0.8050
1184.0000	3.6018	-2.8263	3.3831	-0.1376	-10.3449	-7.1213	2.1871	3.3909	-1.2601	-4.0682	-0.1907	-3.6100	1.5538	-2.5612	5.1131	6.9424
1192.0000	2.3709	8.0474	17.0641	13.5698	0.8819	6.8158	-0.7562	-2.8102	0.7962	1.6366	4.6539	-2.6987	-1.9151	-9.2123	-1.3684	6.9331
1200.0000	0.3458	15.0321	24.8612	23.1257	9.7583	12.1045	-2.8680	1.1146	10.5508	8.5633	11.9898	5.4324	-1.0330	5.8552	-4.6418	1.4652
1208.0000	-0.8406	14.6310	23.5683	21.7954	10.9053	6.9030	-3.7424	6.8873	21.9474	10.3172	18.2866	11.1841	2.5160	31.7996	-4.7403	-2.9426
1216.0000	-1.7563	6.0689	14.0707	10.9019	2.8370	-3.4527	-2.8809	2.0639	11.8059	1.8583	6.0550	-0.3227	1.7260	13.5608	-4.7163	-4.6390
1224.0000	-0.3868	3.8741	9.6469	8.2680	-0.8365	0.3412	-0.9646	0.7568	1.3624	-1.5274	-2.5327	-4.6982	-0.3662	-3.4227	-0.9073	-0.4414
1232.0000	0.4547	5.4904	11.4345	10.1392	4.8243	5.3434	0.8104	5.8325	5.0153	5.9466	3.4250	9.7159	-0.5658	4.5462	0.6707	5.1759
1240.0000	-0.7702	0.5217	6.7664	5.8251	1.0312	-1.7783	2.2287	6.8692	-1.5432	3.6875	-4.0914	5.8524	-1.2786	-9.1746	-1.0059	5.5188
1248.0000	-1.9475	11.0088	15.4733	14.2501	10.5627	9.2812	0.0168	14.2130	9.4164	14.3962	8.3550	9.3964	1.5954	8.8482	-3.5891	-1.3496
1256.0000	-3.5303	11.2828	12.8457	11.2378	17.1086	7.9126	-1.2911	14.4192	16.4903	16.4168	12.9382	14.3035	3.2934	25.0466	-2.9779	-8.6150
1264.0000	-1.8589	-8.6575	-11.4009	-8.6437	-3.6878	-12.5973	1.9547	1.9970	-7.9192	-7.6530	-13.6400	-6.0136	-0.0510	-10.0850	3.7312	-5.0516
1272.0000	1.2824	-0.7300	-2.3141	1.7892	2.0162	-1.4898	1.9233	3.2092	-4.9431	0.2071	-0.7460	1.9137	-0.3249	-7.6857	5.0795	-1.4210
1280.0000	1.3461	5.2527	7.8899	11.2112	9.7246	0.2208	0.8097	6.6320	5.6570	7.8032	11.4969	13.0206	0.9013	7.1559	3.5003	-2.9865
1288.0000	2.7378	-8.4224	-5.5764	-1.4444	-11.1222	-13.9324	2.7487	0.8218	-7.6215	-10.5133	-8.8999	-2.0991	-0.1453	-9.6842	8.0958	2.2790
1296.0000	3.8917	2.2724	9.4720	10.1128	-0.0841	2.7077	1.3968	1.2926	-0.6395	0.4051	0.8926	11.6867	-0.7191	-3.7240	10.0359	1.8348
1304.0000	3.4725	5.9578	17.3167	12.7155	10.2816	3.1978	0.1535	1.2942	8.3778	9.3949	12.3269	24.9475	0.7900	6.2597	10.3797	-4.8337
1312.0000	5.3909	-12.5041	-4.8795	-12.9700	-13.2270	-15.5634	3.3155	-3.9652	-5.4650	-7.4738	-3.8290	6.5195	1.8594	-8.0630	14.0468	2.1187
1320.0000	6.0585	-9.4801	-2.3961	-9.8485	-10.4767	-6.9856	4.9870	-4.6810	-11.4336	-9.7449	-10.3586	0.7488	-1.7428	-18.4216	15.2504	12.5227
1328.0000	5.7656	-1.7355	6.2569	0.0669	2.2653	2.5907	4.4515	-4.3267	-6.1792	-3.8428	-4.0411	9.2516	-3.6861	-11.4601	14.9240	14.6300
1336.0000	7.3460	-6.0066	0.6852	-10.4019	-6.2174	2.8525	4.2699	-5.6471	-5.9522	-1.4944	-0.4211	12.1984	-0.8986	-8.7886	15.6006	13.4548
1344.0000	8.1390	-4.8101	4.6565	-8.8018	-7.7025	5.8976	4.8000	-4.6928	-9.1191	1.3529	-1.0990	12.8608	-1.0595	-19.3685	16.2135	13.9878
1352.0000	9.0476	-2.2396	7.0405	-4.5905	-2.1507	8.6507	6.0071	-5.7342	-11.1476	-1.0227	-2.1346	10.1303	-3.5922	-22.0690	18.4707	20.4016
1360.0000	9.1974	6.0062	12.8979	1.2651	9.0073	21.6273	5.7698	-5.5757	-8.6632	1.2809	0.3881	8.0632	-5.3280	-16.2334	20.4623	23.7426
1368.0000	7.2741	14.3081	21.2072	11.3365	17.7229	29.6906	3.6651	0.7113	0.7167	10.5378	8.5305	16.1731	-3.6512	-2.2311	17.6616	16.3319
1376.0000	7.2210	8.4289	10.3500	3.5009	5.7403	23.8442	2.4043	2.4447	2.5543	8.9096	10.1814	15.8792	0.3654	8.2794	16.1073	9.3596
1384.0000	7.2909	6.1487	3.1264	-1.9036	1.5264	20.9755	2.9176	2.5309	-2.1296	1.4140	4.0107	0.8235	0.8314	5.9195	18.1672	8.9205
1392.0000	5.3719	4.1689	-0.8977	-6.7128	7.7690	11.2797	3.5704	2.4801	-0.3853	-1.5453	4.7814	-6.9319	0.6505	10.4896	15.6522	9.5300
1400.0000	4.8920	-1.8070	-10.4770	-16.9724	4.4883	5.2451	4.1333	-4.4207	-8.3013	-8.1286	-1.4040	-18.0609	-0.9230	-2.0852	13.6897	11.5569
1408.0000	5.1586	0.5990	-9.3129	-12.6417	1.5398	10.7466	5.2127	-1.5774	-16.2351	-10.1780	-8.7404	-28.1560	-2.5298	-17.3611	13.6047	15.2705
1416.0000	4.5653	-6.0426	-16.8365	-18.5965	-8.7085	0.4887	6.0144	4.3028	-13.1646	-10.2510	-7.4610	-25.1427	0.2705	-7.2813	9.4074	17.3547
1424.0000	3.4472	-7.4277	-18.6412	-18.3255	-8.4893	-1.0748	5.9819	-0.1102	-17.7112	-17.5050	-16.9279	-32.2697	-2.4674	-14.5096	9.3777	19.3508
1432.0000	2.3766	8.6718	-1.3593	2.1275	9.3730	17.1189	4.4230	4.1544	-12.0302	-9.5421	-11.1536	-30.4739	-4.7142	-10.4558	8.8016	18.1546
1440.0000	2.1289	4.8515	-6.9109	-5.1730	0.9779	11.4009	2.6436	7.9636	-2.7927	0.7263	5.0580	-19.1074	0.9946	6.2445	0.1546	12.3127
1448.0000	0.2888	-3.0272	-14.4181	-12.1130	-8.3461	-0.3818	2.2789	2.8256	-10.7655	-6.0301	-4.5856	-28.2299	0.2535	-11.0291	-4.8792	9.3951
1456.0000	-1.0789	6.1495	-3.4804	0.6853	2.8697	9.8640	1.4284	4.8602	-8.0692	-3.6227	-5.9008	-27.8433	-1.9778	-9.8661	-4.3530	8.9300
1464.0000	0.7956	1.8116	-9.6940	-9.3869	-4.9434	9.5020	1.6612	8.1822	-3.0635	2.5275	3.0293	-16.8977	2.4667	4.0316	-3.0640	7.4912
1472.0000	1.1773	-13.9923	-27.0281	-27.5721	-20.4953	-10.4170	4.9818	8.1161	-13.4468	-8.8204	-10.6433	-25.2083	3.5124	-7.8850	0.5778	9.6097
1480.0000	0.9670	-15.8611	-28.3222	-25.7126	-18.2071	-15.3951	7.0309	6.0403	-19.5799	-20.0440	-23.2212	-35.1248	-0.3495	-15.6013	4.7784	16.9911
1488.0000	2.0714	-4.2206	-12.4819	-11.1838	-3.4076	-1.5425	5.8227	4.9219	-13.1682	-9.1975	-9.9479	-23.3316	-2.1621	-12.7075	3.9144	18.5804
1496.0000	2.9435	-4.6954	-10.2804	-9.5398	-3.3183	-6.1253	5.5079	7.5978	-7.6443	-2.2432	1.1839	-11.3315	0.3454	-6.0176	2.8773	14.3603
1504.0000	4.2895	-16.0994	-23.1104	-17.7211	-20.2252	-21.5990	7.2209	2.3882	-18.6703	-23.4604	-17.5272	-30.3682	-1.0861	-15.9371	8.1376	19.7748
1512.0000	1.5533	-0.1956	-3.7995	0.9013	-0.0024	-2.8353	4.6164	0.2652	-13.4167	-17.9997	-16.7093	-31.3012	-5.4633	-16.0339	4.7992	20.0300
1520.0000	-2.5533	23.4697	21.7575	22.0349	33.3189	24.9786	-0.7849	10.0438	15.0700	15.9441	16.5483	2.3593	-2.4077	22.2809	-4.7658	6.4421
1528.0000	-0.4675	11.6105	5.9623	8.0141	15.2921	11.9549	1.1313	11.6696	8.3795	7.4046	10.4259	-4.5714	0.6737	19.8032	-0.5308	6.0130
1536.0000	1.3771	-6.0566	-11.5864	-10.3306	-10.5385	-9.6936	4.8697	8.5458	-10.8184	-11.9952	-12.0490	-27.4647	0.6550	-9.3902	3.9710	11.5688
1544.0000	0.3173	0.2094	-2.4858	-5.5420	-5.8600	-2.0131	2.5229	10.3624	-1.9822	-2.9387	-3.5330	-19.8396	2.4531	0.9824	0.4423	6.7772
1552.0000	0.8288	5.6316	5.8675	5.5996	-3.7374	2.3073	1.6884	11.5747	1.3763	-4.7964	-3.8713	-19.9003	1.6240	6.5676	2.4189	7.7432
1560.0000	1.5000	5.1761	7.1380	11.1822	-6.0489	-0.6447	2.4828	13.5915	1.0078	-7.1074	-5.0466	-17.9419	0.7826	6.8043	2.7010	11.6561
1568.0000	0.9041	8.1158	6.4896	9.8137	0.8007	5.0165	0.5039	12.6241	7.7577	6.3131	12.1406	-4.6559	2.6679	15.8181	-4.3022	6.0958
1576.0000	-0.7426	-0.8553	-5.8727	-3.9061	-2.8033	-6.7460	0.7583	5.1538	-0.3395	-2.7825	1.9822	-16.2605	1.8272	3.3439	-4.4876	2.0962
1584.0000	-2.7124	-1.7108	-5.4725	-2.4482	-5.1710	-7.3666	0.9201	4.4268	-6.2380	-13.1837	-16.5063	-28.3106	-0.4808	-5.9847	-1.0808	1.6429
1592.0000	-3.1681	3.3070	-1.2469	1.8054	-2.4356	1.3193	-0.3842	9.9159	-0.7729	-0.7939	-6.0951	-17.0782	1.8943	0.2171	-4.8150	-3.8223
1600.0000	-0.7264	-21.7906	-30.3473	-26.7241	-27.4753	-28.4454	2.7202	0.7665	-13.8492	-18.4885	-17.8843	-23.7371	3.2745	-10.9482	-0.9507	-0.7394
1608.0000	2.1459	-26.5260	-32.8243	-25.2714	-37.8733	-29.9835	3.6254	-9.7481	-24.2846	-36.4974	-34.9020	-33.6335	-1.4410	-24.0205	6.4028	9.3736
1616.0000	3.0445	-11.3693	-14.3856	-7.6898	-25.1931	-10.2998	2.4062	-1.1999	-14.5294	-15.5563	-14.5714	-16.5624	-0.3019	-17.0202	1.9306	8.9620
1624.0000	3.4332	-24.2743	-30.0094	-25.9164	-33.9571	-26.7009	6.0254	2.3417	-20.6849	-15.9782	-16.0415	-15.9463	2.0016	-24.3970	2.0972	10.9398
1632.0000	0.5461	-17.1471	-20.4796	-16.2159	-20.9884	-17.4484	4.2746	-3.7917	-21.9869	-16.2123	-22.6838	-17.5708	-2.8062	-34.1067	-0.3273	9.9386
1640.0000	-3.8781	-4.1451	-4.0494	-3.3579	0.0324	-6.4391	-0.9129	-5.3031	-4.5859	-0.6147	-6.0650	-2.2408	-2.4727	-14.4463	-10.1786	-1.1239
1648.0000	-4.7813	0.0966	0.9712	0.4302	6.1082	-2.1066	-2.5140	-6.5017	1.0386	0.6235	-3.7332	-0.3883	-2.5202	-4.9715	-10.0820	-3.8850
1656.0000	-7.1513	24.7630	30.0212	28.8882	28.4610	29.3686	-8.0655	-1.1153	14.6198	26.4331	16.4979	17.1528	-2.1844	0.6764	-18.2730	-17.1329
1664.0000	-9.6780	13.4691	15.8887	11.0020	17.5678	11.9223	-9.3043	4.3344	21.3732	33.5170	24.7217	26.5063	5.4700	14.3915	-24.4116	-32.6758
1672.0000	-8.0368	-4.2398	-4.9093	-8.5896	-1.5921	-7.6737	-3.7745	3.2957	4.8853	7.1788	-5.1951	3.5218	3.7655	1.6208	-11.9409	-20.7459
1680.0000	-5.6077	3.9840	6.5292	1.2908	2.4133	8.2755	-1.9807	4.3931	-0.0829	7.6159	-9.5417	-0.7216	0.0881	-10.3020	-7.5910	-8.2596
1688.0000	-3.4416	-6.5007	-5.0141	-14.4979	-9.5559	-2.3536	0.0062	1.8380	-3.9826	2.1528	-11.5335	-3.5508	1.7595	-11.4771	-4.9979	-3.2869
1696.0000	-3.8810	6.3230	10.5449	3.6866	10.5032	10.4059	0.1634	5.0536	-0.0229	8.1803	-7.4266	2.1429	-1.6493	-9.9132	-2.2994	-1.4161
1704.0000	-5.0077	14.8941	16.5482	15.5922	20.9749	20.9317	-1.8208	9.9321	8.4728	19.6553	5.0270	15.8961	-0.8913	3.8987	-6.1314	-7.2541
1712.0000	-3.7115	-2.2833	-9.3325	-4.8893	-4.0161	8.1251	-1.1742	3.4165	-1.1040	1.4800	-10.8131	5.1819	0.3954	4.8770	-2.6340	-5.6816
1720.0000	-4.3418	12.9378	10.4428	14.7853	14.9128	25.6420	-2.7401	6.7586	7.2373	15.5519	1.1297	18.6249	-1.4379	9.2781	-4.7502	-6.7029
1728.0000	-4.0835	14.7329	11.5271	16.8400	17.8678	25.3269	-3.2391	10.7221	12.3541	23.1891	12.0160	27.0755	0.9636	17.0931	-6.1422	-11.8312
1736.0000	-1.9117	9.1305	2.3288	10.1167	5.7045	24.3748	-2.9840	5.9781	4.1477	13.1161	2.6599	18.0864	0.9634	9.7932	-0.5109	-11.9261
1744.0000	-1.4284	12.4370	14.1589	13.2257	16.3041	20.0801	-3.3558	6.2582	13.5623	24.4787	18.8025	32.4503	2.6210	15.0550	-1.6386	-15.4252
1752.0000	0.9859	-6.6236	-2.3547	-7.7855	-1.3723	-11.4671	-0.0327	-1.7161	4.1578	1.4692	4.2092	13.6350	3.1420	6.4971	6.4633	-9.8854
1760.0000	2.9438	2.6357	9.1792	6.3710	2.9638	2.0680	-0.8324	-7.0525	-1.8989	-3.3396	-1.0968	3.2202	-0.9735	-8.4958	10.6151	-6.3873
1768.0000	2.2654	5.2837	15.0766	8.8398	11.4178	-2.2570	-1.7837	-1.9652	9.0984	13.6891	20.8189	21.7318	2.6759	1.8313	3.8063	-13.8688
1776.0000	3.1282	-13.2779	-7.7207	-10.6295	-9.9378	-25.2350	1.5379	-4.4536	-2.3634	-7.6012	1.0201	5.2394	2.8914	-3.8340	8.8284	-7.2064
1784.0000	2.3879	4.9060	9.1198	15.4705	3.9992	6.4044	-1.3231	-4.7812	-1.2984	1.4466	3.0936	13.0006	-2.2862	-7.3328	5.0416	-4.8134
1792.0000	-0.5129	3.6349	2.6800	14.8356	6.3387	3.6372	-4.1056	-4.5841	7.5289	9.4800	14.9713	26.9089	-0.2769	10.2106	-5.2845	-12.6398
1800.0000	-0.3498	-8.4149	-14.2874	0.8187	-8.1862	-13.5613	-2.3202	-7.6220	1.3282	-10.0171	0.6521	6.0913	-0.3651	12.8609	-3.3155	-5.3690
1808.0000	2.1070	-6.1242	-9.9477	4.2767	-6.2519	-10.6620	0.3777	-7.1260	-4.9829	-10.1286	0.8514	0.8024	-2.9284	-1.6734	-1.7967	5.9963
1816.0000	3.6170	-26.5172	-32.0096	-17.0307	-25.8689	-35.8245	4.8689	-13.4950	-21.0538	-30.2493	-18.7438	-13.7833	-4.6633	-20.8267	2.3010	16.6591
1824.0000	2.7499	-22.3919	-24.8053	-12.0047	-24.0931	-32.0901	3.7313	-17.7758	-19.7668	-38.1044	-26.4889	-25.7049	-7.2197	-18.9965	2.0486	22.2376
1832.0000	0.4131	2.4255	5.3529	13.8517	4.9839	-5.4907	-1.1114	-10.8818	0.2979	-8.3469	3.1445	-3.8519	-5.8401	-2.1494	-7.1983	11.2937
1840.0000	0.1048	7.6098	9.8283	20.7474	11.7504	3.5165	-2.1957	-4.9329	6.1516	5.3569	13.8762	15.3982	-3.8182	5.2525	-7.3740	2.3230
1848.0000	2.8947	5.4952	9.1433	20.2613	0.4067	4.9822	-2.3067	-4.9569	5.0582	2.7980	12.6737	17.4579	-2.1755	6.3970	-2.8504	2.5161
1856.0000	4.9490	0.3914	6.1814	14.4760	-12.7451	-0.9075	-1.4241	-5.0681	0.4275	-1.3443	9.5587	10.7997	-0.5424	-1.8583	-1.4812	4.6804
1864.0000	4.3157	2.1989	10.7617	13.2387	-9.6863	3.3479	-0.2692	0.5066	3.8182	5.3074	10.6912	16.9855	0.1106	1.6568	-1.7451	8.3834
1872.0000	3.1032	-2.8777	7.7875	1.7570	-10.9979	-4.9242	0.1137	-1.6884	7.0597	0.9118	6.7491	12.4446	1.0321	9.2281	-1.2737	10.5041
1880.0000	-0.3842	1.7416	12.0136	5.9441	-0.4061	-4.2013	-2.0225	-8.0696	7.4897	-6.0055	-0.6474	-1.9133	-2.0976	7.5322	-3.8839	7.4743
1888.0000	-5.5167	23.3888	32.8187	26.9001	29.6645	20.4325	-6.7216	-1.3859	23.9433	18.0948	18.8347	13.3327	-1.9660	24.2338	-13.9690	-5.3314
1896.0000	-6.2530	14.2394	19.2410	12.2232	18.6767	9.9648	-6.1982	3.8071	22.9130	20.5360	19.9027	14.7342	2.9927	26.4455	-15.3892	-13.7499
1904.0000	-4.8302	9.2010	13.0781	9.9041	8.7042	8.4111	-4.3638	6.1910	16.0305	16.2353	11.6165	15.1366	2.7978	18.8180	-11.5138	-10.7054
1912.0000	-3.8887	8.0658	10.4540	7.5197	5.1289	13.1827	-4.0985	6.0730	15.4900	17.9671	11.9155	20.6632	2.9048	20.7119	-10.9812	-7.8744
1920.0000	-2.1965	-11.2263	-14.0810	-14.7263	-16.7878	-8.8871	-0.4466	-3.2220	-5.1247	-8.0641	-13.0966	-7.2342	0.8213	-3.9188	-5.1141	0.2088
1928.0000	-2.5440	-1.4671	-0.9746	1.9000	-0.8462	-1.6488	-0.1732	-0.9956	-3.5299	-1.0303	-6.8953	-0.7379	-2.3436	-9.4637	-6.2097	1.8990
1936.0000	-2.3812	-4.8666	-3.6693	-4.0485	-6.1854	-6.9776	-0.0975	3.4868	0.3270	4.6165	-0.2938	5.7124	1.4309	-3.1847	-7.8766	-2.0353
1944.0000	-2.1828	-15.4143	-16.7802	-20.2844	-23.8760	-17.1602	2.5675	1.4869	-13.7214	-15.3490	-25.0145	-24.5998	0.7021	-19.5425	-3.0111	5.7499
1952.0000	-4.8646	8.5932	12.3183	3.1458	5.8642	9.4948	-0.2347	10.1986	4.3727	6.0965	-6.9256	-12.2712	0.2281	-0.1478	-7.5282	3.4796
1960.0000	-3.7556	0.9096	5.4571	-10.3099	-4.5465	-1.6836	-0.6493	8.9974	8.6649	4.9379	-1.8862	-11.5883	4.7081	10.4931	-7.0365	-0.0887
1968.0000	-2.0970	-11.6029	-6.8591	-21.4095	-19.1486	-19.5506	0.9564	-0.6234	-4.2928	-12.9959	-16.0794	-28.4724	2.8929	-8.7934	-3.8300	3.9149
1976.0000	-3.3583	-2.5519	4.6794	-7.5254	-0.2700	-14.3310	-0.5652	1.1839	4.9595	0.0392	-0.7209	-10.5965	2.2839	-0.5844	-6.6928	-2.7669
1984.0000	-1.0457	-18.8880	-13.1421	-27.9852	-12.7153	-33.2853	2.7844	-5.8730	-6.4253	-14.9523	-13.6654	-18.3371	2.0746	-12.3428	2.4531	0.3488
1992.0000	0.8899	-24.2245	-16.3311	-33.3844	-16.9291	-37.4005	4.5341	-16.5648	-20.7637	-28.1966	-29.1477	-31.8348	-2.0999	-38.9615	9.6292	5.2077
2000.0000	0.3785	-9.5309	2.5735	-11.3110	-4.0258	-19.6933	0.3970	-15.3397	-8.6057	-12.3649	-12.1063	-11.5593	-2.1853	-27.4503	4.2878	-2.0216
2008.0000	0.6336	-2.2869	13.4199	1.2310	5.1725	-12.8956	-2.7672	-15.9033	5.2943	2.1307	8.8646	13.9544	-0.9265	-8.9770	-0.9813	-7.6024
2016.0000	0.8353	-4.2113	11.8679	-1.3498	4.3128	-16.9965	-4.2970	-19.5659	7.1509	4.9392	15.4299	19.2777	0.7396	-8.4035	-2.2999	-15.3477
2024.0000	1.0475	-12.4439	-1.7794	-11.6442	-14.0989	-21.2988	-3.6755	-21.5840	-3.9757	-12.0326	-5.1989	-2.3374	0.7268	-17.1534	1.6798	-13.6546
2032.0000	0.3918	-7.4077	0.3708	-6.6176	-6.0124	-12.0329	-3.2682	-20.1429	-4.0303	-12.2574	-8.2974	-3.6460	-1.5129	-14.1438	3.5328	-10.1399
2040.0000	2.5667	-10.6689	-5.9313	-12.2260	-6.7466	-14.8770	-0.7680	-16.6638	-7.3100	-9.3307	-3.4470	-0.1224	-0.2673	-16.9429	7.1138	-8.4890
2048.0000	7.2051	-22.5116	-20.7649	-26.0335	-27.6507	-22.6173	3.6814	-20.4738	-26.3718	-26.9738	-21.3471	-21.0030	-1.9421	-41.2813	15.6734	5.1318
2056.0000	7.6015	-12.4722	-10.8196	-14.4191	-15.2633	-9.9056	1.8313	-24.9971	-22.6485	-27.2975	-18.3178	-22.6012	-4.5919	-35.3734	18.1336	5.4592
2064.0000	5.5918	-5.0136	-6.1372	-7.7110	-6.0789	-2.0918	-1.3168	-23.4888	-10.5535	-22.9669	-10.2511	-18.0924	-3.2266	-10.8979	15.6114	-0.8387
2072.0000	3.4385	-0.1819	-1.1647	-6.3569	1.8703	6.3731	-3.1658	-23.4708	-4.5085	-13.2400	-3.8098	-9.6070	-2.9122	-4.9920	10.3447	-4.3712
2080.0000	3.5072	10.5784	11.1167	4.6485	18.3178	20.3950	-4.9359	-23.0331	3.5201	-0.9888	8.9433	5.0382	-3.1413	3.3803	11.6254	-10.1787
2088.0000	4.8672	16.8225	16.5362	13.3330	21.6737	29.0624	-3.8154	-16.8913	4.1904	-0.1078	9.5281	3.1183	-3.7007	7.2655	15.2230	-5.1085
2096.0000	2.7362	15.6440	13.9403	9.0917	24.6521	23.4585	-3.4157	-9.9580	7.4574	10.7525	19.0735	8.8349	-0.8838	8.4851	7.8198	-9.8366
2104.0000	2.1772	-1.7107	-8.9361	-8.8220	8.8911	-3.6883	-0.4112	-7.2361	1.3639	-4.8830	6.9376	-2.8964	1.3870	11.4975	10.4336	-9.3187
2112.0000	3.7751	-1.0416	-8.1476	-2.1483	4.6263	-1.4980	3.2083	-1.8909	-6.9913	-17.2072	-9.7191	-16.5425	-2.1585	3.9325	17.7943	5.0284
2120.0000	4.5032	9.4803	5.5610	6.1933	16.5742	13.6038	2.3794	5.2930	2.9263	5.9383	12.1190	5.4070	0.3477	10.9693	14.0749	1.5924
2128.0000	5.6713	0.4119	-4.9289	-4.5400	4.3060	2.4469	2.8246	2.9761	4.0395	-4.1854	7.7465	1.6988	2.1464	23.1498	17.0253	4.4743
2136.0000	4.7082	18.5198	18.6048	19.5541	21.6829	23.2603	0.1888	3.9635	11.8109	2.4052	12.1023	4.0072	-1.0490	28.0009	16.1089	5.1892
2144.0000	2.4785	26.8949	28.9459	20.8163	37.7164	31.2595	-2.2403	10.9101	26.1820	33.1606	42.1581	29.9113	4.0247	37.7734	4.9975	-8.3891
2152.0000	0.6747	-1.0797	-3.5813	-15.6459	9.5937	-3.9569	1.6894	7.2428	9.5995	13.2721	18.2576	8.2791	5.9408	18.2166	3.2268	-5.3647
2160.0000	0.3058	8.3561	9.6895	1.1259	12.4605	7.9483	1.8638	8.2257	1.7840	6.4327	3.2328	-7.7887	1.2085	-0.9308	5.6434	0.1666
2168.0000	0.8772	26.5099	30.0913	22.6870	28.9044	31.8838	-0.6476	17.3199	18.5537	28.5758	27.3337	15.6106	2.7600	22.3764	1.7413	-1.4156
2176.0000	-1.0692	18.4565	20.6435	12.8756	20.3059	22.3061	-1.8728	18.0587	21.6147	34.2685	32.3091	26.7261	6.1591	27.2853	-5.9982	-8.7642
2184.0000	-1.9649	10.3165	11.9773	5.3213	8.3500	9.0483	-1.8747	16.2698	15.6429	27.2664	25.2523	16.6470	7.1795	16.7607	-9.2933	-11.8118
2192.0000	-1.5714	-3.7397	-6.9246	-12.1613	-5.6076	-7.7861	1.1859	10.3024	6.3116	2.8839	4.1378	-6.9026	4.8872	16.4792	-4.7429	2.0708
2200.0000	-1.7417	-5.7179	-11.4882	-14.0489	-5.7872	-4.0687	2.5043	2.2358	-7.8743	-9.2323	-14.7160	-21.4251	-0.6677	-6.5897	-0.6732	8.0930
2208.0000	-1.6724	1.4785	-5.4244	-4.0505	4.3509	4.1432	2.1526	4.8530	-6.8457	0.5587	-4.8435	-13.8984	-1.4415	-10.1292	-3.2835	5.7209
2216.0000	-3.7145	-1.6846	-12.6363	-7.6824	5.6896	-3.8745	1.9311	10.4371	1.0758	4.8005	3.0160	-5.6914	1.2487	9.0996	-8.3616	2.4955
2224.0000	-5.2897	1.8514	-9.5519	-3.3789	9.5850	2.5718	1.8977	10.0351	-4.7211	3.2803	-5.9316	-13.0956	-1.3247	-4.4916	-8.5931	2.0710
2232.0000	-7.2287	4.8358	-3.9877	-3.0748	19.7478	2.6609	1.2973	6.1056	-0.3083	-0.0518	-8.8724	-18.2844	-3.3446	1.8601	-8.5102	4.5596
2240.0000	-9.4475	5.2898	-4.8092	-5.6326	24.3572	0.1818	-2.4271	4.3931	14.7542	4.1810	1.8947	-6.8794	0.1767	31.9342	-11.4578	-6.5535
2248.0000	-8.6155	5.1410	-10.5205	-4.8761	19.1326	5.9039	-2.6444	3.6867	7.3941	2.9697	-1.2291	-10.8000	-0.3069	21.7358	-11.3301	-8.5913
2256.0000	-8.3339	-3.9300	-18.6610	-14.4552	13.5708	-6.8230	0.7855	2.3302	-2.9316	-7.4278	-15.0778	-20.7876	-2.1758	5.5655	-6.9655	-2.4551
2264.0000	-6.0325	-6.5582	-14.4190	-16.0836	5.3908	-11.1904	0.9709	1.7036	-2.7254	-7.3807	-13.9665	-17.2875	-0.2568	1.6129	-3.4034	-3.5109
2272.0000	-4.4045	-8.4504	-15.8699	-18.9953	-5.1958	-10.1713	-0.2867	-4.5656	-6.3748	-8.7511	-12.1027	-22.4719	-0.1031	-7.3132	-7.9643	-0.8958
2280.0000	-6.0404	-12.4206	-17.0233	-23.1105	-3.2113	-20.3692	-0.3726	-5.4037	-4.0436	-6.9447	-10.2461	-17.2726	0.6541	-7.1962	-10.4616	-5.1156
2288.0000	-5.4060	-0.0711	5.7427	-3.0114	7.7727	-9.6008	-0.9085	1.4822	5.0458	3.4425	-2.3385	-3.7505	0.3034	-1.7798	-8.3747	-4.7515
2296.0000	-8.1015	15.5874	24.6571	14.7885	21.0635	8.7115	-6.3668	1.7963	20.6939	16.6147	11.5120	6.6574	0.7973	17.2089	-16.9125	-12.1457
2304.0000	-9.0222	13.5428	18.4447	9.9612	18.9205	6.4018	-8.1872	7.8144	26.9653	29.6034	25.3903	22.1560	6.6878	27.9859	-20.3661	-28.5425
2312.0000	-6.3511	-2.5501	-0.7058	-4.9910	-2.9019	-11.1449	-2.6775	10.7167	8.2437	17.5112	10.0200	9.5369	6.4546	1.7530	-16.8658	-18.4361
2320.0000	-9.7788	-9.7957	-11.9667	-11.2636	-10.7346	-20.9184	-3.8044	3.2806	0.7329	0.8009	-9.3895	-9.4750	3.8246	-5.8896	-20.3018	-19.3438
2328.0000	-8.5277	-7.9972	-15.5445	-6.5189	-13.3781	-14.5586	-3.9027	6.5080	0.8090	-2.1313	-10.8888	-8.9253	4.1479	3.6043	-16.0276	-19.5859
2336.0000	-3.6629	-16.8797	-25.0854	-11.9349	-26.9089	-19.5787	0.4263	2.2969	-11.7815	-12.4050	-18.0888	-12.3072	0.7012	-11.7089	-12.0233	0.1049
2344.0000	-3.7583	-24.2957	-30.2474	-18.6256	-31.0289	-30.0708	-1.4531	-10.4495	-14.7434	-16.0831	-18.1009	-8.0323	-0.0009	-21.2904	-14.1278	-6.6656
2352.0000	-2.5363	-19.7399	-24.5010	-14.7890	-26.1237	-23.8315	-0.7741	-8.1317	-14.2363	-12.8492	-15.3014	-7.3256	-0.1279	-22.1602	-10.7176	-5.2776
2360.0000	-2.4827	-11.5118	-13.1562	-7.4512	-18.3906	-10.5272	-0.1224	-6.2846	-12.6464	-8.6674	-15.3303	-8.2019	-2.6949	-23.4506	-11.6596	4.8806
2368.0000	-2.0504	-9.5875	-10.9495	-1.8961	-16.8103	-8.4964	-2.0545	-7.0466	-8.4561	-3.1551	-7.1023	4.1162	-1.3720	-17.8683	-11.8934	-3.5353
2376.0000	0.7565	-15.0474	-19.4008	-3.8188	-21.3449	-17.5537	2.7973	1.1339	-14.9297	-8.6270	-10.3559	1.2029	-1.3922	-20.6492	-4.9145	5.3462
2384.0000	1.5814	-5.4143	-8.9460	5.8574	-12.1355	-1.9024	4.5660	8.5887	-14.1239	-4.8161	-12.1700	0.5468	-3.1234	-18.9669	0.2290	13.1598
2392.0000	3.1677	2.6547	-2.5855	12.5958	-7.1204	13.3988	2.5134	9.4687	-6.5955	3.0628	-1.2861	10.4559	-1.6371	-3.9599	2.4602	9.6911
2400.0000	3.7840	-18.0718	-27.3009	-14.7870	-22.0667	-17.5675	6.1909	6.5417	-11.9734	-9.6617	-5.8873	1.2010	0.6323	-2.5643	2.4445	15.8074
2408.0000	3.5071	-26.4655	-34.9667	-25.9022	-30.4593	-28.3164	7.8547	0.8075	-21.5939	-24.0526	-22.7034	-16.4248	-1.2664	-16.9548	5.3763	20.8837
2416.0000	4.1560	-6.1029	-11.0231	-0.6565	-19.0651	3.1270	3.1435	-2.5443	-15.1632	-17.0123	-17.5513	-13.8139	-4.0046	-13.3587	5.2362	18.9004
2424.0000	1.9190	6.4965	7.5396	10.2877	-1.5559	14.2306	-0.2048	2.5237	2.6821	5.2601	5.1050	7.3152	-1.1151	4.8856	-2.1678	9.5176
2432.0000	-0.4599	5.4958	8.6485	6.3590	4.2730	9.6094	0.2958	5.6226	3.3965	10.4784	4.7266	10.2816	-0.1710	0.2523	-3.2442	3.5091
2440.0000	-0.5325	4.0282	4.6110	6.0050	0.7484	8.0291	0.0714	7.3359	2.4015	10.2375	4.8348	10.2420	0.8495	0.7965	-3.8111	0.3348
2448.0000	-1.1868	0.4334	0.6987	-1.7525	-3.4012	2.0249	-0.1840	12.5191	8.1501	19.6482	15.6120	19.1012	5.3101	9.3048	-9.2115	-4.4454
2456.0000	-2.2639	-6.5432	-8.8590	-10.9999	-11.8544	-2.4195	0.4771	4.9706	-5.4076	7.2200	-2.8000	1.5727	2.3442	-13.1844	-9.2326	-2.1710
2464.0000	-1.1276	-9.8405	-13.1524	-12.3282	-13.9707	-5.3757	0.4460	-2.6880	-10.6888	-2.0400	-9.4999	-2.7624	0.1399	-19.0094	-4.8570	-1.6238
2472.0000	0.5760	-7.3588	-4.6313	-11.0066	-6.9407	-6.5523	0.7719	-1.9571	-2.6806	3.7758	1.1275	7.8423	1.6433	-8.7576	-0.6941	-1.8677
2480.0000	0.3673	-3.6824	3.3006	-3.7076	-6.0101	-3.0985	-1.0211	-8.2674	-4.4133	-0.1883	-3.4507	2.4689	-0.6845	-17.5654	-1.1548	-2.7489
2488.0000	0.8008	-0.2955	6.5335	4.2844	-5.7267	3.5122	-3.4367	-9.7104	1.0912	6.6781	6.3509	16.9563	-0.2146	-9.1197	-5.0567	-6.3256
2496.0000	1.2655	8.9657	15.2422	14.8046	2.5436	19.1992	-4.3746	-5.0108	7.6096	17.8546	16.3223	29.7167	-0.0107	0.9709	-5.7602	-6.3057
2504.0000	0.3090	16.5668	24.9354	28.4044	9.0198	24.7399	-5.7553	-1.0113	11.0243	23.9317	21.2733	33.9296	-0.1830	0.9722	-8.4406	-11.1034
2512.0000	-0.2739	0.3810	6.0807	11.2800	-4.1003	-0.0802	-4.0055	-1.2503	7.2649	18.1946	19.1364	34.4261	2.4677	-0.3123	-11.0378	-13.6417
2520.0000	1.6596	-14.5594	-19.6345	-8.2142	-24.0701	-10.4836	0.1146	-5.6138	-13.1754	-9.1165	-10.1474	3.2696	0.1583	-16.1438	-0.6505	-3.2306
2528.0000	5.4115	-2.7844	-9.2706	7.9143	-16.3479	7.8831	3.6083	2.9976	-14.5694	-15.6305	-16.7556	-6.7740	-3.5254	-8.6000	11.8260	14.7036
2536.0000	4.8251	2.7058	1.0527	12.3462	-5.1815	11.4580	3.0506	4.8526	-1.3078	-9.3656	-7.3679	4.6987	-3.2317	13.3840	11.4150	18.6475
2544.0000	1.5703	3.4544	0.8625	9.1895	-5.1137	11.1358	-1.3858	0.3053	3.5390	-5.5516	-3.9229	4.0982	-0.6844	16.9415	4.6691	3.0425
2552.0000	-1.2030	8.9814	8.8341	13.6403	10.2510	8.7322	-0.0768	10.5072	8.2835	9.5543	7.8333	9.9827	0.4161	13.9837	-2.0523	0.1421
2560.0000	-2.6067	-4.2572	-4.2748	-1.4382	2.0775	-11.8578	2.4878	5.8120	-3.1707	-6.6909	-11.6517	-6.8649	-1.1459	-3.0991	1.3501	1.5552
2568.0000	1.6893	-11.7695	-16.0499	-4.4249	-23.1930	-13.9103	2.0105	-1.3183	-16.2658	-27.3098	-28.4884	-25.0835	-1.1998	-13.8864	10.3770	1.6094
2576.0000	1.7715	5.0771	5.8039	15.4160	-2.4236	3.7528	1.4011	5.8205	-5.5906	-6.1249	-6.8156	-8.8630	-2.0599	-8.3380	4.1901	5.1014
2584.0000	-2.5310	18.6852	26.3647	29.3913	20.8523	13.2934	-3.6312	6.6647	13.2708	12.6191	10.9281	11.6412	-0.4733	10.0922	-2.1865	-11.4258
2592.0000	-0.3077	9.7590	19.0748	20.4854	7.4088	-0.9096	-4.0663	6.8312	20.2580	9.6287	17.5044	19.6524	4.4603	29.1984	0.6391	-15.1166
2600.0000	1.7564	-6.3347	3.9026	-0.0393	-5.2241	-23.2064	0.7909	-1.6619	1.0357	-6.3342	2.0755	-1.6029	1.8777	-4.7413	3.9635	-4.2275
2608.0000	4.4316	8.7664	21.7474	19.2055	9.0760	-0.5688	0.8390	-3.9169	-4.6727	-5.5205	-0.7954	-6.7320	-2.8692	-21.2783	13.3734	-1.9162
2616.0000	5.2264	27.1166	43.8696	38.7596	33.8708	20.5637	-1.0000	5.0117	21.9871	18.2044	31.1731	25.6176	-1.2785	23.3114	10.6433	2.7740
2624.0000	0.0764	14.2643	27.5010	18.5361	24.8523	2.0119	-5.2173	-5.7767	22.8744	14.2760	27.7924	21.9509	1.8785	23.8156	0.4738	-15.4833
2632.0000	1.2511	10.5140	18.3104	17.7025	9.6273	5.3364	-4.6925	-7.0083	7.4154	1.5854	8.5585	5.2192	0.5291	3.0870	5.8281	-16.9012
2640.0000	3.2397	8.7721	17.8540	15.9717	14.7689	1.4952	0.5837	-0.0836	7.0140	3.1112	11.3080	9.6901	-1.2748	5.7661	8.4797	1.4314
2648.0000	4.2547	-7.3378	-0.1192	-2.7345	-0.9229	-22.0139	1.0874	-6.3448	-2.1672	-7.8722	4.1861	2.3675	1.9297	-6.9193	13.5886	-10.8902
2656.0000	8.1849	-4.9517	1.7523	3.8324	-4.8867	-13.2946	4.4968	-3.4642	-9.9792	-15.0758	-4.0625	-4.6236	-1.3223	-14.2117	21.4693	5.2197
2664.0000	4.4971	6.3134	19.5685	14.6175	13.4364	0.0569	3.0563	-5.0500	-0.1686	-5.8368	-0.1301	2.2919	-5.5652	-7.3812	11.9958	15.0224
2672.0000	3.0014	8.3170	21.5196	16.0566	9.7597	3.1725	-2.3714	-4.7775	9.0135	5.6169	11.6685	17.1147	0.4316	3.7405	8.5224	-9.4823
2680.0000	6.7140	-0.0453	8.9721	6.1559	5.4562	-6.4711	3.4244	-0.6156	1.6186	-0.7405	9.6853	13.9414	-0.2699	1.5623	15.7849	5.3861
2688.0000	4.7987	-3.9887	4.5829	1.1363	5.6162	-13.8118	3.3737	-11.6868	-9.2724	-16.3325	-7.9667	-8.6044	-4.7556	-18.7284	16.0132	6.9758
2696.0000	3.7893	14.0744	21.5103	21.6469	12.1654	14.3142	-2.2509	-5.9704	0.8927	-1.0853	3.4898	-0.0605	-2.1535	-6.6531	12.5723	-7.7615
2704.0000	3.8692	12.0520	19.1809	15.4997	17.5219	12.3300	1.2351	3.0496	5.8191	8.2290	11.3602	12.8304	-1.0258	4.3560	11.7174	1.5812
2712.0000	4.4806	-6.2870	0.6893	-1.4027	-4.1606	-10.5289	3.1661	-2.9820	-7.7509	-12.5195	-11.5103	-0.0608	-0.8774	-11.5273	18.9944	-0.5825
2720.0000	6.1432	7.2485	11.3577	16.0828	-2.2125	15.7723	1.0607	3.7862	-0.8256	-2.7979	-2.9257	9.8527	-0.4182	3.8256	18.6138	1.4851
2728.0000	3.8029	18.1705	21.2340	23.5689	13.1328	31.0274	-1.8817	6.2016	10.1744	17.5326	16.4878	26.0024	0.6448	14.3326	8.3641	-4.2354
2736.0000	2.9018	14.8947	16.7521	22.2306	3.2255	27.4994	-3.8233	2.3473	3.9166	10.3840	6.8497	16.1654	1.1938	2.8926	8.1414	-13.7134
2744.0000	2.8222	20.2181	17.2872	23.7553	12.1683	37.5328	-2.6206	6.8282	8.5125	14.3946	11.9161	17.1145	0.1807	17.0640	7.1221	-3.9370
2752.0000	1.6400	15.1449	9.1934	11.7015	18.6633	27.1371	-1.6627	6.7870	10.7437	18.1053	18.7794	20.2838	2.0429	21.7470	6.3187	-8.6177
2760.0000	2.5549	15.5778	9.1489	15.0143	13.6308	26.3212	-0.8957	6.6671	5.7944	5.3489	6.8268	3.0167	0.4766	18.4662	11.3814	-3.7126
2768.0000	1.2277	30.7547	23.8485	27.4852	29.3017	46.2346	-3.5509	9.5474	19.0843	15.5538	18.9864	6.2530	0.1728	40.0715	6.8357	-1.2776
2776.0000	0.3248	24.1791	17.1719	15.5198	24.8788	35.6455	-4.4713	12.2978	21.1036	27.9532	30.9941	18.4225	6.0404	36.7973	2.6131	-17.7516
2784.0000	1.8103	0.1865	-9.5197	-12.9150	0.4248	4.9866	1.9865	11.5305	0.6268	10.6403	11.4942	-1.2477	6.2055	8.0500	4.8349	-6.5277
2792.0000	2.0616	-15.2536	-28.1523	-34.4385	-9.9960	-14.7863	5.9982	5.2651	-12.0371	-8.1655	-6.6172	-21.9342	4.1152	-5.1223	8.6527	4.4279
2800.0000	3.2570	-21.0473	-33.4335	-39.3380	-14.6668	-20.6777	8.2650	-0.2408	-22.0765	-22.2755	-22.3513	-33.9548	0.8064	-18.4966	15.5870	11.6779
2808.0000	3.3232	-20.1917	-31.8400	-38.5506	-14.7894	-15.3057	8.2372	-8.2479	-26.3630	-27.3945	-28.1832	-40.6473	-3.5903	-27.0799	11.9037	23.4855
2816.0000	0.5098	-9.7798	-17.9961	-27.2804	-3.9727	-3.1804	3.9503	-7.4638	-14.4388	-11.7300	-14.5314	-25.6930	-2.3843	-16.9277	3.0117	13.7583
2824.0000	-1.7594	-1.4141	-6.5030	-13.6858	5.3473	2.3581	3.2017	3.3735	-4.2117	-2.4725	-8.9235	-15.1747	-1.2248	-2.3412	0.7284	10.3171
2832.0000	-2.3088	-4.4546	-14.5626	-17.2189	-3.4197	0.7996	1.5528	4.7992	-0.2037	-0.9913	-3.8040	-12.0067	1.4673	10.7058	-5.2228	7.7679
2840.0000	-2.3033	-3.1757	-14.0299	-14.5839	-5.7926	5.6930	0.6721	6.0592	-0.9985	4.4361	-0.9886	-6.1092	2.1824	6.7888	-7.6723	4.0304
2848.0000	-2.3954	-8.3520	-14.9559	-19.6230	-2.7721	-6.1952	4.3375	4.8022	-7.8660	-5.1632	-13.1896	-15.7683	-0.8803	-6.2776	-2.2166	12.4243
2856.0000	-0.8379	-19.2832	-27.6072	-31.6841	-18.2182	-20.6194	3.4230	-3.9936	-10.9212	-18.9202	-18.7301	-24.6012	0.7127	-3.8195	0.5487	9.5522
2864.0000	-0.2189	-3.4791	-9.4105	-7.0997	-10.4074	2.6724	0.4540	-0.6310	-4.3198	-11.4147	-13.3812	-15.3360	-0.7062	4.0641	1.0525	7.5302
2872.0000	-1.0816	4.6227	3.3818	1.3943	1.4869	10.3927	-0.1243	5.3067	3.1835	4.1176	-1.0164	-0.7074	0.4267	7.0044	-1.6779	3.2961
2880.0000	0.8375	-5.5488	-7.0887	-13.2638	-11.0987	-2.3593	1.3276	4.9732	-1.9205	4.5697	1.8920	-0.9338	3.8788	-2.3892	-1.3382	0.4296
2888.0000	1.3042	5.7041	6.3186	3.5839	1.2716	9.3888	3.2312	10.5037	-3.4368	2.0184	-3.9985	-9.5021	-0.3401	-6.0054	3.7188	10.4756
2896.0000	-0.7703	11.8572	12.7800	8.4423	10.6126	12.4213	1.2235	15.5560	8.1215	12.2541	8.2668	-1.4089	2.2219	11.2744	-0.9237	3.4954
2904.0000	-1.3696	10.8896	10.9939	7.1172	3.9887	15.4134	-1.1666	13.7961	11.0654	19.2184	15.2604	7.6898	3.9806	13.9433	-8.8762	-0.3261
2912.0000	-1.1711	8.1972	9.0259	9.0621	-1.3445	14.3287	-1.4573	9.4906	8.2904	15.4388	11.3394	10.2032	1.8957	9.6828	-11.4141	4.0998
2920.0000	1.4350	-15.7666	-19.0827	-18.7409	-30.0826	-15.8993	1.4372	5.2551	-1.8644	0.2756	3.7418	1.4095	5.5662	3.8608	-9.7802	6.6964
2928.0000	3.4336	-11.3716	-14.0353	-10.1039	-28.9114	-7.7158	4.8627	5.2042	-13.3206	-12.4885	-13.0919	-18.1112	-0.5822	-13.1149	-3.2090	25.0314
2936.0000	1.1215	5.4546	7.0088	10.8443	-3.5866	9.7536	3.6937	9.8532	-2.6814	-2.0976	-6.4718	-8.5160	-3.7368	-1.7532	-3.7211	26.1254
2944.0000	0.1745	-7.2181	-6.5319	-8.7261	-9.7520	-10.9864	4.7173	11.9086	1.0211	1.8732	1.2503	-0.4201	1.3673	6.1353	-6.6056	19.2697
2952.0000	1.4399	0.3939	3.5019	1.6771	-1.5861	-1.3671	5.3967	11.7213	-1.5078	1.7864	-0.3198	-3.9255	-1.5168	-1.9906	-2.4910	23.6512
2960.0000	0.5104	10.0610	14.1837	10.1749	13.0580	11.0371	2.9528	14.2846	10.7682	17.8205	16.5808	15.0592	-0.0018	14.1456	-5.2129	16.3205
2968.0000	-2.1767	5.4412	7.4573	-0.6757	13.1494	4.4697	3.0513	12.6100	9.0795	16.1018	11.9725	7.9174	0.2450	10.9462	-9.1778	14.7286
2976.0000	-3.9258	15.9962	18.1085	15.6453	21.5059	16.9485	-0.1996	9.3511	9.9912	13.0758	6.7981	1.1915	-2.6119	9.7023	-9.2056	8.8569
2984.0000	-4.8226	10.2366	8.2065	8.6808	19.8376	10.4131	-2.0993	8.8802	18.0034	20.7698	19.4127	21.0847	1.1157	27.8066	-13.2362	-1.7383
2992.0000	-5.2025	0.6974	-3.3988	-2.7032	10.7473	-0.0786	-0.5515	2.3714	5.2299	9.8528	5.7320	6.9891	-1.0361	6.4940	-13.8562	1.5623
3000.0000	-3.7342	0.3454	-3.3859	1.5644	-3.2359	2.5809	-2.6754	-2.1848	-0.5109	1.9629	-1.6763	-2.6594	-0.9847	-3.1976	-13.1555	-1.8853
3008.0000	-2.7054	-9.5021	-15.8290	-12.2780	-12.3627	-7.0747	-1.4883	-2.6369	1.2188	-0.2720	-0.0222	3.5755	1.3401	8.3308	-12.2377	0.8986
3016.0000	-2.1360	-8.0543	-12.0946	-10.0148	-6.3392	-6.3707	-0.8654	-9.5947	-4.5213	-7.2594	-7.3313	-4.6799	-2.4290	-4.4373	-7.7172	4.1513
3024.0000	0.4566	-13.7286	-17.0204	-13.1938	-18.3338	-12.9683	-1.3165	-15.4593	-9.6942	-14.4693	-9.7738	-8.0104	-1.7248	-11.9471	-4.4753	1.6817
3032.0000	1.7212	-14.2679	-17.2477	-15.6036	-14.4478	-14.2608	2.6009	-12.6078	-13.7516	-20.3814	-16.5443	-16.8240	-4.1680	-14.9374	1.2562	15.1982
3040.0000	-0.6474	7.1388	8.7363	7.6239	12.4790	7.4726	0.2972	-3.6609	1.1054	-1.1476	-0.2435	-5.5775	-4.5629	-0.8955	-2.3990	11.0172
3048.0000	-4.5698	-0.2076	-1.3057	-4.3085	7.0447	-2.5307	-2.5136	-1.9129	9.9216	8.8524	9.2413	9.1272	0.6695	13.7715	-13.4505	-2.7463
3056.0000	-4.7231	-5.4307	-5.6338	-8.4792	2.7557	-8.2642	-0.5740	-7.0130	-2.7055	-5.3680	-10.7205	-6.8491	-3.0038	-7.3407	-7.8346	1.3746
3064.0000	-1.8516	3.5876	7.6408	4.5820	7.0425	1.4368	-1.3434	-3.4331	2.0556	3.2333	1.5474	1.3332	-1.6963	-4.7484	-4.8451	-0.9639
3072.0000	-2.9178	-9.6038	-13.3901	-17.1287	-4.4582	-11.4243	-0.3663	-4.5997	-0.0977	0.0150	0.2537	-1.0786	0.9261	1.1150	-9.4355	-0.1193
3080.0000	-2.2551	-7.1384	-14.2980	-13.0166	-4.3470	-2.3287	0.5194	-9.2779	-12.9455	-12.0627	-17.5875	-18.5106	-3.8287	-17.9610	-2.7215	4.1889
3088.0000	0.1849	0.6808	-3.6484	-0.5199	0.1222	7.5497	-0.4173	-3.9758	-6.0609	1.9125	-0.5684	-0.0255	-1.7285	-11.2247	-2.2696	0.0541
3096.0000	-3.9130	-2.9079	-10.0811	-6.6802	4.1685	0.0145	-0.6366	-5.2328	-5.3292	-3.1031	-8.3354	-6.5401	-2.8795	-7.1040	-6.4416	-0.8772
3104.0000	-5.8698	-2.2184	-10.2176	-3.6961	4.5476	-2.2460	-2.1172	-8.2939	-5.9471	-13.4120	-18.9253	-18.7728	-4.2807	-5.1160	-5.2438	-4.2013
3112.0000	-3.5821	-15.5671	-22.6656	-19.6194	-10.5997	-20.8403	-0.0791	-7.9793	-6.6814	-13.0867	-12.0128	-12.3864	-0.5316	-4.0128	-7.2964	-1.2112
3120.0000	-3.9594	-14.7480	-20.6387	-18.0331	-8.5401	-17.4097	2.2037	-10.9823	-17.3121	-23.0325	-29.1945	-28.0289	-5.8709	-23.4450	-4.3862	10.1411
3128.0000	-3.4705	-3.5076	-7.6476	-4.1831	0.2460	-1.5567	0.5235	-7.6778	-8.2920	-18.5727	-24.4741	-21.4273	-6.0844	-6.7573	-0.9322	10.0532
3136.0000	-2.6211	-6.8164	-9.3103	-12.2697	-0.2889	-7.5347	0.5793	-5.5075	-1.2029	-9.4908	-10.9961	-8.6019	-2.0070	3.9848	-1.8832	5.9056
3144.0000	-3.6012	5.6670	7.5484	3.6347	14.9162	6.2389	0.3607	-2.9518	-4.8796	-1.3284	-11.2933	-10.2303	-4.9480	-16.4140	-1.3718	2.2174
3152.0000	-4.6719	11.0082	12.0440	10.1992	22.1718	11.5608	-1.4647	3.2784	6.6843	12.0884	4.0480	7.6311	-2.1077	2.6087	-5.5380	-4.9134
3160.0000	-5.0829	5.4856	3.8480	5.0772	15.8402	5.5813	-3.1004	0.3317	10.9855	9.6918	6.0775	14.3837	-0.3172	16.5485	-7.0708	-9.4258
3168.0000	-4.8590	5.1998	5.1413	9.3725	12.2179	3.1766	-2.9979	2.2616	7.4965	8.5054	2.9738	12.9575	-0.1527	7.8404	-6.1351	-12.8823
3176.0000	-4.6839	-9.3859	-12.3704	-11.5539	-0.8782	-19.0764	0.8029	8.6325	3.5284	3.3745	-0.5264	5.3493	3.8442	8.0985	-5.3808	-10.4347
3184.0000	-1.5667	-1.3483	-4.1086	-1.1571	0.4127	-2.6249	1.8421	9.5184	0.1674	-1.6113	-6.9180	-1.8110	1.0463	6.3607	3.1386	-0.6145
3192.0000	2.0583	17.3881	19.1846	25.2035	12.1497	25.5743	-1.0072	13.5502	13.9259	18.5714	17.9698	25.4453	1.3450	23.5640	2.4960	0.3942
3200.0000	2.5148	2.7057	1.8445	6.5669	-4.7034	5.1851	-0.9157	9.7664	12.3430	15.0203	21.7209	24.8031	5.1299	24.8337	-2.9339	-2.1191
3208.0000	4.3705	-13.4904	-14.5524	-9.4572	-28.2936	-14.3998	2.2166	0.7204	-10.3657	-9.8125	-5.3315	-5.5151	2.5945	-11.0768	2.1890	4.8661
3216.0000	5.0078	-27.0007	-23.4910	-25.2763	-37.2167	-37.9149	6.0456	-2.9570	-20.4398	-20.4895	-15.5612	-17.5973	1.8669	-31.1497	3.9947	11.7030
3224.0000	3.5113	-35.8696	-34.6358	-39.5392	-40.6046	-50.1416	7.8679	-9.1207	-27.9256	-37.6676	-34.0118	-37.9833	-0.4827	-37.0282	7.7284	17.3145
3232.0000	3.4562	-23.5881	-25.1588	-26.1653	-32.2634	-24.4119	5.9051	-12.3168	-28.9616	-39.5278	-41.7286	-42.2148	-4.6250	-36.2454	11.6255	20.2030
3240.0000	1.4365	-10.5497	-6.4969	-10.2176	-14.1016	-13.5449	2.1674	-12.1583	-16.7345	-21.8420	-23.1335	-25.2861	-4.3332	-29.6080	4.2629	10.3908
3248.0000	1.1534	-11.2255	-5.6982	-6.5386	-14.9469	-18.9342	0.2021	-13.1766	-12.7259	-17.1969	-14.2915	-15.5703	-2.5280	-26.5755	0.5867	1.4263
3256.0000	2.7110	-22.7527	-24.5130	-19.3858	-31.9617	-24.7634	1.9574	-12.4282	-19.8773	-22.2278	-19.8252	-13.6592	-1.1086	-27.4815	1.4578	4.6779
3264.0000	-0.3337	-15.8504	-14.3752	-11.2485	-18.0828	-23.3939	1.3356	-15.0012	-18.9800	-26.7481	-26.4924	-26.4768	-4.9324	-31.6502	-0.3155	6.7389
3272.0000	-1.9650	2.1947	12.5232	13.5770	6.1111	-12.8283	-4.1806	-18.7133	0.2348	-14.5558	-5.5742	-12.7701	-5.5422	-11.8879	-5.0753	-3.3693
3280.0000	-1.5033	-2.5622	5.6541	7.1742	0.1349	-19.3319	-5.4694	-15.0930	7.8054	-2.7542	11.8045	5.5413	0.0305	1.7420	-10.2450	-12.9410
3288.0000	-2.1474	-2.0726	4.7394	8.5727	-1.8219	-19.3498	-2.5236	-6.7969	-1.2230	-8.7947	-2.6324	-10.6631	-1.0864	-12.3812	-6.1898	-8.9965
3296.0000	0.3631	0.9154	9.7300	13.9118	-2.1216	-13.0457	-2.4634	-5.1183	2.2464	-5.2632	3.1338	-0.9571	-0.3937	-5.2643	-2.0867	-7.3100
3304.0000	-0.0475	-2.4465	6.8381	8.7743	-5.6115	-15.9250	-4.1741	-7.5862	5.9447	0.2488	9.8328	9.9398	1.9501	-0.8793	-5.4280	-14.4122
3312.0000	-3.4219	12.4096	24.8135	25.1627	12.5604	-0.4224	-5.7364	-2.8076	9.7089	7.6043	8.6964	6.0694	-0.3039	-4.3882	-7.5816	-18.3373
3320.0000	0.2719	10.7894	22.8784	22.3483	9.3831	0.8298	-4.4032	0.6864	12.6727	17.6067	23.8968	22.5867	2.5598	1.8811	-5.9894	-16.2947
3328.0000	2.1028	-7.2361	2.5520	3.1874	-9.1474	-23.6177	-0.2811	-1.0454	0.9612	0.7000	9.8298	9.6381	3.1290	-8.4643	-0.7363	-9.5986
3336.0000	-1.6951	-3.8073	7.8263	4.7345	1.8475	-24.7703	-1.0588	-3.6683	4.4373	-9.0550	-2.8724	-4.5164	0.3771	-1.1514	1.0915	-8.8713
3344.0000	1.4268	0.3612	15.5525	7.3196	3.6010	-13.8332	-3.0817	-8.4836	11.0196	3.4411	14.3546	15.5095	1.9362	4.7060	1.0709	-11.2987
3352.0000	6.8424	-4.4862	14.7989	8.4671	-10.0359	-17.3011	0.1227	-9.2180	-2.3600	-1.2406	9.7294	13.6418	0.9443	-21.3555	8.2552	-4.3895
3360.0000	7.0024	-3.3329	15.7693	10.2483	-5.3093	-16.5033	0.7431	-11.1356	-3.4175	-6.5354	4.8968	9.5323	-1.0243	-20.5435	12.4840	-1.6323
3368.0000	7.3168	-2.0499	14.3339	8.1358	-1.7816	-9.6700	-1.6817	-17.2266	1.4762	1.3363	16.6334	22.6035	-0.3102	-12.4470	9.0517	-6.2443
3376.0000	8.1353	-13.4178	-0.8928	-6.3161	-16.0154	-19.6980	-0.1167	-20.7627	-8.9846	-6.8546	7.2259	14.5381	0.0716	-25.7470	9.9129	-4.9382
3384.0000	7.5299	-12.5562	-7.1694	-6.4407	-12.1884	-12.2310	1.0210	-23.7848	-16.8515	-19.2375	-9.4672	0.7102	-4.2462	-29.0436	16.3896	0.6640
3392.0000	6.4042	9.3272	13.1020	22.5231	13.6030	17.0240	-1.7005	-17.8356	-4.7254	-2.2911	6.4416	18.5972	-7.0172	-12.0173	13.3630	-0.5866
3400.0000	5.6408	3.6061	4.5464	13.2380	5.9034	6.8111	-2.6858	-11.1159	5.8406	6.2886	21.2846	29.9399	-0.6387	10.5309	6.4019	-6.9132
3408.0000	5.3196	-3.9469	-10.4146	0.5418	-7.4913	1.6915	-1.5555	-12.1423	-2.9810	-13.4184	-0.4946	3.6220	-0.6170	10.1193	13.0541	-4.3367
3416.0000	2.7640	19.6472	14.3348	29.5885	20.2844	27.2139	-2.5362	0.9476	6.6033	0.4497	6.7515	6.7659	-2.9258	19.5975	12.6961	-5.6093
3424.0000	-0.6888	21.2829	13.8421	25.0470	31.5288	21.8128	-3.6180	13.0565	23.3836	23.8224	32.9433	28.3144	3.6845	44.2120	1.6196	-17.4664
3432.0000	-1.2996	6.1391	-8.8447	2.6050	13.3459	8.5840	-2.6525	5.6175	9.9866	6.2310	13.2635	7.2031	3.8010	31.4826	3.4633	-17.6851
3440.0000	0.4826	1.6927	-11.1589	-3.0172	2.3203	6.1120	-1.0543	2.3627	0.6172	-3.4484	1.0215	-6.4945	2.5379	15.6075	7.1920	-10.6789
3448.0000	2.1977	2.0483	-6.6081	-5.5721	1.4839	6.9084	0.9783	6.5564	0.3771	2.2095	5.0247	-3.9515	3.6531	10.6354	8.6257	-5.4205
3456.0000	1.6176	7.4361	0.8653	0.1442	9.9561	13.5362	2.1161	7.3460	-3.0834	0.1504	-2.6711	-11.2402	0.6236	1.4183	12.1529	-1.3270
3464.0000	1.1387	8.5978	3.9681	-0.6426	14.1757	12.9407	1.8587	8.5794	1.7963	4.6359	2.5310	-6.2120	1.7186	7.6624	11.5290	-2.9952
3472.0000	1.9721	19.4252	15.9551	13.4019	21.7668	31.4179	0.7386	13.9100	8.2941	16.8687	12.1459	8.7597	1.7150	16.0498	11.3562	-2.8816
3480.0000	1.5561	22.2958	21.3818	19.1562	25.0684	34.6823	0.0184	16.7855	15.4793	24.6799	20.0804	22.7857	2.2589	26.2527	7.9886	-2.3253
3488.0000	2.5403	6.8720	5.6871	-0.4516	9.2374	13.8378	1.8889	12.8236	11.1404	14.1224	13.8909	16.5514	4.2470	25.0816	9.2456	0.7701
3496.0000	3.4051	16.6064	16.5830	14.8216	14.1568	29.9448	1.5924	11.4342	6.2268	11.3549	6.8887	9.5712	-0.1419	13.8836	11.6504	6.8250
3504.0000	0.8250	13.7016	17.2803	8.7780	15.4306	20.4975	-0.6910	8.2551	13.5251	22.6965	21.3225	20.0543	2.2930	15.7823	-1.5738	0.5983
3512.0000	1.2390	-4.7573	-1.9398	-17.1202	-2.9404	-3.3821	1.6622	1.8656	1.6145	10.2861	9.2684	5.4125	3.9513	-2.4302	-0.6446	0.8592
3520.0000	2.9408	7.5633	11.1511	2.9465	8.4723	15.8661	2.8070	3.6516	-1.7217	4.3359	-1.0819	0.6103	-1.6025	-5.1317	9.8200	9.6821
3528.0000	1.1347	10.2321	15.6437	3.6316	16.4524	14.8305	0.2752	4.5935	12.9944	14.7961	14.4206	16.2306	1.2752	18.2041	4.3779	3.0331
3536.0000	1.7568	15.1163	22.1048	4.6739	14.8599	25.1656	-0.8850	5.8620	13.1466	19.7206	15.6550	13.8078	2.8450	14.0024	5.3050	-0.6248
3544.0000	1.7252	24.9520	33.0331	15.3562	23.3836	39.0894	-2.7871	7.9176	20.0830	30.1098	26.0888	22.6748	3.0435	21.5236	2.6897	-2.5098
3552.0000	-0.8532	3.3189	6.4878	-10.3729	2.2377	6.4577	-3.1182	0.6865	14.0279	14.5657	15.4867	8.9425	6.1099	18.7313	-3.2493	-9.8294
3560.0000	1.0775	2.4772	3.7554	-5.3215	-10.6727	10.6778	-0.8366	2.3907	-1.9478	-1.4467	-7.6078	-12.9892	2.8994	-3.3907	4.5302	-2.2006
3568.0000	1.9124	11.9182	12.9902	4.4361	3.7091	24.9762	-0.4450	10.3482	8.2483	17.3585	11.8156	10.3611	3.6466	11.8146	2.5535	0.4426
3576.0000	0.3153	3.4458	1.1337	-6.4569	0.2327	10.4028	0.2461	9.7757	5.9415	12.0682	7.8919	5.3416	4.8908	11.8101	1.7271	-3.9041
3584.0000	0.6030	10.1385	9.1191	8.5395	0.5389	16.0094	0.6145	13.3753	1.9441	4.4195	-1.9014	-7.7656	2.1907	5.2739	4.6136	0.4904
3592.0000	-1.0958	2.6494	0.0128	-5.0797	1.9010	2.2359	1.0433	15.8745	8.1760	14.2187	11.4004	4.6618	6.0374	14.8675	-2.2557	-4.6391
3600.0000	-1.2663	-7.5967	-13.5544	-19.9395	-5.1744	-10.2567	3.7091	14.2613	-2.4386	0.9846	-5.0634	-10.9342	5.7539	3.0736	4.7788	-4.6718
3608.0000	-1.7444	5.7178	-2.6427	-1.7499	5.3552	10.9147	2.0129	16.0732	0.7148	2.3366	-6.3882	-11.2384	2.5754	10.7497	5.7623	-1.9121
3616.0000	-4.8051	-5.2728	-21.0966	-19.2219	-1.3727	-0.8489	1.3383	14.3049	-1.6614	5.8280	-4.2403	-7.9200	5.1659	8.6536	-3.6227	-10.1748
3624.0000	-1.8924	-25.0637	-38.2135	-38.3652	-24.3283	-29.5049	7.7323	11.4241	-22.6254	-20.8705	-32.0506	-35.7748	3.3359	-20.9688	6.7744	3.2476
3632.0000	-0.6494	-21.6827	-29.1108	-30.7117	-18.3162	-27.9930	8.5439	8.3300	-19.7830	-23.3519	-31.2168	-33.1615	0.0832	-17.9362	8.1751	14.2746
3640.0000	-4.5987	-20.9853	-34.7995	-34.5427	-12.5857	-20.6710	4.8809	3.4636	-17.0314	-11.0947	-23.0522	-20.1335	0.4489	-17.0978	-3.6248	2.9457
3648.0000	-4.6449	-22.3366	-38.0113	-31.8997	-20.6506	-20.1677	3.6256	0.1709	-19.8999	-18.0761	-29.3238	-25.7392	-0.6122	-18.4845	-5.4774	3.9391
3656.0000	-3.6868	-10.1651	-22.9891	-11.1229	-15.0384	-5.3203	-0.3277	-3.4511	-10.8001	-16.3449	-21.4039	-19.5961	-2.2240	-4.1874	-6.9733	3.5374
3664.0000	-2.0319	-1.8668	-14.6045	-0.2182	-10.9932	10.2648	-2.2240	-2.5831	-8.2000	-3.1517	-8.3760	-4.9549	-1.6181	-5.6354	-8.7824	-1.3247
3672.0000	-0.5598	-11.0573	-22.7727	-10.4364	-20.5438	-2.7881	0.0795	-1.0529	-10.2618	-3.8519	-6.2578	-1.8420	0.1549	-7.6145	-9.5079	3.3298
3680.0000	-2.3274	-14.0726	-24.1506	-14.4419	-21.4081	-11.3356	0.7597	-3.8553	-14.0735	-16.3862	-20.5382	-19.6270	-1.6852	-12.9799	-7.6375	6.0604
3688.0000	-3.3927	1.4898	-4.3092	0.7939	-2.9478	6.6024	-0.6701	-1.3788	-5.7491	-9.3400	-16.0373	-19.5375	-3.5931	-5.0795	-6.5941	7.4754
3696.0000	-4.3598	12.9295	8.7980	10.9690	11.7063	19.9343	-3.6658	3.6040	11.7990	9.0374	5.4871	1.6843	-0.8206	21.0850	-10.9201	0.8857
3704.0000	-3.8839	4.3711	-1.1020	3.3112	-0.0150	7.9136	-1.9888	5.0172	2.1310	0.4112	-5.7189	-8.3173	0.3481	6.8958	-6.6354	-3.2215
3712.0000	-2.6403	-6.3408	-9.0039	-6.8777	-8.7765	-9.7994	1.7419	3.4484	-8.5539	-9.2776	-15.6557	-18.3981	-0.7714	-12.4181	-3.8186	3.7849
3720.0000	-3.3891	5.9939	6.3207	6.2779	7.0951	7.1968	-1.0510	1.8674	2.5083	3.0365	-2.7258	-3.3916	-2.0291	0.3953	-7.1949	2.7122
3728.0000	-1.0668	16.6197	19.0881	19.5399	13.4942	24.7691	-1.6783	6.4977	8.8266	10.3338	4.3070	7.1258	-1.7555	11.3921	-1.4688	3.6220
3736.0000	0.6600	11.2220	14.4511	12.9458	8.8218	14.8991	0.0214	10.9084	12.4081	12.7813	12.0167	14.1589	1.3791	20.6945	0.0645	4.9995
3744.0000	-1.7200	14.0836	16.1513	16.5655	11.4791	17.2795	-2.5658	8.5337	14.3939	14.6077	13.0958	12.6958	1.1761	20.9053	-5.8356	-1.3423
3752.0000	-2.9356	11.9951	13.5778	15.3854	9.1191	14.7623	-3.2469	4.8933	11.5643	11.7576	9.0577	9.2057	-0.0435	14.6973	-9.5953	-1.4403
3760.0000	-2.5119	10.4487	9.9787	11.8430	10.6735	13.9787	-2.8296	5.0988	12.4686	18.4332	17.8418	17.4558	0.7280	15.5039	-12.8132	-1.1286
3768.0000	-0.5612	12.9668	12.5849	16.9066	8.8243	21.2661	-2.3360	5.8543	8.4484	21.2904	19.1280	20.4153	-0.0179	6.6052	-11.4005	0.9115
3776.0000	0.5471	-6.5499	-6.1305	-3.6117	-10.0656	-5.7563	0.7753	0.9718	-0.3117	4.4903	5.1095	12.2093	0.6295	-0.7642	-7.3295	5.9171
3784.0000	-0.9290	-9.6389	-12.8659	-10.8237	-10.0036	-9.9892	1.2389	-0.1306	-2.2647	-3.1485	-3.2547	0.8926	0.2416	1.6254	-5.7161	6.2191
3792.0000	-0.1674	2.3547	-3.3797	2.2124	-5.3027	12.5329	0.4877	3.1172	-3.5397	1.4912	-3.0608	-2.9774	-1.7360	-1.3861	-6.0360	10.8942
3800.0000	2.6146	-7.4420	-13.4255	-4.3781	-18.5862	2.0423	2.0714	-3.2070	-10.8085	-9.1859	-8.7639	-5.3684	-3.0321	-8.3951	-3.7692	18.6669
3808.0000	2.9425	-3.8908	-6.4199	4.0497	-11.4786	1.5363	1.3116	-8.4660	-9.2604	-14.5985	-10.0794	-7.3748	-5.6773	-7.3209	-0.8074	19.5450
3816.0000	0.8542	5.5530	7.7947	12.2548	2.5844	7.9696	-1.8512	-7.2762	4.5121	-1.1913	5.1855	4.5481	-3.9054	7.2345	-6.0045	11.1723
3824.0000	-0.8302	-0.1784	0.4931	1.6108	1.9111	-1.5782	-2.5571	-10.2209	5.5725	-0.3357	7.5715	4.9474	-2.1386	8.3666	-9.4058	4.7256
3832.0000	-0.1418	-1.0043	-0.6871	4.7335	-0.8812	-0.9336	-0.6144	-9.4575	-4.4486	-7.5016	-4.8581	-3.7639	-4.7937	-8.2698	-4.8065	8.4805
3840.0000	3.7296	0.7694	5.1066	12.2758	-9.7743	4.4078	0.6853	-3.1021	-4.5336	-5.5756	-3.1382	3.7402	-3.3962	-7.4216	1.1073	12.8604
3848.0000	7.7504	10.7747	16.1630	24.0794	-7.7823	22.3862	0.2889	1.9672	1.0014	1.7864	6.9625	12.9007	-1.9718	3.9362	7.7979	14.6983
3856.0000	7.6174	15.3323	17.8366	25.2719	-1.0552	34.4565	0.5068	8.2218	4.2714	13.0555	12.9937	25.4929	-0.5880	10.2662	9.5778	11.2203
3864.0000	5.0969	1.2535	1.8174	5.2182	-8.4837	13.2585	2.0005	8.5321	2.3708	7.4672	5.8115	22.3409	1.9264	11.3494	8.5653	6.8539
3872.0000	3.4193	-4.5243	0.6160	1.6289	-8.2794	-7.7400	2.7158	-0.1062	-4.5953	-11.2030	-8.8139	-3.3159	-1.2634	-4.1153	9.3754	8.6478
3880.0000	3.4762	-5.2248	3.3916	5.7701	-3.0363	-18.0126	3.0041	-4.6756	-7.7501	-12.9435	-5.8005	-6.0391	-3.1695	-17.2393	7.3831	7.4057
3888.0000	2.4622	-2.1273	5.4516	8.5189	5.9493	-19.0720	2.1482	-2.3424	-1.6413	-4.6211	6.2157	1.3591	-1.7635	-9.5519	3.7876	1.6950
3896.0000	-0.7097	8.5116	18.5598	18.6808	18.2035	-8.6208	-1.1624	1.1733	8.1020	5.2689	12.1523	6.2629	-0.4601	-0.0268	0.5087	-9.5739
3904.0000	-0.8092	8.2017	18.2296	20.9600	13.9939	-4.5206	-3.5233	0.3455	10.0897	11.5123	16.0596	20.6825	1.4081	1.5189	-0.5005	-20.1432
3912.0000	-0.4127	6.0083	14.0908	21.9942	10.7636	-5.8268	-5.4134	-6.4136	10.3291	9.5028	18.8230	25.8513	0.7997	3.8913	-2.9461	-22.8648
3920.0000	-1.4161	5.6885	15.5217	19.3188	11.0044	-8.3940	-6.7420	-9.1252	14.1176	10.3461	21.6119	25.0928	1.5627	7.9908	-6.4743	-24.5237
3928.0000	0.0062	-0.2235	6.3351	8.6068	4.4797	-11.5433	-3.9870	-8.4073	6.6476	4.7999	14.3785	16.7518	1.4767	0.7217	-2.3331	-18.2090
3936.0000	-0.4888	-5.9351	-4.6918	1.2677	1.5550	-14.6560	-1.9134	-11.1971	-4.0100	-5.5071	-0.0960	5.1031	-1.3692	-11.4075	0.5635	-13.3277
3944.0000	-2.5820	-11.9142	-11.6381	-6.8729	-5.1357	-21.2884	-2.3259	-11.3456	-4.9084	-8.7501	-7.1520	2.8272	-0.2265	-10.9547	-1.6335	-16.8220
3952.0000	-3.0117	-7.0322	-4.4919	0.1413	-1.8716	-17.1494	-2.3895	-10.1404	-4.5106	-10.8773	-10.6872	-3.7720	-1.7519	-12.1760	-1.4951	-13.2711
3960.0000	-2.2986	8.6996	17.4678	21.6178	18.9454	-0.4998	-3.3306	-9.1034	2.3705	0.7252	1.2711	8.2201	-4.7020	-11.0240	-0.5605	-11.8576
3968.0000	-0.9936	10.4996	20.4380	19.5651	21.7658	3.8963	-4.5574	-6.3668	13.5646	16.5641	21.4445	30.6160	-0.5239	6.1384	-2.6754	-16.8388
3976.0000	-2.7059	-4.8423	-0.3296	-1.5728	-2.2665	-10.6513	-5.2649	-8.5219	8.5163	8.7189	11.8856	21.7896	3.0844	4.8589	-9.2701	-20.3179
3984.0000	-1.8352	-18.1988	-16.8289	-11.6285	-25.8069	-19.6089	-3.0530	-12.2255	-8.9806	-8.2200	-11.7466	7.8124	0.9223	-18.1108	-7.5078	-13.1800
3992.0000	2.3920	-15.7333	-15.7947	-6.0731	-25.1899	-8.4278	-0.6419	-15.4091	-16.2009	-11.7028	-14.0468	9.0910	-3.2491	-26.3189	-1.0015	0.8779
4000.0000	0.7585	-6.1754	-3.5492	3.3208	-11.7393	2.0773	-3.7201	-18.4219	-7.2541	-0.0455	-0.9504	19.1802	-3.9683	-19.9099	-8.1331	-2.7666
4008.0000	-0.7968	-5.9609	1.3915	3.3889	-10.5556	-3.2956	-4.5567	-15.4801	-0.2572	3.6153	2.6428	23.1898	-1.8752	-11.9691	-10.6688	-6.6990
4016.0000	1.3401	-5.4335	2.6836	3.0220	-7.9941	-2.2318	-2.3376	-14.5501	-1.1329	-2.8311	-2.3351	18.7222	-2.9551	-7.7201	-1.1120	0.1173
4024.0000	1.3704	5.2775	13.7961	11.7344	11.0201	14.5617	-3.9461	-17.2158	4.7762	8.5504	8.2439	32.5066	-4.4729	-2.6829	1.2293	-4.4458
4032.0000	0.4114	-1.0272	2.7172	-1.6480	12.0441	5.0513	-2.3968	-17.5955	2.0821	5.0265	5.9256	25.0064	-3.5976	-2.7054	2.2120	-5.4051
4040.0000	1.7103	-19.4051	-23.8169	-23.9912	-9.8126	-18.0851	3.1190	-17.1042	-17.2889	-21.6501	-20.7226	-9.2403	-4.1847	-19.5869	9.6767	5.6022
4048.0000	2.5269	-6.9764	-13.3577	-7.3287	0.5371	2.1377	2.5095	-11.6535	-13.3768	-12.5379	-13.3951	-0.3089	-5.6777	-12.9151	10.0830	8.1509
4056.0000	-1.3628	2.7632	-7.2094	-2.1325	15.9643	14.2086	-1.5342	-8.8286	2.2289	1.9113	1.7298	12.0306	-3.5009	12.9171	2.0318	-1.8966
4064.0000	-2.2237	-12.0616	-25.5379	-24.6190	-4.7946	-2.7038	-0.7358	-12.1974	-6.2676	-13.3614	-14.9493	-8.8961	-1.1212	6.0902	2.4757	-2.7157
4072.0000	0.8890	-4.1696	-16.0534	-15.6570	-5.2583	10.5157	0.3143	-9.7850	-8.2225	-14.3113	-15.0961	-17.2920	-2.6116	2.7483	6.0302	8.2463
4080.0000	0.4911	2.4313	-10.5359	-10.8127	0.0953	16.9565	-1.0756	-7.8605	-2.5311	-9.6305	-7.0704	-19.8591	-1.7284	11.4792	2.5873	7.7250
4088.0000	1.6887	-5.7460	-17.4785	-19.6100	-13.6391	8.4748	-0.7978	-8.7310	-5.3147	-9.8155	-6.7812	-16.3030	0.6997	6.3115	1.2392	6.0980
4096.0000	0.5542	1.5579	-6.4707	-8.9873	-4.0751	15.8240	-2.0922	-6.0435	1.9960	1.3729	3.0398	-2.9185	0.3629	11.6114	-3.6257	4.8186
4104.0000	-4.1533	-0.9641	-7.0269	-12.7101	-0.8575	6.3752	-2.8580	-7.1960	0.2736	-1.6001	-6.3580	-11.9439	-0.3981	2.4040	-8.8896	-1.4618
4112.0000	-2.9909	-3.9787	-4.4154	-16.6133	-6.0146	3.4331	-1.4942	-9.3184	-4.3630	-3.7011	-11.6082	-14.4871	-1.1181	-10.6645	-7.0217	3.3393
4120.0000	-0.9623	-5.1436	-4.0552	-20.3946	-5.1093	2.1096	-0.9754	-9.9050	-0.1149	3.7649	1.3517	-3.1511	0.4811	-4.9899	-7.9684	5.7416
4128.0000	0.4867	-27.8050	-28.6226	-46.4636	-26.2323	-26.9320	3.4627	-17.5694	-19.9595	-15.3272	-17.9902	-20.8892	-0.1865	-34.3892	-3.9018	10.5537
4136.0000	0.0218	-27.1710	-22.6867	-43.7295	-25.0158	-27.8189	4.4483	-21.6166	-25.0743	-24.7674	-31.5615	-32.5623	-4.0534	-46.5033	-1.2188	18.0869
4144.0000	-4.4797	-9.1379	-0.1673	-28.6770	-0.3960	-12.4689	0.2973	-12.6085	-0.9274	-4.8678	-12.0758	-18.4984	-1.2167	-13.1180	-8.2110	8.6994
4152.0000	-5.5691	-3.7042	4.0494	-31.2079	8.0398	-6.7469	0.6414	-3.9199	4.0976	7.1128	-2.9593	-17.8961	2.0587	-8.1615	-9.2496	3.7102
4160.0000	-7.8314	5.2361	9.4551	-24.5566	15.5124	6.7442	-2.0049	-2.6156	6.9262	13.7141	0.4527	-21.1307	2.1188	-6.3339	-14.3326	-2.4318
4168.0000	-9.9432	0.6812	2.7614	-26.0389	8.3676	-2.6307	-4.0632	-2.6775	7.9248	11.8368	-0.1968	-21.2928	4.2149	-3.6176	-19.5088	-12.4172
4176.0000	-6.1956	-0.5212	4.4735	-22.0891	2.4190	-6.4024	-1.4345	2.5162	4.1357	8.1740	-1.6345	-22.0253	5.0010	-8.1952	-10.7429	-9.0050
4184.0000	-4.9568	13.7907	20.5197	-8.4039	16.3549	13.4759	-3.0564	6.9443	15.5230	18.3264	10.1651	-12.4713	5.7462	10.5864	-6.2964	-10.3919
4192.0000	-4.4543	1.9943	7.4392	-26.1556	8.1076	-1.3300	-1.4360	0.6574	8.4131	10.8551	4.5773	-19.7409	6.1647	0.4607	-5.1722	-9.2937
4200.0000	-2.7121	-12.7081	-8.0000	-39.5765	-9.2512	-21.7790	2.2330	-2.2889	-6.2776	-5.7752	-11.2322	-36.2708	5.2432	-19.8539	-1.3807	-2.2745
4208.0000	-3.2966	-5.8333	-3.3098	-27.7868	-4.6967	-11.0947	1.4797	2.0680	-2.8152	-4.4866	-11.6749	-33.0189	4.0598	-10.1112	-1.2709	-0.8230
4216.0000	-3.6834	-4.6444	-4.1340	-26.2425	-1.4262	-7.9690	2.0341	-0.1162	-7.5789	-8.0262	-17.3468	-39.0633	1.4447	-17.7132	-0.7081	2.3883
4224.0000	-4.6783	-8.1238	-7.0780	-27.9722	-8.7755	-16.0947	1.2980	-0.7381	-8.1859	-14.6535	-22.7471	-47.4725	2.2062	-17.4711	-2.7000	0.4919
4232.0000	-4.7009	-5.5745	-3.1804	-24.4121	-5.7281	-15.2935	0.3770	2.5401	0.4279	-7.5556	-12.0830	-36.6311	4.1575	-3.1153	-5.0350	-1.3813
4240.0000	-3.3945	-3.9939	-1.5113	-28.2265	-2.2358	-13.0721	1.5203	3.7376	-0.8213	-3.7154	-7.6867	-39.4287	5.0693	-7.8184	-2.4944	-0.8914
4248.0000	-3.8367	-12.6823	-11.6719	-39.3631	-21.0682	-22.0822	1.4615	1.7063	-8.1647	-18.2707	-24.6708	-59.4001	6.3044	-14.5842	-1.4280	-1.0013
4256.0000	-4.0566	-26.6382	-28.5872	-50.8500	-38.2701	-36.7022	2.7053	-7.5516	-21.4276	-37.9614	-45.2629	-74.2395	3.1695	-29.7426	-1.6846	6.0553
4264.0000	-4.2344	-20.4939	-22.9331	-41.9165	-28.4122	-29.4188	2.2470	-8.4482	-20.7194	-33.2787	-40.1116	-70.0127	0.9865	-32.0102	-3.5408	6.8739
4272.0000	-3.9968	6.2759	12.0425	-5.5768	0.4452	-1.4860	-1.6407	1.2635	1.0137	-4.8317	-8.9803	-38.9787	1.6459	-9.5921	-6.7614	-0.7238
4280.0000	-1.7401	11.8405	23.1400	9.4480	9.5453	-1.8563	-2.2200	4.6190	7.9305	6.8146	8.7798	-16.6689	3.0201	-5.2159	-4.1123	-8.9682
4288.0000	1.9941	-3.8479	2.5763	-5.8094	-9.0572	-20.0362	1.2313	5.5848	-1.7862	-4.3735	2.3418	-18.9377	5.6265	-9.6334	4.9702	-8.8898
4296.0000	6.4860	4.1766	9.7643	7.5446	-1.5795	-4.6257	3.7433	8.1364	-3.5703	-5.1462	3.7228	-13.9369	2.2037	-6.8519	15.3846	3.4174
4304.0000	8.0846	21.7090	30.7470	35.3723	13.3063	15.9410	1.9183	13.4907	5.4112	5.6844	16.7584	-0.1559	0.7136	3.7567	17.1714	2.9164
4312.0000	7.1488	23.1385	32.7399	39.6785	7.9266	16.4832	-1.1500	19.6674	18.0198	17.1866	31.4228	17.1834	5.7026	25.1536	9.5851	-5.9357
4320.0000	7.3963	22.2958	31.3238	38.6421	15.0962	13.8476	0.5232	22.2544	20.8431	21.0735	36.8793	26.8275	5.5320	31.8489	11.2377	-3.4664
4328.0000	7.7663	23.5185	28.6330	39.7339	15.6427	18.3663	2.6432	27.4060	15.8133	13.2697	24.4597	16.2549	4.3502	31.5141	19.6919	-0.0154
4336.0000	-6.2798	4.6579	7.0054	1.4727	12.6852	7.4887	-5.5590	-2.4876	18.0838	25.3930	21.4538	32.7338	1.6661	18.3572	-20.9836	-10.4416
4344.0000	-9.7245	-15.9310	-19.0007	-22.7441	3.4393	-21.8867	-3.3743	-10.1843	5.8330	6.0897	-0.5433	18.5623	0.4295	5.6519	-19.5735	-14.3044
4352.0000	-8.6739	-24.5058	-32.8490	-34.0212	-16.2145	-30.0792	3.8025	9.7570	-12.8750	-6.0208	-26.7013	-10.2288	2.8364	-16.7292	-9.1445	-7.2397
4360.0000	-6.2810	-8.3337	-10.4673	-15.5968	-2.7956	-9.5892	2.1793	6.7439	-6.4533	-4.2792	-21.5697	-12.4405	-0.0397	-10.5960	-3.7809	-1.1247
4368.0000	-4.1961	-19.1343	-23.5159	-22.6341	-15.1963	-24.5152	0.7934	-7.0277	-11.1637	-18.0055	-23.7481	-15.5414	-0.6712	-12.4343	-2.8473	-3.4107
4376.0000	-2.4409	-18.2176	-30.6419	-19.4126	-26.5714	-15.0098	3.8237	9.0038	-18.4930	-20.2271	-33.8761	-22.4454	1.2184	-12.7989	4.2201	-0.1072
4384.0000	-4.3678	-5.3058	-17.9178	-8.0177	-11.2725	8.8485	0.4478	5.6210	-9.5167	-11.8846	-29.7738	-12.1505	-1.3737	0.6739	1.8748	-0.4213
4392.0000	-3.1682	-15.6818	-27.1160	-14.9664	-16.0624	-14.9948	0.8462	-3.2033	-13.3676	-21.0836	-27.0451	-16.5188	-1.3749	-6.6452	1.3963	-3.3542
4400.0000	1.0616	-11.8480	-17.3240	-9.0086	-12.4187	-18.9845	3.5130	-0.5578	-11.0888	-26.3118	-22.4855	-25.1034	-1.5551	-2.2396	10.2235	6.8798
4408.0000	-1.0719	-5.3398	-8.2730	-10.7466	-9.9276	-1.6979	0.4047	-2.8749	-3.4910	-19.6061	-23.3713	-21.8845	-0.9327	7.4532	7.0481	5.5949
4416.0000	-3.5924	-9.5528	-16.4443	-13.5075	-23.1307	-2.3003	-0.6739	2.9210	-8.8556	-16.0841	-29.4441	-21.5517	1.5210	-2.8998	0.0907	-3.5231
4424.0000	-3.0330	-5.9487	-8.4764	-4.8424	-15.8152	-5.7395	-3.1019	-4.7949	-3.0110	-11.0212	-13.8766	-13.3644	0.5732	-1.6098	-6.4301	-5.7730
4432.0000	-4.0766	-5.9806	-7.2305	-12.5216	-11.5725	-7.9588	-5.0359	-13.3388	-0.9057	-8.9115	-7.9537	-18.5137	0.9039	-4.4300	-11.4314	-9.1074
4440.0000	-5.3002	1.5550	0.7040	-1.0412	-6.1269	-1.0275	-3.8026	-3.2848	-2.4586	-7.2794	-13.0833	-25.6881	-0.0976	-9.3180	-10.8413	-7.0742
4448.0000	-4.8829	2.3966	7.5180	3.5096	-3.6086	-5.2822	-4.4592	-1.6421	5.5853	2.3429	0.5408	-8.9628	1.5921	-2.2074	-14.7509	-8.9798
4456.0000	-4.4417	-13.6337	-13.4366	-25.3929	-22.5919	-16.4208	-1.5699	-2.4343	-4.0256	-7.0330	-14.1568	-20.8255	4.2715	-8.9916	-10.7408	-5.5161
4464.0000	-5.7562	-3.9932	-6.3201	-7.6053	-9.7916	-2.6296	-1.6182	-5.6552	-7.1318	-20.9324	-31.5454	-33.1707	-3.3581	-7.1049	-4.9376	3.9327
4472.0000	-3.7779	11.1766	11.2667	18.7332	7.5094	9.0778	-4.5591	-2.3942	6.2586	-0.0821	0.9679	-6.5779	-2.6268	6.1769	-11.0233	-2.7073
4480.0000	-1.4776	-3.4713	-10.9666	-13.3404	-14.7881	2.0244	-0.8175	6.1989	-2.3313	7.3094	3.6858	-9.4103	4.8742	-3.1231	-11.3504	-2.7414
4488.0000	-5.1749	-12.7362	-19.0291	-24.1931	-19.0298	-7.0643	-1.4964	-8.0056	-11.7233	-11.6746	-23.1447	-24.5031	-0.1799	-17.8671	-10.7365	-1.3510
4496.0000	-3.9538	8.9216	12.3697	20.7981	5.2501	7.3474	-5.0945	-6.2894	0.3552	2.1121	-1.7436	0.5735	-3.7440	-12.1374	-11.8906	-8.6571
4504.0000	-1.7075	23.8326	27.1280	36.0989	12.5981	32.8772	-6.3280	7.1358	12.8894	25.5532	20.6312	23.8139	0.1463	6.9826	-12.4217	-11.1166
4512.0000	-6.2839	9.3238	8.7316	0.2904	2.2784	22.3253	-7.8565	-0.5451	13.3378	23.3539	11.5969	16.1120	4.1643	10.7636	-18.1088	-18.8362
4520.0000	-4.9229	-1.6429	-3.8102	-9.1133	-5.2369	-4.4541	-2.1048	6.8026	1.9097	8.7567	1.3668	-7.0456	4.8890	-3.5028	-11.8424	-13.1655
4528.0000	-1.6569	-6.8380	-7.4372	-1.5882	-16.9943	-16.4369	1.9406	8.9561	-10.2150	-12.2176	-16.7892	-24.6022	1.3308	-16.3304	-2.5284	-0.0702
4536.0000	-2.9283	-5.3808	-4.0911	-7.8708	-13.9648	-9.0133	-0.2253	-0.3246	-9.9880	-11.5720	-19.8773	-27.2458	0.2303	-20.8977	-3.8992	-2.2118
4544.0000	-0.9094	5.3727	1.6654	5.0002	2.6590	-1.9431	2.2542	13.6920	-3.8188	-2.1671	-3.5709	-23.7394	1.5277	-5.7908	0.8419	-0.1072
4552.0000	0.0218	-8.0761	-17.3233	-7.1654	-13.5244	-16.0409	2.6553	8.7240	-7.1562	-17.4469	-13.4914	-26.5442	2.2532	3.8333	4.5308	0.9504
4560.0000	-4.2018	-2.2751	-8.7544	-21.1839	-3.5873	6.8464	-3.0867	-9.9739	-2.8530	-7.2557	-14.2180	-24.9474	0.4765	-1.9241	-4.2117	-4.6513
4568.0000	-7.2180	23.7582	19.4803	14.9746	28.1988	27.2356	-6.8970	2.9392	15.5622	19.8957	15.7469	-6.3262	0.7976	14.6370	-15.4612	-15.1607
4576.0000	-5.2579	-4.2358	-13.5973	6.1027	-9.0367	-25.3637	-2.6947	12.7673	4.3001	-2.5651	6.2804	-13.4618	5.7747	11.9639	-15.2335	-19.0245
4584.0000	-1.7014	-27.3609	-36.4362	-23.8893	-33.0225	-47.3525	4.1223	0.7499	-22.3128	-31.0807	-26.5314	-41.6720	1.4251	-25.8001	-4.2956	1.0919
4592.0000	0.0278	-13.5598	-14.3642	-12.4861	-13.2912	-26.8386	3.9782	-4.6898	-18.0590	-21.7553	-18.8734	-34.0577	-2.8486	-30.0336	-1.1824	10.2269
4600.0000	0.4063	-3.5903	0.6568	-6.7503	-6.9509	-15.6942	0.9788	0.7818	-2.3727	-3.4612	2.4595	-19.1694	2.2413	-10.9838	-4.5271	2.0192
4608.0000	-1.5964	13.7663	16.9903	7.2468	6.9092	13.8183	-4.2087	0.9522	8.4561	12.0165	13.2594	-10.0866	2.6591	1.4998	-9.2618	-7.1074
4616.0000	-2.2134	2.8464	-1.8928	-5.5860	-10.1236	8.2800	-6.3652	-4.1077	4.2892	10.1047	11.5269	-5.3626	5.3119	1.2241	-14.2374	-16.5539
4624.0000	-0.5089	-18.7870	-26.5145	-36.6896	-29.4288	-21.2026	0.4925	-4.2459	-13.2536	-10.0794	-8.6480	-32.9145	6.0093	-19.4139	-7.3445	-4.3198
4632.0000	-2.7537	0.7707	3.6122	-8.4477	5.1658	-6.0912	0.0252	-7.3104	-5.9453	-7.8464	-9.1541	-30.7335	-2.4003	-19.6086	-5.0983	3.9443
4640.0000	-5.0444	8.9783	12.9672	-0.0106	14.7967	10.6694	-3.9451	-4.4474	7.8630	15.4758	9.3241	2.2323	-0.1795	-3.2731	-13.7852	-6.6793
4648.0000	-3.6661	4.4065	-2.7720	-20.6724	-1.6882	19.7497	-0.3426	15.7856	5.6117	26.0970	10.4578	-0.6770	7.8975	5.4467	-11.2724	-5.1732
4656.0000	-1.1648	7.2117	0.4690	-12.6761	-7.1067	23.1044	-0.3126	19.1157	9.6248	19.7862	9.5365	-2.8670	8.4402	20.7382	-5.7394	0.1080
4664.0000	1.4666	3.1898	5.7817	-10.3807	-6.2030	10.7806	0.7569	8.2813	8.2992	10.4169	8.3940	-1.3177	4.8661	14.1980	-1.6149	8.6848
4672.0000	1.5368	9.2108	15.5565	-5.5658	11.5365	12.0829	3.5384	9.9485	5.6649	13.7454	9.9647	-5.5877	1.7853	1.3809	1.8166	13.9915
4680.0000	0.2161	3.9624	10.3441	-3.4204	9.8176	-2.2446	-0.2082	1.3908	10.8999	16.2608	22.7353	8.7940	2.8761	6.6865	-7.6618	1.5934
4688.0000	-1.6200	-2.5603	5.5233	0.1652	2.1827	-17.3900	-0.3839	2.3718	7.3344	12.1469	17.5932	10.9634	2.6051	-1.9748	-12.6836	-3.2202
4696.0000	-4.5020	11.5353	19.2296	7.1543	19.7444	5.7820	1.4948	21.9227	15.0210	29.0650	18.0302	17.0777	3.9650	9.3863	-9.8609	-1.9357
4704.0000	-4.8218	-2.2720	3.2056	-24.0486	15.5952	-5.2071	0.4245	8.1682	20.6652	29.8314	24.9978	26.2857	6.8350	24.0169	-12.0662	-3.6059
4712.0000	-4.2850	-19.7139	-11.4943	-38.2575	1.0809	-34.2052	4.0825	-3.0826	2.0808	-0.1883	-4.1202	-1.9868	2.4727	-3.6950	-4.4916	4.3526
4720.0000	-2.9278	-6.1574	4.4089	-28.7632	6.5431	-10.3685	7.5377	16.0054	1.1835	8.8963	-9.4773	-8.3952	3.4511	-7.1348	4.3338	12.3831
4728.0000	1.9100	0.2036	12.2166	-21.9858	7.8035	3.3789	6.0596	16.4923	11.1089	28.1306	19.1062	19.1628	6.4928	6.4641	2.1667	12.9097
4736.0000	2.8412	0.0243	16.9799	6.5820	7.5685	-11.6067	4.5981	11.9649	9.9838	17.7482	19.1577	30.7481	1.9402	2.8547	1.4422	9.3450
4744.0000	-2.0445	1.3279	16.7149	-2.0998	17.3016	-9.2625	4.5977	18.1628	14.5435	23.6178	14.3523	29.2297	3.5265	9.6475	-0.0997	3.1070
4752.0000	-2.8103	-0.7493	10.0334	-19.5397	17.0607	-8.0514	6.3492	20.7220	9.5850	22.7388	8.4173	10.9217	5.6212	3.0671	2.6795	2.8688
4760.0000	0.4073	1.2792	14.0337	2.7039	4.0909	-10.6045	4.6821	17.0986	6.2379	5.1677	0.3660	2.8202	2.7841	3.7128	6.4856	6.1886
4768.0000	-1.7928	-0.5065	15.2129	3.1672	5.4747	-15.2039	0.3031	6.7980	16.7396	8.9464	10.4156	18.4351	2.8645	18.0792	-3.4603	0.5577
4776.0000	-4.7861	-3.4653	14.3009	-2.2529	13.5344	-25.6038	3.8123	13.8047	10.0197	11.3475	2.8261	12.6870	2.1199	-1.2754	-3.5114	-0.8449
4784.0000	-0.3928	-0.3417	15.3807	-6.0876	9.5360	-11.2731	6.2492	16.2904	4.1443	8.2200	-2.6654	3.0292	2.3699	-5.1104	8.5930	7.1661
4792.0000	0.9388	-0.5615	10.1411	-7.7226	8.6697	-6.2954	0.6039	-3.2683	8.4299	4.9835	7.7007	8.5254	1.6875	6.3375	5.4122	-0.6839
4800.0000	-3.5037	-9.7586	0.5420	5.4226	5.1494	-34.6338	1.2964	-0.5864	-1.0360	-10.1151	-9.6331	4.7784	-1.7549	-9.8055	1.7902	-10.1996
4808.0000	-1.6894	-15.4570	-5.8002	-7.1541	-2.0489	-36.3015	4.8581	5.4913	-4.1564	-13.2622	-17.2289	1.7460	0.1191	-7.8668	10.3839	-3.7506
4816.0000	2.0873	-6.5838	2.0662	-4.4239	2.1709	-17.0364	2.0345	-1.8897	0.8354	-5.5143	-2.1033	7.0364	1.1097	-0.5676	13.0416	-5.5145
4824.0000	2.3217	-4.9953	3.2157	8.8354	-0.7000	-13.7438	0.5621	-4.8567	-4.2218	-5.2902	-2.8152	14.2924	-1.4784	-12.6349	9.3632	-8.3913
4832.0000	3.7014	-13.2974	-9.3415	-6.2599	-7.5738	-12.7185	1.1813	-13.2822	-7.8602	-7.9985	-5.2217	20.1550	-2.3550	-11.7302	10.2457	-2.1423
4840.0000	4.3963	-5.2566	-1.9575	7.8216	-0.3201	-3.4085	0.7297	-10.5054	-5.8651	-7.1239	-3.2598	22.1003	-3.8617	-7.1291	13.0918	-1.9282
4848.0000	4.2911	8.3113	15.2898	25.1339	10.2147	13.7167	-1.3194	-5.2041	2.0793	6.0842	7.7552	32.8209	-3.6024	-1.4294	10.9355	-5.2513
4856.0000	4.4546	13.1729	22.0923	22.4136	17.5483	22.0914	-4.7322	-9.3559	15.4380	22.6213	30.1176	51.0343	-0.3741	15.2789	4.7913	-11.5592
4864.0000	4.2210	9.9879	16.5636	22.9938	10.1717	13.7698	-4.1723	0.2161	18.6667	23.0008	32.6144	53.2270	3.1594	26.5223	3.9388	-15.1804
4872.0000	4.2614	1.4846	2.2978	10.7639	-3.3579	6.1828	-2.2695	-0.5261	9.5982	6.5272	15.0512	31.0917	2.6991	22.5408	7.0993	-8.3705
4880.0000	1.9930	8.1029	10.9828	19.4107	10.3118	11.0754	-3.9126	-9.8420	8.4329	3.1771	11.5222	23.0821	-2.7084	13.4501	2.8414	-5.4994
4888.0000	1.4993	15.0904	20.7669	30.2842	21.6926	16.7704	-4.0713	-2.5795	16.1830	20.4188	28.0910	43.4670	-1.8039	18.6326	-2.2344	-7.9329
4896.0000	3.8748	-1.4591	-2.0737	5.0443	0.4699	0.5599	-0.7691	-2.5221	6.2641	9.0705	19.0527	30.2331	1.4940	13.7187	2.4880	-3.9595
4904.0000	2.7827	-5.6664	-6.6471	-2.7151	-4.3734	-2.1615	0.8875	-10.2598	-8.0415	-12.9584	-10.3967	-1.2446	-3.3477	-7.1278	9.3164	3.7856
4912.0000	2.5163	10.6424	12.7490	16.3358	17.4498	18.4069	-1.3930	-11.0846	1.4665	-2.4053	0.4319	10.3052	-5.9976	2.8039	10.1804	2.7487
4920.0000	4.9265	9.4804	11.2608	23.8868	16.0130	6.2405	-2.3809	-10.3494	6.9443	0.4895	18.5943	19.9731	-3.2915	12.6277	8.1530	-3.8685
4928.0000	6.9678	1.2864	5.1386	16.4654	0.3556	-3.8500	-0.7405	-10.0692	0.4332	-6.5265	11.7889	13.5977	-1.8850	2.9555	10.8673	-1.1393
4936.0000	7.4226	12.2205	16.9135	26.9661	9.1078	16.9132	-2.8804	-10.1791	9.8053	-0.6886	16.6934	23.4823	-2.8130	21.0395	13.0232	1.3667
4944.0000	5.9138	22.0996	26.7098	42.8548	20.7129	24.7448	-6.2740	-12.8672	17.8688	1.5156	23.9407	26.3332	-4.5136	33.0074	8.8460	-2.6486
4952.0000	8.3669	10.0568	11.8494	23.3920	1.8542	16.7060	-5.4122	-20.3651	5.8277	-3.9860	19.1467	17.0106	-2.8538	13.2286	8.8891	-2.4852
4960.0000	11.4019	-0.3945	0.9099	21.1512	-17.5463	0.9127	-4.0652	-23.7137	-4.7875	-17.7744	11.4145	7.9522	-3.0006	-0.3922	11.0714	0.2229
4968.0000	11.3464	7.6606	15.4412	41.6891	-8.4556	1.6189	-2.4070	-15.4278	-3.4916	-16.7041	10.8652	9.6527	-5.7257	-4.0686	12.1644	5.8257
4976.0000	11.3425	6.0959	10.9587	25.9954	-4.3291	7.9888	0.4065	-7.5622	-0.6137	-5.2012	15.6941	17.8920	-2.7954	3.7924	14.6886	9.5644
4984.0000	6.8379	-5.0165	-1.8980	7.0942	-9.0875	-8.9663	-0.2646	-14.2344	-0.3785	-18.6625	0.7958	3.2661	-2.7060	10.1099	11.6530	7.8590
4992.0000	3.8136	-2.4837	3.7607	3.3794	0.9648	-3.8085	-0.5064	-20.1779	-2.5993	-21.2421	-10.5669	-5.0999	-6.2126	0.3873	11.7437	9.9375
5000.0000	3.9952	-1.9261	-4.7953	0.3095	3.0019	5.1498	1.0988	-9.7982	-3.9711	-9.5341	-4.2982	6.7707	-3.7642	3.6784	12.7712	5.8156
5008.0000	-0.1951	-1.6187	-5.0190	6.6571	4.4896	-2.8404	-1.7911	-11.5977	-0.2847	-14.8790	-8.2662	0.8227	-4.4663	9.3888	5.1750	-1.3359
5016.0000	-0.1061	-3.0111	-2.8817	-2.4761	8.1608	-3.4902	-1.5279	-22.7393	-4.2840	-20.0116	-13.2800	-10.1833	-7.3192	-2.6980	5.5333	5.1861
5024.0000	3.5736	-25.8347	-33.5036	-25.5428	-24.8410	-28.5130	3.4190	-20.5735	-22.0533	-37.7335	-28.1305	-24.8477	-4.6782	-17.7114	10.1553	12.1810
5032.0000	2.7277	-25.9318	-30.8953	-17.7055	-35.6941	-28.3278	1.7078	-26.3223	-29.4347	-51.3868	-45.3748	-40.5144	-7.8893	-31.7419	8.4801	14.1694
5040.0000	-1.3831	0.5857	-1.5195	6.7797	6.7419	8.0105	-1.2003	-23.8882	-15.0907	-27.3422	-31.1255	-20.7799	-12.6020	-20.9449	5.0770	11.6173
5048.0000	-5.9280	-3.2705	-10.2665	2.8625	11.7192	-3.5035	-0.2513	-6.9093	-4.1418	-14.8385	-21.8215	-3.2690	-7.4480	2.7072	-1.1677	1.9178
5056.0000	-5.3976	-10.1684	-17.8136	-1.0704	-7.6255	-11.2978	-1.4633	-10.0646	-10.0681	-24.0476	-29.6965	-13.9287	-6.1629	-5.3257	-4.0750	-0.0231
5064.0000	-5.2523	2.5744	-8.3043	17.6789	2.0093	12.1190	-4.5064	-13.7303	-7.8794	-18.5413	-24.7509	-6.1511	-9.8554	-2.3091	-6.9349	0.6277
5072.0000	-7.1840	-1.1379	-12.2289	13.7562	-1.6188	7.2144	-5.4184	-7.5098	2.5886	-11.3820	-17.9141	10.2933	-6.1242	19.4484	-11.7609	-3.4098
5080.0000	-3.9903	-11.5057	-22.3058	0.4623	-14.9051	-7.6858	-2.5466	-9.4508	-6.3063	-18.4830	-20.0307	0.1060	-4.6862	5.5754	-8.6378	1.3242
5088.0000	-2.4848	-9.4621	-22.2056	5.4458	-10.7160	-8.2512	-1.7459	-16.5408	-14.3110	-30.9105	-27.1501	-17.7298	-9.0017	-6.1303	-4.3383	7.2625
5096.0000	-3.4431	-5.3494	-10.2983	3.8922	-3.1972	-7.3602	-3.0700	-19.3006	-6.1273	-29.8176	-25.8706	-20.1516	-8.2103	1.7461	-2.2334	5.4523
5104.0000	-3.6856	-0.4593	-11.4576	-16.0337	-15.0545	16.3540	0.8573	25.3148	6.3541	40.5432	26.0194	20.6387	8.8692	6.3021	-30.5908	6.2369
5112.0000	-7.5588	16.0410	8.5216	-7.8820	5.5012	39.5831	1.4547	43.4652	17.8848	62.8949	32.3203	28.7722	10.7164	16.8194	-32.9054	5.9209
5120.0000	-7.4482	23.5696	18.6477	7.9320	10.8481	45.3485	-4.3897	33.7442	29.9211	66.3580	47.2209	42.2699	10.3594	34.2481	-38.4438	-2.5635
5128.0000	-8.0447	9.9353	3.4424	-0.2576	-5.8740	21.0529	0.3993	48.3861	21.9383	60.7882	37.6074	37.2716	13.4076	25.8125	-38.7297	-0.8453
5136.0000	-7.6412	-9.1134	-17.9831	-13.2521	-23.3209	-11.8398	7.0868	53.7112	3.2995	39.2407	14.6273	15.6639	12.1145	2.2425	-33.8058	8.1665
5144.0000	-3.5693	-17.9730	-24.8676	-18.4460	-34.7945	-20.5294	5.9880	26.4767	-6.8590	9.5906	-1.7007	-3.0246	5.3032	-7.3032	-26.7920	21.0631
5152.0000	-5.0844	-0.2017	1.0556	6.5211	-10.0337	-8.5395	6.1085	33.3943	4.5569	17.3331	6.0909	0.0870	1.5542	3.2895	-28.6176	29.9523
5160.0000	-8.4248	12.0601	13.8447	0.6705	6.6361	11.6242	3.3896	43.1342	18.5074	44.7496	23.5151	11.5721	8.0253	15.9950	-31.9457	13.1474
5168.0000	-7.3186	7.0725	7.8997	-25.3188	-4.3371	20.4939	6.7306	42.4958	9.2480	35.5519	2.4240	-13.7462	8.5629	6.2699	-22.8413	26.4608
5176.0000	-7.8937	10.1463	17.0592	5.3283	5.1277	-1.2505	8.7128	46.7690	9.4017	20.7262	-1.2139	-19.6678	2.6098	5.7758	-23.7114	34.6197
5184.0000	-5.7835	7.1346	11.7152	6.3475	-1.2362	-9.5916	4.9605	46.2018	14.7552	31.1880	20.2153	-0.4503	9.5822	12.5873	-23.8084	8.6045
5192.0000	-3.6519	-2.2698	-0.5820	-23.3742	-11.3608	-7.1849	10.6982	45.6907	-0.6779	20.6763	-1.6711	-24.9732	9.1865	-6.8301	-12.1245	23.7689
5200.0000	-4.8741	-4.1965	2.1139	-7.2876	-2.0586	-25.8923	9.4842	30.7143	-5.6672	-0.3807	-13.4298	-33.3122	1.6434	-17.4407	-9.5470	21.9584
5208.0000	-1.1969	-4.0079	3.8592	2.2804	-5.4384	-30.2917	6.4769	25.4672	-1.9619	1.1317	0.5310	-18.5087	4.3094	-11.9936	-4.5748	6.5113
5216.0000	0.9381	10.8736	21.2323	12.0684	11.0361	-6.6030	6.5794	23.3123	0.7263	5.1804	4.1295	-23.4633	1.0466	-10.8788	1.3906	16.0754
5224.0000	0.4410	30.7749	44.7772	34.6778	30.0818	21.1758	-3.5129	6.5011	15.3177	18.7005	24.5296	-5.9305	0.2824	0.8798	-2.1449	-6.2961
5232.0000	0.3963	22.7278	36.1750	19.6483	19.7125	10.1937	-1.9736	19.7941	22.1424	31.3853	36.3789	7.3763	8.3322	14.2441	-4.7690	-12.6433
5240.0000	0.0402	10.2925	24.1120	7.7559	13.2025	-14.5616	2.6838	22.5544	14.8703	16.5813	23.0826	-7.9254	7.5749	7.8022	-1.3446	-3.7597
5248.0000	4.4017	24.1963	41.0529	33.8683	18.0598	7.8667	-3.3376	2.3914	12.6807	9.1468	24.9242	-7.6197	2.0243	-0.5895	5.2088	-9.7629
5256.0000	3.0029	32.5130	48.2055	43.5051	29.1486	16.6104	-4.5804	8.2706	23.9246	21.1734	39.2372	4.6424	2.6417	17.9500	-1.4488	-8.7542
5264.0000	-3.0716	23.3389	33.1425	18.8922	29.5151	4.3009	-5.9145	7.9298	27.8716	19.9358	32.7048	-3.5273	6.6206	29.1183	-5.9050	-21.6794
5272.0000	-2.4462	24.3690	32.2907	16.3484	24.9176	15.5865	-3.9402	7.2987	13.7590	5.9432	6.0851	-25.8079	3.4205	9.6929	6.2653	-17.2675
5280.0000	-1.6725	22.0352	30.9040	33.8098	21.2345	0.6662	-2.0674	13.5213	11.9464	-2.5708	4.0817	-23.0314	1.2073	10.9890	5.7321	-12.1574
5288.0000	0.3719	12.8882	24.3894	28.8176	8.9310	-18.2219	-5.0834	1.8334	15.5471	-8.0863	14.4555	-18.1451	3.8961	16.8972	2.5988	-20.5380
5296.0000	2.1929	17.5800	34.8104	23.5516	16.6275	-7.0119	-1.0856	1.4427	9.9056	-10.7857	4.1553	-32.3791	0.3110	3.2566	10.8608	-2.5485
5304.0000	3.4040	8.1765	22.7945	1.8846	9.6949	-11.9037	1.6798	2.8711	6.6605	-9.5650	2.4338	-31.4829	3.2031	2.6146	15.3428	-0.2748
5312.0000	6.2471	-8.8522	0.0917	-20.2400	-12.3017	-28.1504	3.9332	-1.8683	-4.7946	-20.5626	-4.6317	-39.6658	5.4318	-7.4771	18.4744	1.6580
5320.0000	2.4840	0.2860	13.0844	13.4127	6.7147	-32.7569	4.8478	0.7772	-6.8103	-31.4976	-17.1502	-43.6836	-3.9439	-14.1722	15.8285	9.5120
5328.0000	4.0378	0.0223	14.5596	16.1600	5.2575	-30.7655	0.2458	-11.2491	0.7582	-28.0899	-4.6698	-24.7849	-2.7931	-2.3650	15.0541	-1.2683
5336.0000	9.7959	-7.9758	2.4929	-11.3350	-15.8460	-22.4869	3.1270	-10.1628	-6.9649	-24.9951	-3.6492	-31.3339	2.5100	-9.1339	22.1888	6.5319
5344.0000	6.0726	1.3929	11.3416	4.9547	-5.7097	-13.3327	2.4421	1.0358	-2.1691	-17.7055	-4.7904	-26.2300	1.6678	-3.3418	17.8002	3.2980
5352.0000	5.3930	-5.0450	6.0583	0.0974	-6.4482	-21.1671	-2.2466	-17.9196	3.8730	-18.0786	4.8715	-8.9404	0.7753	5.0370	10.6517	-4.4587
5360.0000	3.8513	-7.4408	4.9034	0.7122	-2.0618	-29.1349	-0.5702	-19.0539	0.1123	-22.3539	-0.7693	-13.1224	-2.3400	-3.5237	8.1803	1.4643
5368.0000	1.5823	4.5879	18.3338	16.3619	10.2224	-16.3601	-2.6294	-7.9508	10.9934	-7.3741	9.2996	0.8401	-0.1712	9.9750	6.0000	-8.8140
5376.0000	7.4198	-15.9964	-11.5398	-26.4032	-13.9002	-23.5717	-0.5937	-24.8947	-2.3166	-15.8178	8.3767	-7.6011	2.6922	-0.7580	11.3928	-1.8632
5384.0000	3.4208	-29.8775	-40.0100	-37.0151	-27.4890	-32.5991	3.4704	-23.4545	-28.0270	-38.0685	-29.7935	-33.3802	-3.0566	-30.4362	11.0007	5.0342
5392.0000	-1.7684	-9.9854	-14.1095	-0.4476	-3.8198	-11.6801	1.1642	-11.1978	-17.6473	-24.0484	-29.7210	-13.2185	-7.1069	-23.1756	6.4265	-0.1444
5400.0000	5.0861	-5.8496	3.9507	-2.7985	9.8496	-16.0746	4.1752	-11.4921	-6.0716	-5.2913	4.6393	7.0269	-4.0917	-17.8919	11.2128	8.9639
5408.0000	3.7958	-11.5671	-6.6519	-7.6345	9.1678	-26.4599	4.4566	-8.6442	-5.5891	-1.6452	10.6394	14.4076	-2.1735	-14.5819	7.0204	2.5994
5416.0000	-1.8102	-5.4117	-3.1823	-0.4619	18.3183	-9.4416	-2.3451	-23.8514	0.4341	-3.4106	2.7739	21.3747	-6.9445	-4.3251	-1.4481	-4.8797
5424.0000	2.2205	-2.0445	6.5650	-1.7921	17.7566	-3.6758	-2.5717	-26.9555	4.3149	3.4029	15.1684	26.6049	-5.0409	-3.9845	1.8534	-2.2953
5432.0000	4.6013	-15.8008	-14.6178	-13.6596	-5.4617	-15.3696	1.8722	-11.1307	-4.2540	6.6432	14.3756	35.2397	0.4044	-8.3879	3.2810	-2.3889
5440.0000	0.8261	-33.8520	-37.8959	-29.6139	-19.7714	-31.3356	3.0998	-27.0203	-24.9824	-21.4912	-23.8518	14.8479	-7.0527	-35.3388	2.4387	4.5489
5448.0000	-0.7066	-20.4114	-13.0793	-11.6946	-6.9616	-20.0766	-0.1096	-28.3254	-16.8018	-13.0339	-18.7103	19.7540	-8.3513	-37.5032	-0.2355	-0.5499
5456.0000	-1.0382	0.6523	11.6151	12.0624	13.3311	1.1373	-2.8363	-3.5510	12.7300	29.5747	26.5111	63.2471	0.1660	2.8998	-8.6926	-13.5755
5464.0000	-2.3479	-12.8141	-9.2808	-4.6581	2.8707	-17.5823	-0.2090	-2.8929	3.2424	15.5598	12.1077	46.9694	0.6894	-2.6232	-6.9582	-13.1251
5472.0000	-0.4797	-25.9810	-23.3302	-22.9166	-20.3647	-25.6346	3.2800	-7.6517	-16.9259	-5.3899	-17.1285	19.4009	-0.9935	-31.2404	0.9259	-3.3708
5480.0000	-0.0030	-15.9487	-9.7042	-11.9767	-7.3489	-9.3716	1.4562	-11.7280	-9.3332	2.7454	-8.4528	32.6654	-3.3847	-22.7739	0.5623	-0.2414
5488.0000	-2.2620	-13.2076	-5.9470	-4.0124	1.0655	-13.2039	-1.0456	-15.5213	-3.0913	0.4235	-6.6041	35.2362	-4.4729	-12.8559	-1.5404	-6.9904
5496.0000	0.6005	-23.7752	-19.8644	-13.6937	-19.0549	-21.6027	2.1553	-9.4094	-12.3425	-3.2856	-11.6460	33.6933	-2.0111	-21.8453	0.8894	-2.3313
5504.0000	3.1468	-25.1165	-27.2726	-9.5715	-22.6673	-18.0841	3.6222	-10.6243	-21.7997	-8.8589	-16.1318	32.5086	-4.4250	-31.3622	5.5790	1.0747
5512.0000	-0.8773	-15.4227	-19.1219	-0.3338	-15.1955	-0.1290	-1.3561	-14.5324	-15.0684	-7.6201	-21.4543	32.5171	-5.9213	-20.1638	1.7775	-6.9250
5520.0000	-3.9785	-11.4662	-16.5565	0.2059	-11.3381	8.0392	-4.3326	-14.0020	-4.9841	-0.2770	-16.1973	40.3419	-4.7682	-2.4274	-5.8732	-9.9610
5528.0000	-2.4398	-8.9783	-16.2289	15.1318	-5.6790	-2.9347	-2.3186	-4.8350	-6.5509	-1.5431	-8.8099	38.6587	-4.4530	-3.7028	-2.8299	-13.5968
5536.0000	-0.4355	3.2181	2.2898	27.3217	2.6015	11.2364	-1.0398	9.3311	-0.2435	14.0537	2.2767	47.4258	-1.5889	-1.1219	2.1614	-14.4415
5544.0000	0.8835	9.7576	9.7769	25.1049	10.4812	29.0635	-2.3240	6.1319	7.5301	21.4631	8.8204	57.4242	-1.1378	13.3034	6.8064	-12.8778
5552.0000	1.7480	-0.0409	-6.9249	16.8071	-1.5815	19.6929	-2.6936	-0.9962	2.2293	6.9014	-0.0681	50.9511	-1.5047	17.1650	9.7923	-13.7395
5560.0000	2.1528	-7.1512	-11.6960	10.0284	-17.8657	16.6125	-2.4637	-0.4656	-1.2374	7.1921	-4.9388	55.5201	-0.0411	10.2420	6.6614	-11.7168
5568.0000	5.9004	-3.1114	-9.2291	21.4965	-16.5216	23.6088	-0.8492	0.7194	-6.2459	3.5839	-5.4582	56.1868	-2.3553	5.8654	14.6779	-6.5098
5576.0000	7.8699	1.2766	-8.6440	20.8212	-8.6727	31.8544	2.3413	6.0094	-7.3651	1.4541	-7.1278	48.0192	-3.4655	11.6243	22.9546	3.8647
5584.0000	4.7335	-1.9425	-2.4015	4.4486	-4.5922	23.1682	0.8168	-0.4430	2.1704	7.6171	-1.8780	48.6073	-1.3530	16.2139	15.4208	2.9185
5592.0000	6.9974	-20.9651	-20.8072	-2.3096	-21.6932	-14.5687	-0.3685	-22.8850	-8.8362	-18.7443	-7.7282	36.3039	-4.1151	0.5743	14.1650	-0.1796
5600.0000	6.6015	-27.9866	-34.6851	-13.8227	-26.9637	-14.1307	1.6638	-31.6579	-24.4487	-32.9076	-27.5815	18.4066	-9.1314	-19.5885	15.6561	9.9261
5608.0000	-1.0149	-6.4592	-9.8071	-11.8691	-0.5551	18.3285	0.2209	-13.8613	-10.5309	-5.4416	-24.3796	16.2726	-6.3732	-11.1193	8.4411	4.4473
5616.0000	0.7391	0.4290	-0.7429	9.5972	5.3079	7.0958	0.0833	-2.0280	-1.1461	-2.3343	-6.5902	19.5276	-3.1799	4.3134	9.3505	-2.9620
5624.0000	2.7259	1.6669	1.8935	21.9253	8.7265	6.8342	-1.9203	-15.2400	-1.6173	-11.9512	-6.7493	24.9000	-7.8196	5.6640	12.4996	-1.7157
5632.0000	-1.6402	5.2592	4.2121	11.1867	10.3081	21.2030	-5.8601	-19.0962	4.1806	-6.8330	-11.6849	20.2268	-6.1183	13.2167	7.1080	-9.1180
5640.0000	1.0095	-5.9601	-9.8238	0.3312	-8.6643	-2.3725	-0.1345	-5.9374	-5.5057	-19.1041	-18.9498	-4.4287	-2.4509	5.3036	10.9762	-0.3253
5648.0000	2.3071	13.2363	16.0787	26.1139	15.4588	15.7171	2.0941	2.6090	-2.9490	-15.3630	-18.4388	-8.4187	-6.9600	2.7174	19.9929	8.8390
5656.0000	-0.7663	23.9995	24.5049	30.8881	31.1159	34.1825	-3.1332	2.5299	15.2007	1.6547	-1.8278	12.7472	-4.2787	33.0363	15.2222	-4.5533
5664.0000	0.6348	3.4217	0.1922	20.3267	6.4107	-0.8322	-1.9006	-2.5334	4.8918	-16.0962	-7.9212	5.4921	-2.9399	23.8337	12.4910	-6.8945
5672.0000	1.5587	27.0177	34.4056	53.3534	25.8456	21.7759	-3.7341	-1.5576	7.6601	-12.5731	-5.8999	-4.3841	-7.6681	12.6777	15.3068	-3.7558
5680.0000	3.2354	31.6965	39.2474	38.8797	29.0843	36.9656	-7.7314	-7.9464	24.1856	6.4821	21.1822	10.5120	-1.8122	37.9951	10.1917	-7.9274
5688.0000	6.3003	1.0526	4.1074	-2.1915	-2.6906	-0.3345	-1.8659	-12.9439	4.0833	-9.1460	9.0032	-5.7570	1.6184	11.3401	12.4262	-1.9807
5696.0000	5.5496	13.3820	17.9379	15.2584	1.9191	12.3599	2.9118	7.9444	-7.3727	-11.8758	-10.5332	-32.0880	-0.7544	-12.2549	19.1197	6.8413
5704.0000	6.2905	23.9584	28.6471	34.5238	11.7135	24.6449	1.6308	11.3062	3.6420	-6.3973	0.9458	-18.7342	-2.4682	10.0483	16.9156	13.4599
5712.0000	6.8464	32.5126	40.2485	46.3685	28.4251	34.4844	-1.2820	1.5328	11.3418	2.6468	16.7482	-1.2934	-5.2660	15.7910	14.1162	11.2916
5720.0000	3.9856	40.1838	44.0364	37.0133	32.6479	48.8573	-5.1622	7.6587	23.3676	20.4607	31.0903	-1.4555	1.8378	32.6004	7.5018	-3.7516
5728.0000	5.2299	11.2507	12.9098	13.5669	3.7687	0.2731	-2.7681	-0.3609	16.0596	-3.4466	23.4168	-10.8263	4.0111	33.1960	4.8756	-0.4712
5736.0000	6.9156	12.8110	17.6570	15.8198	10.8745	3.4501	1.7691	-2.5203	0.0497	-9.2609	9.7948	-24.0685	-2.0741	-1.2647	11.8821	11.8680
5744.0000	5.5074	30.0403	24.3030	-4.2275	19.4489	58.0056	-1.1798	1.3009	3.4186	16.3991	15.1984	-32.4728	2.5757	2.1898	10.6932	8.0102
5752.0000	6.0962	10.5659	-0.6069	-11.2139	-1.9203	25.6815	-3.5209	-13.2576	3.8482	-4.6761	14.6230	-30.0330	2.4563	18.6730	4.2111	6.8936
5760.0000	4.6144	-4.0698	-14.4247	-3.9735	-9.8122	-10.8344	-1.4178	-15.8442	-5.5261	-23.0382	3.5691	-31.7809	-1.3966	5.3482	0.6707	7.0572
5768.0000	2.9479	-4.6614	-22.7517	-33.1201	-16.2204	10.1891	0.7580	-12.0528	-18.8863	-18.1020	-13.2036	-57.3653	0.7257	-18.1905	2.2119	10.2034
5776.0000	5.1604	0.2302	-20.3612	-36.6554	-17.0009	23.4020	1.4559	-8.3100	-18.4073	-12.9686	-8.4969	-62.5146	2.5086	-15.3530	4.7070	14.9532
5784.0000	3.9580	-2.4064	-24.2013	-43.3971	-16.6408	18.6029	-2.3064	-12.7209	-4.9816	-4.2872	8.9402	-45.8658	6.6783	8.6092	-2.4538	4.5772
5792.0000	1.7832	-12.3543	-33.0813	-49.5566	-19.7621	0.1921	-3.1664	-29.8446	-12.5249	-24.5915	-7.0720	-60.8004	1.3466	-3.3077	-5.3415	7.8953
5800.0000	2.2449	-3.6243	-17.2941	-7.6775	-3.5064	-12.6412	1.8169	-13.0660	-16.1710	-26.3431	-6.3153	-53.0116	-5.0271	-16.3130	-3.9464	17.1513
5808.0000	-0.0107	3.5324	-9.4241	-12.0251	7.9804	7.0384	0.4617	-0.1482	-1.0618	10.4822	18.5920	-13.8750	1.2426	-0.4824	-11.5183	5.9034
5816.0000	5.9148	-9.5268	-10.5617	-5.2621	-10.0981	-13.4229	1.7160	-11.8415	-11.3549	-26.4997	-15.4333	-14.8109	-1.5670	-6.1294	21.8072	-1.5744
5824.0000	1.2197	5.4844	11.4294	7.6588	13.6770	-2.5831	-0.5876	-5.9556	0.5747	-11.9541	-7.9383	-10.8025	-1.5443	-0.4631	17.1385	-10.0891
5832.0000	1.0993	9.4513	24.4888	8.6645	18.6394	-5.6580	-1.1880	-0.4395	11.2807	-2.8861	2.3418	-4.8557	2.4826	9.0713	18.2445	-16.1065
5840.0000	10.0186	-8.3328	-4.1977	-7.1566	-8.7061	-15.0397	-0.9176	-24.8986	-5.7766	-25.4059	0.4729	-10.5678	-0.0137	-1.6195	25.2280	-6.4257
5848.0000	4.6626	-16.9297	-17.4530	-18.4845	-9.9170	-21.5221	1.0345	-20.5074	-12.9340	-27.6334	-17.4592	-11.1558	-1.4575	-11.0688	21.5958	-7.5974
5856.0000	1.8855	-14.2224	-8.6356	-20.7625	-1.6446	-22.0298	4.4522	-6.3279	-12.3839	-20.9048	-25.1068	-14.0968	-0.2398	-17.5544	24.8650	-6.7960
5864.0000	7.9930	-20.8921	-21.9883	-23.2355	-16.1840	-25.7589	1.7686	-26.2743	-20.3108	-30.2625	-14.4978	-15.1834	-1.3305	-25.2223	24.1712	-7.3914
5872.0000	3.8067	-30.2396	-32.7175	-34.8032	-27.5626	-32.9395	-0.2570	-29.7734	-21.5831	-30.0750	-21.9723	-10.9078	-0.3509	-28.4972	13.8513	-13.1484
5880.0000	2.6682	-16.6815	-16.5319	-22.1064	-12.6864	-11.0947	1.5187	-18.9533	-20.9168	-19.2425	-24.6790	-8.6278	-2.7501	-33.7121	15.8612	-6.3872
5888.0000	4.0131	-0.4697	-4.0294	2.3060	6.2850	12.8337	-1.3063	-18.5969	-12.6707	-7.1028	-8.1481	11.5267	-4.9306	-19.2655	17.2809	-11.1249
5896.0000	1.2009	7.5197	8.9148	14.2435	15.7884	19.8566	-4.2331	-7.4049	8.5352	12.3141	9.2784	42.5409	-0.7170	13.5711	11.6708	-20.6298
5904.0000	4.4290	6.8694	8.6250	11.2474	11.6906	19.8219	-3.1333	-4.5975	10.7341	20.6202	23.8450	49.9494	1.9253	16.2304	10.1334	-16.3989
5912.0000	4.7257	-15.7201	-22.4353	-22.9863	-9.7184	3.5879	-0.8193	-20.8190	-12.2090	3.2139	2.0967	31.5546	-0.1084	-16.3739	10.2738	-12.5576
5920.0000	0.1362	-14.6155	-21.1312	-19.3640	-4.6669	7.1038	1.1564	-15.1113	-19.3180	-2.0050	-20.3950	23.2690	-4.4286	-29.4171	10.2422	-7.9520
5928.0000	-0.2345	4.2162	0.4169	15.9102	11.2978	19.0043	-0.9533	-0.2651	-2.2716	9.2953	-2.6488	37.2454	-3.7564	-1.5062	7.7490	-10.8737
5936.0000	-0.7792	-8.8626	-15.5886	-6.0363	-9.3308	10.0793	-5.1853	-12.1045	2.3186	7.3843	1.1818	42.7875	0.9901	11.6702	0.0447	-19.3011
5944.0000	-3.1113	-7.0532	-16.1160	-4.8361	-6.2095	19.8261	-6.5240	-17.6332	-4.1709	13.1937	-1.4655	45.8773	-2.2869	-6.8771	-8.4049	-19.9624
5952.0000	-3.6783	12.5798	7.9090	28.2022	18.4067	33.8498	-6.3256	-6.8939	1.3753	22.8918	7.2153	50.9808	-5.6578	-6.8021	-7.3391	-19.8919
5960.0000	-1.4720	6.0071	2.8176	3.5207	3.9569	32.4945	-6.0322	-8.4871	5.7053	18.2327	4.5996	39.0793	-0.1251	7.7544	-0.9317	-16.6022
5968.0000	-1.7920	-0.0408	-9.8335	0.4539	-1.8059	22.4773	-5.3866	-7.1219	2.5375	12.6718	3.3165	35.3110	0.3808	10.0915	-2.9062	-17.5968
5976.0000	-6.8714	1.0922	-9.4442	25.1399	8.5779	4.0759	-5.1443	0.6856	2.0050	1.6129	-7.7748	33.3395	-3.7601	11.1973	-5.5535	-24.5669
5984.0000	-7.9192	-2.2083	-10.0088	-9.2539	-3.2062	12.6722	-3.6199	5.7010	2.7688	3.6358	-19.9284	8.8445	2.4959	12.0150	-1.8229	-19.5834
5992.0000	-5.0212	-0.8825	-11.3921	-30.6462	-4.9253	21.1278	-0.1486	13.2603	0.8850	12.2516	-12.8141	-7.9107	7.4087	8.6329	2.1263	-11.8005
6000.0000	-3.2058	3.7775	-9.9349	7.8725	4.5251	8.5133	0.0395	10.4449	-5.1532	-3.4637	-11.8940	-6.8607	-0.5517	3.3693	3.0212	-9.6358
6008.0000	-2.4429	7.7528	-6.5421	16.3401	0.2417	16.2529	-0.5694	14.7442	-5.0453	0.7172	-8.9514	-3.6707	-0.1313	2.8812	0.2442	-8.6054
6016.0000	-4.5928	-3.2589	-16.4468	-31.0269	-7.9472	7.9301	3.8430	28.0741	-1.6517	11.8920	-10.4551	-19.0870	10.0340	7.3114	1.6232	-7.7169
6024.0000	-5.3268	-12.5718	-25.9576	-45.4951	-11.8471	-9.3536	4.3127	15.8080	-7.3777	-9.9743	-26.6634	-44.4883	7.8354	3.4592	6.0208	-4.2699
6032.0000	-4.1586	5.3389	-6.2846	-6.1155	-0.2599	10.5401	-0.0552	14.1020	-1.1179	-3.0695	-13.4355	-28.1378	3.3872	8.4700	0.9717	-6.3469
6040.0000	-7.1168	15.2451	8.0176	8.6126	17.0131	14.3577	0.5782	32.9878	11.8149	23.2191	7.0964	-2.1779	6.4397	18.6151	-7.1519	-12.7436
6048.0000	-8.3257	9.9067	2.9035	-0.0670	19.3499	3.7169	1.2968	26.9881	6.9222	18.0175	2.3561	-10.2530	5.0847	7.5173	-7.7710	-13.6005
6056.0000	-5.6203	6.6581	-2.1405	-10.3009	10.4920	6.8728	1.1454	20.4048	2.7908	14.1056	1.3338	-17.1186	5.8374	3.4980	-4.7792	-10.7923
6064.0000	-4.3765	-8.5493	-20.5038	-37.9267	-13.6960	-6.9305	4.7382	24.2665	-5.9412	3.4094	-12.3814	-37.2173	9.9269	-1.9716	-1.9427	-3.1293
6072.0000	-2.9961	-9.8223	-20.3524	-29.6479	-22.9981	-11.2651	4.6807	17.2250	-16.5557	-12.0215	-24.9778	-54.8970	5.7963	-20.5315	-1.9266	3.3650
6080.0000	-1.7590	5.8744	3.4165	-4.7752	2.1392	0.1386	2.4262	15.1091	-2.4589	5.0432	1.1086	-29.3193	3.5116	-9.3769	-4.8711	2.3785
6088.0000	-1.7314	-0.6933	-6.1645	-26.3516	3.8476	-5.0346	4.8283	15.7675	-2.0623	7.9459	3.5781	-31.1329	6.0366	-5.1438	-2.3943	4.6200
6096.0000	-1.7082	1.7780	-8.5300	-24.5200	-2.4418	6.7065	5.6806	19.5114	-10.3826	1.9629	-10.7817	-45.0664	4.5401	-13.9222	0.4451	9.3048
6104.0000	-1.3393	22.0014	17.8682	4.5596	17.1434	29.7215	3.2855	31.9852	9.8146	27.7063	16.1556	-12.7425	5.9894	12.0255	-3.5685	7.0723
6112.0000	1.0170	13.0619	8.0204	-7.8391	5.5537	18.8967	3.9559	29.1767	7.5881	24.6765	19.0090	-13.0010	8.8392	11.6459	-1.5288	5.6207
6120.0000	2.4996	-1.4466	-8.5810	-19.2468	-13.8133	1.4476	5.9480	18.1439	-12.3430	0.7775	-4.5840	-36.9906	5.4704	-17.5761	2.5747	10.6096
6128.0000	3.0987	10.5967	11.9790	2.5556	0.4330	12.4987	4.8149	20.0225	-2.4915	11.3972	7.3958	-18.1202	3.1754	-9.7486	1.2298	13.8645
6136.0000	7.6288	24.6694	30.6359	23.4032	1.3881	37.7355	3.5229	30.5481	8.4948	30.8609	27.2202	9.1974	6.0759	5.8273	4.1483	14.2054
6144.0000	12.0901	19.4831	25.0422	20.5329	-11.8380	38.0445	5.2165	35.9170	7.9473	38.9397	37.5669	28.4674	9.5082	8.1853	6.6173	16.2256
6152.0000	12.4605	5.0923	15.3907	8.5682	-16.5007	14.0705	6.2636	20.7879	3.2679	23.4566	28.8608	27.8724	6.3228	1.2643	8.8010	20.7564
6160.0000	9.1190	11.7773	30.3882	24.7931	-2.1565	14.3550	3.9182	9.5978	3.3695	13.2690	16.2462	21.0456	-0.8407	-7.6643	7.7852	21.5831
6168.0000	4.9583	25.0689	46.6673	42.9487	23.0091	19.2750	3.2255	25.4636	19.2256	37.8547	38.1421	43.6702	1.1195	8.0414	-1.0661	12.7295
6176.0000	5.2813	14.0047	33.0194	30.8453	17.4232	-2.8883	6.7763	36.4098	20.9604	37.6366	42.1374	47.8097	5.9830	18.6196	2.2148	9.5756
6184.0000	5.4723	7.4542	29.3028	30.6684	10.0737	-14.5688	8.2632	32.9417	13.3780	22.2067	25.5861	37.6982	3.3210	8.4733	7.2114	13.5337
6192.0000	3.6014	6.6579	32.7188	37.6368	15.9090	-25.1856	7.3274	30.9264	16.6460	22.9092	28.9519	45.4087	2.1915	8.1820	3.0632	8.8670
6200.0000	4.5021	-5.4390	17.8312	24.9515	1.6581	-41.8687	8.4506	27.7336	10.9364	8.7550	18.9296	35.0265	3.4628	7.5932	7.2714	8.2913
6208.0000	3.3432	-0.7310	22.4681	29.1174	4.4797	-32.7778	8.1034	28.9278	9.0361	9.6504	13.6516	30.4134	1.9996	1.9936	6.4164	9.4599
6216.0000	0.5295	-0.0153	25.1916	32.0946	11.5185	-37.1779	6.2219	28.7761	15.2977	18.5357	22.5166	43.1871	2.7316	5.6866	-1.1527	1.2826
6224.0000	0.3831	-21.0275	-1.8896	6.3462	-9.5841	-60.3720	7.2082	18.3761	6.2277	-1.5305	6.1489	31.5285	3.2430	4.1106	0.3576	2.7296
6232.0000	0.5136	-19.9026	-4.9601	9.6811	-9.9915	-53.8585	8.4223	13.6768	-3.9345	-16.3216	-11.9848	13.4571	-2.2514	-6.2759	4.4661	13.3994
6240.0000	1.1469	-8.2322	10.4634	33.0323	0.7664	-41.0739	6.5495	11.7880	0.8577	-14.1567	-7.2781	22.1104	-6.1918	-1.8024	3.9521	16.5932
6248.0000	0.9018	-9.4034	6.6836	28.5084	-1.8161	-33.5206	3.6614	8.3224	7.7622	-0.7896	6.7756	44.9701	-3.8203	9.4560	-3.4671	10.8542
6256.0000	1.5191	-1.1526	6.2677	28.4464	2.6086	-6.7158	3.1657	11.1411	3.6834	12.3483	11.4368	48.8946	-3.8064	2.7199	-4.4846	9.9691
6264.0000	3.7099	4.8808	10.4450	28.4739	3.6221	13.6752	1.9200	4.6806	0.7843	17.3903	14.3016	49.8258	-5.3123	-4.2579	-3.8097	13.7492
6272.0000	2.8528	-7.8306	-0.7997	6.3125	-8.4609	0.0503	0.4418	-5.4678	0.1164	19.8412	18.6106	54.0310	-2.4541	-10.3604	-12.0695	9.0217
6280.0000	4.4046	-17.6050	-9.2728	0.3605	-21.6711	-22.1861	6.0199	1.1178	-15.7733	1.0859	-1.1117	24.6735	-3.0429	-34.5750	-4.5577	17.0020
6288.0000	7.6688	-9.7278	4.2011	16.2554	-16.3295	-18.6891	8.5912	5.0872	-17.6915	-6.0364	-4.7080	14.2634	-6.1090	-38.3756	4.0573	28.8598
6296.0000	8.4791	0.0951	17.7111	24.5666	-3.7841	-6.0735	2.5147	-6.1902	0.6431	8.0705	21.9239	37.2451	-4.8026	-13.1868	-1.6726	20.8223
6304.0000	10.0882	-4.6124	8.1541	16.0713	-7.2517	-10.1731	3.0019	-12.3350	-5.1323	0.8381	19.7779	28.3277	-5.1129	-17.7295	1.6746	20.9849
6312.0000	8.3990	-7.6713	-1.2059	6.8791	-1.3163	-11.0285	7.5922	-4.0457	-17.4275	3.6468	10.6279	20.9372	-6.2713	-39.0763	3.7819	22.7360
6320.0000	7.7720	-2.7100	0.9285	7.6265	3.9834	-2.6578	6.2563	-0.0454	-9.6214	11.7773	19.5392	26.9801	-3.9427	-23.6050	2.4600	18.7660
6328.0000	8.8614	-11.2231	-12.8423	-6.0457	-12.4192	-6.7800	3.5068	-14.1190	-10.9815	-3.3929	13.0490	14.6314	-3.5759	-14.2583	1.6546	20.3620
6336.0000	3.4878	-19.6636	-25.8781	-19.8874	-12.9600	-11.4502	0.8744	-31.9873	-23.3900	-13.9774	-6.9089	2.2832	-8.3157	-39.0623	-5.0998	12.5389
6344.0000	0.7203	0.1501	-2.7502	1.1393	8.9182	11.5265	-2.9217	-31.6500	-12.2617	-8.7390	-4.6746	-0.5526	-10.9448	-25.9630	-5.4926	9.3301
6352.0000	-0.3678	21.6734	19.8317	15.7202	26.2919	35.8679	-7.3337	-17.4973	14.8368	15.8389	24.8992	11.8580	-4.2222	17.4216	-10.4921	0.7515
6360.0000	-2.1422	9.0475	0.6474	-7.7821	13.6894	18.7279	-9.1763	-22.4363	13.7125	9.6299	23.0231	0.4585	1.0745	21.4300	-12.5969	-13.8408
6368.0000	2.4691	-5.3702	-17.2038	-19.9689	-12.8971	0.4121	-4.9765	-30.1351	-8.0589	-29.9077	-10.9263	-44.5457	-2.0487	1.6213	2.6261	1.0825
6376.0000	3.2023	6.2767	-1.2625	-6.0224	-3.5638	11.1695	0.5621	-8.0137	-12.8544	-19.9575	-13.1919	-52.7086	-2.4349	-14.8964	6.8489	11.4471
6384.0000	2.0298	3.7200	1.1525	-18.5531	6.1839	0.8033	3.0510	-3.9484	-10.1791	-12.2950	-7.8272	-51.9618	-0.0344	-18.4863	8.3894	9.0391
6392.0000	5.3289	-10.8242	-15.1854	-40.1728	-11.2657	-15.9034	3.3950	-18.6233	-14.3306	-35.5911	-18.8325	-70.0259	0.5138	-11.3957	16.9085	14.9041
6400.0000	4.5488	-0.9400	-6.7000	-23.2075	-7.5053	1.2768	1.6263	-12.0803	-12.8029	-25.1581	-14.9981	-59.2004	0.0615	-12.4153	13.4923	10.2272
6408.0000	2.3401	6.9464	4.3823	-11.8748	5.7447	10.9417	-2.0998	-16.5817	-3.6807	-14.3077	-4.8845	-41.0019	-1.1785	-4.8950	7.9609	2.3721
6416.0000	0.3347	0.3716	-3.1200	-20.5350	3.5732	-0.8342	-2.7075	-18.9810	-2.4168	-19.2395	-8.9304	-42.9490	0.0669	0.0346	7.5918	-3.8679
6424.0000	0.1929	-1.2154	-5.9932	-17.6296	1.9378	-7.0307	-0.2772	-11.3614	-7.8190	-24.4738	-17.1964	-50.4183	-0.0725	-6.3058	11.8796	-3.7366
6432.0000	3.3508	-2.1743	-7.8723	-17.1810	-0.0256	-3.4401	-3.5808	-30.2943	-4.7115	-34.0580	-12.9161	-46.7124	-2.7950	5.7312	14.2525	-0.3440
6440.0000	2.0874	-1.5208	-11.0309	-12.3300	-2.3773	2.0980	-6.0981	-32.0846	-5.1861	-29.0977	-10.2187	-36.6704	-2.8721	4.1810	8.4421	-7.9058
6448.0000	1.3112	0.3435	-7.7813	-1.8215	-2.2424	-1.6528	-1.3251	-9.8399	-9.6130	-22.3399	-14.2079	-34.4862	-1.6654	-6.1684	9.7303	-5.5382
6456.0000	3.2261	0.6357	-4.6375	-0.8093	1.2262	-2.0669	-1.1127	-9.7442	-1.3019	-18.8754	-4.8847	-19.9163	-0.6022	10.8768	13.5793	-3.4188
6464.0000	2.7036	2.8139	-1.2431	4.3685	5.6161	3.4689	-3.7143	-18.8439	1.3499	-19.6431	-4.4576	-11.6159	-3.0788	14.1957	12.5145	-5.5698
6472.0000	3.6918	-3.5098	-7.4915	-2.1571	-5.2820	-5.3190	-1.2719	-16.8507	-4.6726	-29.4766	-14.5306	-24.4986	-3.1097	8.5634	14.8365	2.3755
6480.0000	6.3512	-14.7736	-23.0169	-18.9899	-22.9238	-14.9376	2.1314	-9.0250	-9.4426	-30.5421	-15.3869	-25.4554	1.5321	9.3964	18.5448	5.4654
6488.0000	7.4186	-11.4175	-15.5570	-8.3151	-15.0826	-10.6478	2.3882	-18.0772	-14.6559	-35.8768	-20.7369	-24.0252	-4.5147	-4.1408	21.3636	12.2238
6496.0000	5.0801	6.4440	11.2565	14.8392	14.5232	5.0335	-2.2190	-26.3567	0.4411	-23.9094	-5.5386	-7.5663	-8.7676	6.9634	16.5514	8.1841
6504.0000	2.6849	6.3725	7.7123	4.3081	16.8731	6.3204	-4.1522	-16.6008	14.1431	-1.3427	16.2278	12.8520	-0.9146	28.2468	8.0137	-6.0666
6512.0000	2.9449	-18.3967	-23.8188	-25.5423	-14.0527	-18.8646	-2.1796	-29.0891	-5.3485	-26.2664	-8.5133	-11.0673	-1.6568	6.3420	6.8320	-0.1359
6520.0000	1.0170	-13.6012	-18.8808	-10.6788	-17.5271	-9.9602	-5.3862	-36.7872	-10.4516	-37.7579	-24.3140	-21.6926	-6.7514	-2.7695	3.5400	0.5721
6528.0000	-1.0722	11.3034	10.8247	19.1109	8.6536	18.1916	-7.7749	-18.6718	12.9906	-9.6072	0.3758	4.4407	-4.9639	28.9831	-2.0305	-1.6662
6536.0000	-1.3846	5.7063	10.3219	11.7460	17.4508	5.1994	-5.4982	-18.9511	19.2457	-5.3665	7.4000	20.2498	-4.9350	37.8579	-0.8816	2.1204
6544.0000	-0.6562	-1.9508	4.4181	9.8933	13.1964	-3.6430	-4.3135	-25.6647	9.3514	-13.4410	-3.4448	23.3189	-7.7679	19.9232	3.9845	0.6454
6552.0000	1.9456	-3.3806	3.2628	3.9312	8.0407	-4.8410	-2.0786	-24.8976	2.7128	-18.0074	-7.0877	9.3738	-7.2679	8.9305	9.2254	5.8601
6560.0000	1.4444	-1.7404	8.4594	-1.8234	19.4681	-9.1753	0.8719	-17.8321	3.7154	-13.1706	-5.6036	4.9176	-5.8140	5.3158	14.6550	5.0825
6568.0000	-0.9195	23.0708	40.6051	28.5057	52.6296	17.6808	-2.5360	-10.4857	22.9605	8.8370	12.6949	28.3853	-7.1313	25.6128	13.8029	-2.1837
6576.0000	0.5034	23.1477	40.6829	23.3776	42.5065	20.4584	-7.4045	-13.9751	37.5429	17.6309	32.6476	40.5983	-0.7230	52.5005	7.6908	-10.9343
6584.0000	5.3575	-1.5673	13.2245	0.8343	2.6580	-6.5117	-3.0026	-9.7585	22.1220	5.9013	22.6645	38.3792	4.5661	36.8115	12.6709	-9.0309
6592.0000	7.6022	-1.5263	19.3529	9.9413	4.4650	-3.3348	-0.9847	-22.3991	10.4537	-5.8767	9.3279	34.7770	-4.5365	12.4870	15.1641	10.0197
6600.0000	4.1470	-5.7786	15.6610	-9.3807	3.4489	-4.7012	-4.3852	-36.4419	12.1508	-5.4543	8.2451	26.0604	-4.1254	8.9765	5.4939	6.3162
6608.0000	2.2781	-12.8814	5.7477	-17.4788	-8.9717	-19.0902	1.4319	-11.5469	4.5154	-6.2045	-4.6289	11.1008	0.5639	0.0878	6.9408	7.6471
6616.0000	2.6922	-2.8207	14.1998	4.8497	2.8885	-11.3052	1.9656	-11.1488	1.3638	-12.2181	-7.6265	3.6944	-5.3110	-4.1934	7.8897	15.8254
6624.0000	2.5815	-2.7031	6.3894	-2.4284	-0.7807	-0.9554	-5.1163	-29.0518	2.5515	-8.5828	2.6182	7.8399	-3.3906	-2.4499	2.3959	-3.4857
6632.0000	0.5421	-2.7062	7.5837	-7.8479	2.7691	-5.5461	-4.1613	-25.3422	3.6902	-7.2052	1.5771	-0.9551	-2.5645	-3.7829	-0.5951	-2.1289
6640.0000	-1.4152	-3.3565	5.5478	-12.7522	14.6117	-14.1758	-4.6772	-31.5414	6.3210	-7.8044	7.4993	-6.0052	-3.6825	-1.7184	-4.8396	-3.6847
6648.0000	5.4879	-17.0745	-19.9152	-27.9416	-12.8692	-16.5186	-2.5659	-33.6620	-9.8286	-18.8859	0.5846	-9.0452	-0.4227	-11.7076	8.5774	-7.0320
6656.0000	6.9385	-11.0678	-12.7107	-14.8157	-11.5003	-6.4911	0.5402	-32.2072	-15.2803	-34.9449	-18.0035	-26.7578	-7.3839	-12.6826	14.5398	17.6538
6664.0000	-1.0131	5.3186	1.3000	-5.5147	10.8851	13.3401	-6.2266	-29.6595	4.5393	-11.5257	0.7280	-15.6051	-5.7695	10.6191	-5.5134	4.7644
6672.0000	-0.9684	1.5403	-7.0978	-14.6995	-7.5485	14.4938	-6.3535	-14.0684	5.1795	4.5749	10.8467	-8.2286	2.8296	10.9335	-12.5228	-5.8054
6680.0000	-4.3024	-2.5812	-7.3431	-9.1607	-8.8820	-3.5025	-4.7220	-13.4141	-0.4879	-9.9543	-5.5641	-25.8477	-1.2195	-0.9008	-17.2182	1.4611
6688.0000	-9.5323	0.1390	-14.9154	-2.2609	0.5833	1.3585	-6.5876	-5.6906	1.7750	-2.6848	-6.1641	-14.6462	-0.8222	7.6696	-22.1878	-13.8482
6696.0000	-8.4214	-2.2177	-18.4890	-6.6747	-7.4790	7.3070	-3.1324	3.5323	-2.7470	-0.6738	-13.0869	-12.6171	-0.5666	4.5529	-19.9253	-2.7382
6704.0000	-10.7577	0.2362	-3.0426	-0.6546	-0.8624	-4.3582	-6.7922	-9.3437	2.4825	-1.8549	-8.1740	-17.6430	-2.4894	-5.1949	-29.2866	-7.0642
6712.0000	-7.8568	5.9158	-2.4078	11.8058	-0.3055	3.9414	-9.3382	-3.5263	6.3739	13.3631	13.0616	4.1074	2.2761	0.7701	-27.3306	-26.5409
6720.0000	-7.4758	0.4195	-14.5057	5.1657	-8.4044	11.8748	-6.9894	-4.3916	-3.9060	6.9711	-2.6113	4.0078	-1.0325	-6.6910	-24.6379	-15.5285
6728.0000	-14.1277	-0.2204	-15.2039	4.7871	-2.3880	9.3736	-11.4025	-14.4935	-3.3562	4.8872	-11.5190	1.8077	-3.6806	-12.8286	-35.1983	-27.1913
6736.0000	-11.0992	8.0079	-7.1283	11.3851	5.6728	15.9659	-8.7972	2.8944	6.1797	20.2718	8.2757	12.4963	1.0883	4.9045	-30.4808	-25.6462
6744.0000	-9.8660	-1.6697	-15.1624	-11.2671	-2.8481	4.8447	-5.3165	0.6164	1.8836	10.8911	-0.5188	-4.8970	1.9841	1.6064	-26.5659	-13.2083
6752.0000	-11.2827	-5.7523	-22.4113	-6.4323	-15.1140	-1.0557	-9.0418	-8.3593	-6.2674	-5.5892	-16.9937	-18.1438	0.7732	-8.8740	-25.5299	-27.0400
6760.0000	-8.9738	12.1928	-0.9072	29.1148	2.8462	16.5253	-6.8098	9.9351	5.5484	5.9629	-3.7714	3.6830	-1.5215	13.5449	-20.9638	-15.3417
6768.0000	-9.2101	1.8617	-7.6250	13.8162	1.4988	-2.4082	-3.8755	15.3681	8.6205	13.4165	4.1947	16.3708	2.3353	15.7846	-21.6276	-16.9782
6776.0000	-3.4510	-21.0645	-39.2245	-10.4545	-32.4445	-30.4386	-0.7235	8.4010	-17.0426	-13.2517	-14.7956	-12.9314	5.6359	-15.0729	-7.2937	-25.3966
6784.0000	0.6724	-11.6960	-33.2545	-6.5086	-21.0232	-5.2375	2.6406	2.0771	-25.5626	-22.7274	-25.9912	-27.7030	-2.0639	-21.4739	4.8102	-0.8044
6792.0000	-4.8774	-3.3061	-26.2597	-7.1602	-4.1494	17.9173	-1.5615	-2.6591	-15.2113	-7.5673	-23.5036	-8.8264	-3.7033	-8.4769	-3.0381	-6.8478
6800.0000	-9.1647	-0.5769	-23.1328	6.5470	-8.6744	12.5279	-5.9683	1.3917	-9.7536	-9.4125	-26.3318	-10.9583	-1.8036	-1.3059	-10.9607	-22.6209
6808.0000	-8.7550	11.6395	-1.4233	22.0771	6.1781	18.3605	-7.8541	3.2019	3.8357	2.3830	-8.4146	-0.5861	-1.1832	10.3931	-13.4322	-23.7959
6816.0000	-2.0952	8.9501	-0.3411	14.7150	-1.0230	16.6825	-6.6855	5.6517	7.2999	14.0013	12.2448	16.4220	5.1235	14.0069	-4.8342	-29.0514
6824.0000	0.1716	-3.6995	-16.2453	0.1617	-18.9126	1.8669	-1.4573	5.1213	-12.6040	-8.2049	-12.4667	-14.5040	3.0978	-11.4529	3.2213	-16.3569
6832.0000	-4.4094	-10.2548	-26.6183	-14.6277	-15.1543	2.7482	1.6988	1.9717	-25.4968	-17.8528	-40.0809	-28.0628	-2.5765	-30.7196	3.7859	-6.5966
6840.0000	-0.9262	2.4187	-10.9608	2.0605	-9.6810	20.3506	1.0143	12.2820	-12.7069	-2.4363	-20.1125	-8.9687	0.3289	-9.3420	6.2899	-4.9757
6848.0000	-0.0364	25.5495	18.9599	29.0462	7.0012	43.3347	-3.9167	17.8820	8.8024	20.2160	11.8499	5.9288	2.8140	15.0095	-2.4694	-8.1571
6856.0000	-6.6229	14.3406	1.9740	12.3217	6.4156	35.9933	-5.3688	14.8076	7.6855	23.8011	2.6471	19.5176	3.1503	14.5854	-10.4593	-20.3190
6864.0000	-3.5222	-5.2338	-20.4096	-4.0877	-18.7336	11.7689	-2.8269	6.4861	-4.5347	0.2641	-13.3494	6.6800	2.6453	7.2927	-4.9198	-12.5661
6872.0000	1.3798	-4.4826	-14.4710	-11.9123	-27.1400	13.7021	-4.6666	-8.5897	-8.1768	-2.6711	-4.7011	-9.4504	3.3979	-7.7542	-5.0878	-9.0141
6880.0000	-3.5689	-10.7778	-24.2285	-26.6525	-24.7120	9.7329	-0.8925	2.7670	-15.6507	1.7386	-19.8445	-11.9879	3.8986	-21.4763	-6.0823	-10.6034
6888.0000	-3.0804	-6.1203	-18.9819	-10.4013	-15.8233	5.8690	3.8478	16.1576	-16.2167	-5.6863	-26.8295	-18.2952	0.5414	-15.5175	0.2416	3.5991
6896.0000	4.1112	0.3950	-6.4907	-5.1366	-12.2215	16.8870	0.1876	-2.1072	-10.4455	0.4859	-2.3862	-4.7618	0.6920	-13.1228	4.9218	1.4699
6904.0000	2.8162	-2.8990	-6.8525	-9.1192	-10.9124	16.2853	0.0257	-4.3816	-10.5177	4.3201	-5.2537	8.0771	0.2856	-17.0178	5.3013	-2.3962
6912.0000	0.2187	17.4886	19.5129	24.3967	8.1745	29.8951	-1.8477	10.6069	4.8200	15.0178	4.4605	14.3659	-0.3080	2.4870	1.3428	-3.7133
6920.0000	-1.1352	18.7793	21.7142	16.0779	6.7160	29.6583	-6.2126	10.7666	20.0489	28.6517	24.2350	23.6449	6.7376	24.5487	-6.6737	-17.5229
6928.0000	-5.5949	-6.7164	-10.0428	-22.3309	-9.1194	-2.6205	-2.9128	5.6382	7.0925	11.5229	0.5106	4.1193	7.6246	10.8396	-9.2294	-17.5115
6936.0000	-2.8868	-7.4066	-13.5242	-17.4423	-9.6705	-1.9643	0.3418	1.5840	-11.7853	-3.6015	-17.1569	-15.0910	2.0985	-19.3242	1.1912	-11.0963
6944.0000	-2.2484	-4.2547	-9.7546	-17.1230	-12.8538	9.1685	1.8590	6.7579	-15.4740	-5.4049	-27.6988	-22.3121	1.5865	-23.6646	6.4685	-4.9706
6952.0000	-6.4547	-1.5596	-6.9242	-12.6678	-6.1172	7.6335	0.8694	9.9629	-6.0258	-7.7461	-30.9293	-23.8760	0.3799	-3.6293	0.2106	-0.5456
6960.0000	-2.3175	5.2074	0.2610	10.8198	3.9689	9.9111	-2.0368	1.6489	-0.1242	-1.1940	-6.4238	1.4108	-1.6031	3.6701	-0.2504	-6.6918
6968.0000	-2.3086	7.9893	6.9779	15.2226	8.7264	12.3119	0.3619	13.1744	2.8020	10.6288	-0.7615	14.6813	-0.3546	3.6040	-0.0827	-4.2831
6976.0000	-3.9307	26.5594	28.1698	26.4762	24.4724	38.4635	0.7479	35.0633	19.8826	33.4250	12.4538	24.2200	3.6139	29.5139	-1.1599	-1.0353
6984.0000	1.8228	29.0047	26.6240	28.0521	20.4797	48.1571	-0.0599	35.5674	26.8761	43.2982	34.8896	42.4304	7.3971	48.3065	2.2775	-1.2896
6992.0000	0.6355	8.8409	3.3232	-0.5613	4.7267	23.1136	2.4574	24.1727	12.7886	23.3918	14.7095	20.4641	5.9613	30.2149	1.7508	4.7557
7000.0000	-1.2125	3.3492	1.8682	-10.5444	2.9161	12.3045	3.7486	16.8141	3.4276	8.2953	-5.2594	-3.7589	2.9601	10.5772	4.3311	8.6052
7008.0000	1.9112	-0.9013	5.2545	0.6982	-2.3375	-4.0362	6.1387	16.0476	-1.2690	-2.4180	-9.0737	-2.9555	0.5020	0.9924	9.8392	14.8361
7016.0000	0.7870	4.9793	15.4038	10.2944	9.8165	-2.1295	4.8270	13.7428	4.0863	4.6352	-0.0184	5.8449	-1.1753	1.5404	5.1907	13.5389
7024.0000	-0.1256	13.0088	23.2013	1.6538	24.4064	16.1622	3.7033	15.7776	12.9296	27.4572	17.5796	19.4452	1.8956	8.0885	1.7818	8.8310
7032.0000	0.4848	-4.7637	5.6195	-15.6060	6.6443	-12.5413	9.7359	21.3656	-0.3873	10.0413	-1.9463	1.0531	2.4276	-7.4500	7.1014	18.0173
7040.0000	2.3490	-7.1952	5.5988	-9.9430	1.6502	-21.6058	9.7089	13.3243	-5.8007	-6.0842	-10.5383	-11.9704	-0.6274	-14.3846	11.2633	22.0879
