Time	Fz	Fpz	C3	C4	T5	T4	O1	O2	F7	F8	F3	F4	T3	T6	P3	P4
0.0000	9.9524	-0.3095	3.1510	-7.7455	7.9471	14.0149	32.5482	30.6689	-4.8438	-1.2720	-8.3647	4.2800	-0.2434	8.4294	31.3813	42.7366
8.0002	18.1601	17.7346	29.8670	41.1544	40.0540	7.8498	-46.4072	-54.5793	5.5919	-36.1313	10.9712	18.4932	-29.8198	39.7533	35.8567	82.1557
16.0004	1.8110	-12.7535	-13.7177	-8.3047	-8.7693	-27.6163	-4.8531	-19.5532	-8.0345	-30.1023	-13.9557	-22.7487	-3.3108	-3.3057	8.2048	0.1810
24.0005	24.5328	-0.0863	23.5830	29.7283	2.1860	-3.7964	-2.6674	-14.6498	-22.8549	-37.8933	-16.1050	8.3606	-21.9203	-19.9279	50.7594	90.8204
32.0007	7.9178	16.7656	30.6287	54.8268	37.3615	-18.1731	-29.4397	-27.7443	15.2435	-11.1196	32.6103	26.8087	-15.7240	27.0036	7.6181	25.9127
40.0009	6.0967	-17.0729	-23.8149	-24.9614	-14.1181	-27.0720	14.4942	11.7251	-12.7115	-19.7501	-8.4636	-29.0313	2.4254	-2.0308	14.2444	22.9654
48.0011	17.0657	-9.1621	2.2502	-14.0257	-8.6439	0.9906	-15.7948	-30.1234	-23.5806	-39.8804	-29.8011	-16.8157	-17.9648	-15.4416	39.8514	77.6671
56.0012	6.0347	3.0391	14.0442	23.2214	9.7923	-13.3958	-10.9573	-14.8169	0.8779	-15.4330	3.4026	7.3935	-8.6986	3.7518	12.0373	18.3182
64.0014	16.9173	3.4529	8.7897	11.9246	11.7910	7.9132	7.1330	3.7513	-12.8519	-11.2996	3.2965	8.0540	-10.9599	-3.9846	33.6395	61.6517
72.0016	6.7104	11.9929	16.3396	10.7062	33.6020	13.6488	-17.2788	-22.1691	5.9410	-3.5715	11.9739	15.0341	-13.1358	19.0331	15.2915	37.6273
80.0018	3.6760	-8.4282	-8.7999	-15.7167	6.0271	-16.4751	10.1606	6.8823	-3.0222	-13.5977	-6.9213	-13.4141	-1.5786	9.2323	15.0570	25.1597
88.0020	17.0518	-3.0510	6.0609	-8.1857	8.7734	8.8762	-0.3688	-13.8900	-20.9376	-22.1958	-14.7854	-3.0808	-15.8261	-17.2602	39.0440	74.8332
96.0021	5.2305	16.7638	31.9099	41.2360	37.8422	1.2579	-6.0432	-7.9839	11.5857	5.6289	23.6311	32.9815	-10.9188	10.7951	7.7720	21.3385
104.0023	9.1325	6.3008	15.9403	21.1509	18.9157	-6.9362	5.8418	14.4977	3.0005	0.5407	14.6379	15.2488	-6.1801	11.4608	16.1612	42.1977
112.0025	5.8986	1.9506	-2.7919	-24.2539	6.4623	24.1865	-15.9022	-14.7210	-9.3277	3.4811	-1.0023	-4.0841	-7.7730	-5.6029	8.7640	42.1032
120.0027	-1.7119	2.2412	-3.7569	-5.0021	9.4261	8.7994	2.4155	7.8301	-1.0333	10.4427	3.5470	2.7720	-2.0499	0.0873	-7.1169	15.3576
128.0028	5.9203	14.2058	28.5044	36.5669	30.8786	5.1271	-5.1131	3.3970	4.4644	6.7172	13.3789	30.4521	-13.4209	4.1412	7.1045	46.5006
136.0030	-2.5605	11.9699	22.5869	14.1723	28.6154	-2.9009	-14.8855	-7.1811	16.9695	19.4170	27.8684	20.5357	-4.0944	11.7702	-14.1212	8.0006
144.0032	-0.8845	-21.8048	-22.2146	-36.1843	-12.4669	-43.0372	5.0125	0.5588	-8.4455	-17.3627	-8.9251	-35.9436	0.8429	-8.7783	-5.9900	23.3463
152.0034	2.0684	-28.1982	-19.9953	-36.0403	-17.5193	-41.6410	-7.6936	-30.8952	-30.0964	-41.3170	-40.5836	-41.2053	-13.1556	-47.8690	5.1390	43.8558
160.0035	-0.2513	-29.8648	-29.2326	-36.7474	-25.6618	-39.0233	6.4758	-19.0076	-31.9051	-35.4207	-38.2958	-43.8627	-7.4137	-52.6855	-2.9108	26.5193
168.0037	6.8347	-29.8342	-37.6524	-36.7849	-28.9689	-27.4823	7.8356	-21.4637	-37.3839	-50.6601	-44.0740	-51.1617	-12.9224	-37.4795	10.2399	59.3885
176.0039	0.2385	-0.7887	6.1982	6.4646	9.9507	2.9435	-9.2702	-30.8629	-8.3681	-18.3288	-16.7358	-0.8449	-16.5409	-15.3031	-3.8999	35.6917
184.0041	-1.5112	8.2012	21.1704	18.0990	24.9781	-1.6055	2.6531	-1.6949	10.2920	9.2883	12.8058	18.2673	-7.5654	3.6287	-10.8195	23.6659
192.0043	-1.8536	13.6396	24.9110	18.2736	32.3240	8.3988	-7.8467	-6.5857	14.9173	14.6132	17.4541	23.9568	-8.5572	13.3465	-9.9361	23.4139
200.0044	-6.7185	17.2848	32.9440	38.3219	23.8847	4.7153	-8.0495	5.1510	22.3448	21.6685	18.0012	34.4285	-3.4858	16.2138	-19.7799	-3.3851
208.0046	2.0476	-1.7261	7.4241	18.4179	-15.0240	-19.8298	-6.4194	6.3895	0.7874	-3.1899	6.1529	0.1205	-1.5338	-2.5684	-10.4256	17.9056
216.0048	2.2093	12.1876	16.8787	15.9767	-2.5100	15.8445	-16.5888	-4.3502	8.0143	20.0513	25.6883	16.0665	-0.5387	2.1612	-15.2312	8.1338
224.0050	0.1266	16.8467	23.2328	28.8706	8.5967	13.3124	-3.5189	19.8148	18.6396	28.4089	30.8729	27.7913	2.7938	21.5900	-14.0764	5.9099
232.0051	3.6230	-8.0149	-7.4415	8.5415	-21.1517	-22.2368	-4.8620	7.4401	-8.8260	-14.3677	-5.8716	-12.0114	-2.5268	-5.2415	-2.3286	24.3552
240.0053	3.6459	2.2369	5.9526	10.7307	-13.9495	1.2401	-6.9768	4.0497	-3.7873	7.4229	9.7106	4.5818	0.1219	-12.2135	-6.5275	10.2340
248.0055	6.3045	-8.8188	-7.8822	-5.1826	-22.7313	-21.5044	-2.9249	7.6885	-9.1057	-4.5301	7.8301	-14.7683	1.9525	-11.9335	-1.9406	21.3240
256.0057	6.9285	-28.6732	-34.5844	-22.8482	-48.6731	-39.1987	-3.0404	-11.0006	-35.7275	-40.5724	-31.2800	-46.4215	-3.4607	-44.5671	5.8247	24.4930
264.0059	9.5271	0.9830	7.8705	12.7820	-16.3818	7.9225	4.2950	4.1401	-10.2523	-3.8340	-0.5137	4.2087	-2.6345	-15.8491	10.3321	24.9365
272.0060	7.7611	3.5090	10.0712	18.1753	-4.9322	-7.6980	-1.0158	5.5313	3.7626	-1.6527	17.2039	5.0971	-0.8159	9.6708	3.9874	21.2056
280.0062	3.2879	-1.1545	4.4717	27.2481	-12.7442	-14.5825	-0.4571	5.5627	-8.4146	-6.5543	-0.6437	5.1274	-2.2714	-18.5001	-0.5717	1.7884
288.0064	7.2536	17.4679	31.2488	40.2814	5.9314	18.5106	0.4028	20.6435	6.3414	22.0911	20.8054	36.3645	-0.1804	-0.1714	8.0715	10.3867
296.0066	5.9170	-0.8840	-3.1162	-4.4504	-18.4436	-3.7160	-4.0559	11.3867	0.8647	5.8864	15.8961	-5.6447	7.4362	6.6972	3.0751	1.5775
304.0067	6.4319	-9.7182	-12.9934	2.7684	-31.8613	-13.2220	4.3937	11.4556	-15.9675	-13.3340	-8.9442	-14.0403	3.1742	-17.3189	8.2421	4.2418
312.0069	8.9607	8.2502	20.7507	41.6250	-0.3561	-2.7826	2.2399	12.9306	-0.7591	-2.1921	8.0804	21.4949	-3.8770	-1.4610	14.4662	17.0909
320.0071	5.4811	13.2072	23.7352	33.8402	4.2516	1.1430	1.6503	15.9983	13.9708	16.3525	30.3724	24.7639	4.2377	14.6740	1.8782	-4.2271
328.0073	4.4789	18.6069	27.3234	31.8203	7.0181	21.1726	0.9174	21.5228	15.2291	27.0689	28.2137	33.0055	4.7179	16.7487	2.5268	-3.0077
336.0075	0.4397	18.2750	22.8631	31.3952	15.0206	22.2228	-5.4804	12.9202	13.0084	22.4272	18.0952	32.4145	0.7439	15.0355	0.5302	-7.8688
344.0076	-0.4655	27.6411	35.1903	49.0885	23.1946	27.9535	-2.5865	21.8069	24.0012	37.8619	36.5386	49.0650	4.0698	24.4984	-5.9324	-20.8176
352.0078	2.8423	33.0884	46.5720	60.7431	23.2429	26.3912	-7.9982	24.7329	32.9311	41.7702	50.5029	56.8182	5.6425	39.0797	-3.5014	-17.4831
360.0080	3.8202	2.0435	-2.1085	12.8164	-20.9136	-7.1473	-3.8898	13.7186	5.0136	5.8385	20.2043	-0.2668	9.8857	11.7362	-1.8797	-20.2824
368.0082	4.8252	-6.9494	-15.5059	0.4614	-32.1006	-10.8390	0.6912	12.7663	-8.7770	-5.4783	3.5238	-14.3181	7.4829	-4.8136	0.9509	-7.7947
376.0083	-1.0375	12.6022	17.2890	33.7525	3.8989	11.1577	-7.6451	11.3119	8.7070	10.4514	5.3159	24.2514	-0.5050	11.2984	-1.5246	-8.1012
384.0085	-2.2413	22.5649	23.7576	35.3754	12.3353	38.6404	-0.4251	20.0135	17.1438	27.7835	13.8688	37.8658	2.7191	24.0027	-3.4031	-14.6606
392.0087	1.5628	22.9036	16.9882	22.8869	7.7112	39.9718	0.3354	25.9131	21.1596	36.7751	35.2454	30.8550	8.2032	36.4971	-6.4943	-8.1204
400.0089	-2.1560	7.4383	-0.3416	16.2686	-0.3838	2.3294	-3.5956	19.1654	9.0069	15.6508	17.6987	10.1437	5.6158	17.5895	-10.1832	-13.7457
408.0090	-4.6206	-0.7348	-14.4194	13.8535	-7.7971	-4.8907	-2.8692	17.6741	-3.2108	-1.0492	-7.3220	-1.0426	1.5950	6.4313	-7.6203	-11.3773
416.0092	-6.4507	0.1057	-15.6103	4.7616	-12.8058	0.7520	-7.6314	16.7367	3.6103	2.5862	-4.7537	-4.9783	4.5178	20.2693	-13.5337	-13.1574
424.0094	-2.2796	2.3006	2.7619	10.9009	-15.5698	6.0421	-1.3951	13.1778	1.8866	5.8753	-4.5318	5.1998	3.8063	1.6464	-6.7117	-9.4229
432.0096	3.4943	19.9982	28.2647	39.1568	6.9240	29.7252	-1.4501	12.7785	11.4837	20.5706	17.3235	35.3519	-0.2399	11.8616	1.6339	0.3494
440.0098	-4.8389	7.1944	-8.6115	-0.5484	-3.9342	16.7762	-4.1537	17.0598	12.1886	17.2760	12.8839	2.6370	7.7214	30.5685	-14.2165	-14.6819
448.0099	-6.1458	-23.1079	-45.9994	-49.8152	-46.9195	-1.7884	4.9913	7.4475	-21.0054	-16.1891	-39.6122	-45.5275	7.6199	-15.2309	-9.4818	-7.0001
456.0101	3.6705	-1.4247	-3.1056	10.8893	-27.3143	19.0932	3.3224	-0.0190	-15.8951	-10.5418	-22.3533	-1.1246	-2.6924	-21.1130	4.8844	6.4723
464.0103	1.1403	20.5174	22.3063	40.1833	8.2307	25.7091	-0.3882	17.4621	17.1320	22.6238	24.6120	32.8985	2.6225	25.4397	-5.2063	-8.2334
472.0105	-6.2546	-6.7390	-14.3168	-24.2452	-12.9261	-4.5690	1.6583	13.9590	5.4099	3.9122	-7.1008	-15.1855	8.5625	15.2902	-8.8298	-11.7840
480.0106	-3.6182	-27.3443	-38.6414	-39.8200	-37.6388	-28.5419	3.8830	-1.9954	-23.1202	-30.6447	-41.3905	-45.4363	3.1452	-24.0499	0.9180	-4.8211
488.0108	-1.2018	-20.4915	-29.1626	-26.4018	-30.6214	-15.0433	6.3452	0.2085	-24.1263	-24.1387	-37.3145	-31.8852	0.0367	-28.9233	3.6628	3.4852
496.0110	-2.8632	-14.7123	-16.0555	-27.0460	-21.7421	-1.7639	4.8866	-4.8068	-15.8828	-17.2184	-36.8950	-22.5965	-1.5111	-21.8684	1.7652	7.7833
504.0112	0.7780	-6.0287	-5.7076	-2.9486	-13.1708	0.1387	2.7306	-4.7766	-10.9251	-12.1100	-18.0882	-8.1842	-2.6988	-15.8492	2.8449	5.7757
512.0114	0.5771	4.9146	6.9450	2.8796	-1.1267	15.6427	0.0645	3.7886	1.2575	8.0680	-0.0131	8.2852	0.2173	-0.3496	0.4005	3.3055
520.0115	-4.3196	6.2340	8.4701	0.6596	0.6084	19.9669	0.6397	5.9314	9.3179	9.0942	-6.7147	9.3447	1.9521	13.8106	-3.7781	-5.6969
528.0117	-2.8460	5.6472	-0.5377	14.3359	3.2057	8.1640	0.8754	8.1313	6.4464	1.8573	-0.1603	7.3773	0.7836	17.9169	-3.0809	-9.0559
536.0119	-1.7452	-0.3079	-3.0457	2.9834	0.5753	-2.4850	-1.0165	3.5851	-0.7706	0.0645	-2.3083	0.3183	-0.0260	0.2217	-2.0346	-3.6759
544.0121	-2.0552	-7.8173	-2.1237	-10.1731	-8.3697	-7.9549	3.7913	1.4076	-8.5790	-4.6804	-17.9723	-6.5906	-0.3962	-20.9436	0.8554	0.5849
552.0122	-2.1920	-12.2382	-11.2832	-19.9814	-6.8013	-16.6531	4.7456	1.6200	-10.7881	-8.3795	-17.9907	-15.1756	0.3706	-19.7512	2.4226	0.7937
560.0124	-2.6441	-17.1052	-16.0873	-30.0366	-8.9316	-22.8144	3.0166	-8.5055	-14.4694	-14.7907	-22.4473	-23.9730	-0.7420	-27.1466	1.5146	0.5868
568.0126	3.4066	-3.9915	-5.8102	-9.6192	4.9598	-12.5273	-1.9859	2.1445	-6.5589	2.2356	9.1172	-5.5410	-0.8743	-10.2921	3.3485	13.7843
576.0128	2.3397	-3.8202	-2.1369	8.4034	0.9099	-13.0283	-14.8866	-6.2658	-15.3589	-9.6646	-10.9258	-0.5671	-8.8886	-23.9987	5.5223	19.1052
584.0130	1.3014	3.7453	4.1787	21.0903	14.6917	-7.5196	-9.7075	4.1933	-4.7744	-1.6797	-0.3522	11.4293	-7.9158	-3.9463	4.8269	17.1654
592.0131	2.6497	9.6305	3.7659	20.9023	16.3302	8.0499	-12.4924	8.0332	-2.3237	9.1130	10.1625	16.8581	-5.7182	3.4251	4.5920	15.2714
600.0133	-3.4301	16.3566	4.9422	28.3896	29.1587	22.5229	-18.4648	2.7908	4.6886	11.2353	4.5437	25.0377	-8.9222	18.5558	-2.1236	7.2007
608.0135	-6.5296	17.0589	0.5922	24.7010	34.1762	31.7595	-14.2494	0.7482	4.1699	12.0745	-1.0925	24.9497	-10.0195	18.8620	-5.8370	3.5736
616.0137	-1.6484	22.1236	7.9870	35.7124	28.6001	44.7478	-13.4738	0.9631	-0.5132	18.9589	6.7268	34.5253	-9.9649	5.4714	-2.5782	4.1575
624.0138	-3.6618	28.5523	15.9927	40.3398	43.2904	47.3261	-11.8299	7.7364	13.7426	26.8501	16.8855	43.8230	-7.7950	30.0056	-2.6235	-0.4166
632.0140	-5.7412	15.9782	-0.8193	11.2517	33.6776	32.7875	-8.1700	8.4051	8.6536	17.1828	3.4575	21.6389	-4.4507	27.8624	-0.8026	-0.9247
640.0142	-1.6607	9.4623	-13.3375	12.5283	14.9629	27.7928	-9.5185	1.2679	-5.2415	2.0747	-4.9784	9.5155	-5.3692	12.2635	4.4173	-2.6811
648.0144	-0.5604	20.4066	-1.7607	35.4345	28.9046	39.0220	-14.2794	-0.9389	2.2568	6.2979	5.1223	26.6635	-8.4983	25.9385	6.6818	-4.0787
656.0145	-2.9422	25.6447	13.5188	39.6349	43.0589	44.0176	-14.8578	-2.9957	8.9172	14.4087	5.3295	40.0011	-9.7603	25.0845	7.7767	-8.8067
664.0147	-4.7602	17.3787	0.7203	23.6760	37.9810	30.9622	-11.2239	-3.2983	7.6985	5.1588	-1.8772	24.5952	-6.7245	29.2219	9.2910	-16.3409
672.0149	-4.3095	2.4996	-19.9506	3.4849	13.1610	10.1845	-13.3596	-4.0001	-1.6936	-13.9891	-17.8841	-2.8797	-3.9285	26.1516	11.2566	-14.0049
680.0151	-4.7794	13.9059	7.8378	31.9796	17.8713	21.0264	-19.6840	-0.9360	6.7048	-3.7678	-16.8060	23.1504	-5.9889	25.4517	11.7598	-17.7599
688.0153	-9.3875	33.3212	28.9771	49.0997	54.6201	39.2009	-16.7906	17.6524	34.0104	27.2078	11.9101	54.5191	-2.5048	65.0417	6.0401	-27.2307
696.0154	-9.8778	12.2957	-2.7147	11.0928	34.3469	10.5419	-8.1352	23.9052	20.5154	10.2264	-3.8936	18.0767	2.9543	55.5812	9.0132	-25.8014
704.0156	-5.0116	-1.0469	-13.4372	6.6306	4.9723	-1.3154	-10.1170	15.5100	-3.7977	-12.2236	-30.4916	1.1373	-0.5107	17.3947	19.2716	-17.5382
712.0158	-3.7747	11.4699	-4.1026	13.7729	18.7285	20.9516	-8.8649	22.3427	5.7635	10.3232	-5.9656	17.8371	1.0740	29.7345	13.1071	-14.1441
720.0160	-1.7685	5.1593	-8.6263	4.6358	12.1632	5.0639	0.7370	25.1884	6.7713	6.3003	0.9362	6.9904	5.2840	30.5551	13.0206	-14.8090
728.0161	1.1253	-7.8197	-13.3312	-2.0588	-0.1079	-25.6554	0.5459	17.6223	-1.1602	-16.9187	-13.0048	-10.3697	3.5560	19.5528	22.5172	-6.9948
736.0163	-0.9413	-11.2269	-21.7725	-22.1639	-3.1681	-20.8644	-0.1919	13.9292	-1.5633	-15.4246	-16.0333	-20.4836	4.9633	21.3612	17.5417	-4.5721
744.0165	-0.8332	-4.7068	-10.4870	-9.3219	-1.8822	-0.1881	-0.8475	4.9018	-4.0489	-13.6024	-23.5571	-7.3792	1.1531	9.7796	19.3771	-9.0184
752.0167	0.8194	-0.6804	2.8982	3.3684	12.1467	-5.8169	1.4234	5.4232	-0.8113	-9.9321	-15.6506	4.9264	-1.0362	6.2906	24.1816	-7.0182
760.0169	-0.0913	-3.0286	-3.5886	-10.5276	2.5407	-8.3497	5.9934	14.6092	6.3268	-3.5914	-5.8274	-4.0949	6.6733	20.7207	17.1144	-12.8822
768.0170	-2.4849	6.9812	4.6662	0.0051	-0.4511	16.3817	-2.0946	13.2755	14.6428	6.9288	-2.5802	7.7241	7.3718	33.6739	8.3762	-19.7933
776.0172	-5.0232	-0.4025	-4.8284	-18.5429	5.5509	-0.2477	2.9473	14.8547	11.1025	10.8227	1.8035	-2.4583	8.9364	21.4398	1.5357	-20.3208
784.0174	-1.0466	-16.1943	-20.6933	-32.2113	-19.7347	-22.2906	9.0375	13.4181	-7.0164	-8.4806	-14.2469	-25.3427	10.0002	-5.2294	8.6536	-16.1325
792.0176	1.3255	-5.3785	-3.5318	-5.9033	-17.0856	-1.2588	2.3238	8.4796	-6.2401	-6.6832	-16.7842	-5.8488	3.7759	-6.1701	11.7353	-6.8442
800.0177	-3.2304	-2.3878	-0.6814	-17.4452	6.1508	-2.5996	11.0136	13.2204	5.4371	9.8371	-0.1018	-1.1593	6.5318	4.1335	2.3096	-11.7345
808.0179	-3.1591	-5.2701	-3.6545	-27.9592	1.5475	-7.5662	8.1592	8.4284	8.5185	6.5660	1.3220	-9.1608	9.2391	11.1320	3.0298	-16.6273
816.0181	-1.1097	-4.8940	-1.5617	-23.8708	-11.4406	-1.9565	0.6734	0.1434	5.9180	1.6867	-1.8193	-11.0767	7.4921	7.8279	1.0945	-10.5663
824.0183	0.2864	-11.9040	-11.8246	-27.1441	-24.6198	-9.0368	8.0097	5.4254	-6.6404	-2.4183	-8.1461	-19.6786	8.1525	-13.5131	0.0007	-8.8449
832.0185	1.8259	-9.9272	-11.5745	-19.0010	-21.3773	-6.4023	6.7136	11.7181	-11.6889	-0.5469	-9.6111	-13.6669	6.0342	-19.3750	4.9769	-3.2702
840.0186	0.8281	-5.8730	-2.4677	-17.7620	-11.7858	-2.1523	10.6500	14.3693	-3.5016	6.2095	-4.0481	-6.3921	6.2386	-10.2231	3.2882	0.1705
848.0188	2.3862	-1.9883	4.8570	-13.0067	-16.3904	4.6489	12.4742	18.9866	3.4488	10.2791	2.0490	-1.8128	8.8423	1.3889	3.2867	1.4225
856.0190	5.1379	-13.1322	-14.6844	-33.5523	-32.1304	-12.8772	11.1225	21.9950	-3.9137	0.9325	2.1096	-24.9476	11.7407	1.5128	3.8208	12.7225
864.0192	6.1355	-31.0648	-30.4666	-48.7785	-45.8689	-39.1625	18.3042	9.9521	-23.0495	-27.2844	-25.0416	-49.5117	6.9899	-27.6815	10.3361	22.7065
872.0193	4.7487	-8.4381	8.5046	-6.2112	-12.2215	-6.9517	16.7525	-0.7430	-9.5067	-12.5636	-17.9672	-5.5615	-2.4127	-24.0931	11.1730	20.5413
880.0195	1.8737	4.8435	18.6754	-12.1682	15.1745	5.3786	20.6852	4.3724	15.5841	20.3529	26.5777	8.6659	5.1604	6.7991	-4.9734	7.2196
888.0197	4.1527	-14.0774	-8.6015	-38.7356	-14.9156	-17.4764	21.9000	-2.2585	-2.5335	-0.9421	11.2091	-25.2038	8.1422	-14.0358	-2.9861	6.1366
896.0199	6.6539	-14.1256	-5.8476	-20.6846	-25.6558	-9.9457	13.5844	-12.2866	-17.1569	-15.0725	-10.5753	-20.9997	-0.0588	-36.1246	4.5020	14.6572
904.0201	5.5623	-12.1194	-7.7210	-26.1868	-21.6143	-11.1402	12.9889	-14.0205	-7.3209	-9.4070	5.0962	-23.4955	3.8815	-19.0582	-2.3613	6.3451
912.0202	4.9034	-11.4135	-10.4554	-21.7794	-24.4452	-5.8572	7.1490	-22.3210	-9.4591	-16.3371	-2.3407	-24.4309	1.7096	-17.9578	-1.3201	1.2942
920.0204	2.4494	3.8717	7.9906	4.3140	-1.1663	14.8174	0.9925	-22.4349	-1.5346	-0.7200	6.1830	3.5953	-3.4328	-13.0230	-5.1716	-0.8694
928.0206	-1.5398	16.5407	22.5853	13.1227	17.5819	16.7725	-8.7824	-18.1073	24.5403	21.3460	38.4214	19.2290	2.1570	23.5062	-18.2959	-16.8392
936.0208	-4.8565	15.3530	18.7836	11.5141	13.0727	14.5767	-17.5810	-16.1517	26.2363	18.7686	29.7233	16.1532	2.7402	31.5175	-20.3598	-21.4941
944.0209	-4.8866	3.6263	-0.0548	-1.5645	3.3094	0.7138	-10.3495	-5.9050	10.5059	8.6545	12.1538	0.5779	2.4568	13.6995	-15.4673	-13.9003
952.0211	-2.2282	-4.6173	-14.1869	-9.9494	-8.5714	-14.3450	-10.2530	-3.5866	2.1881	-0.5922	10.7081	-14.4735	3.7483	8.2081	-13.0637	-8.6552
960.0213	-1.2043	-16.9538	-30.7351	-24.4475	-26.3941	-23.7464	-12.2294	-13.9458	-16.2027	-17.9562	-10.0095	-34.2569	0.4253	-17.5999	-11.2199	-0.7580
968.0215	-1.5057	-19.3475	-29.0631	-24.4057	-22.5677	-27.0212	-13.6756	-23.7574	-22.3808	-24.4187	-19.3747	-34.6748	-4.3468	-32.3323	-9.0064	3.5100
976.0216	-3.7767	0.3800	0.4001	4.0571	11.7781	-12.1836	-19.3394	-20.4837	1.6692	-4.3186	3.3510	-0.8440	-6.2596	-1.4519	-10.4253	-1.2504
984.0218	-5.8293	1.9599	0.9315	4.0683	16.2634	-17.5055	-18.2519	-7.5586	9.4306	3.9122	11.3422	1.9299	-2.1432	12.0750	-13.1819	-6.7668
992.0220	-5.5573	-13.5241	-22.6540	-20.1182	-7.5392	-37.9786	-19.4978	-9.0118	-3.3129	-9.9408	0.2394	-26.1764	1.2997	-1.1554	-14.9730	-7.6902
1000.0222	-2.5267	-35.9250	-51.5103	-51.9423	-37.1319	-58.5363	-12.9142	-24.3508	-27.0049	-41.8286	-28.0179	-65.0369	0.0059	-29.3355	-8.2927	1.7549
1008.0224	3.3016	-39.4438	-45.1508	-35.8231	-49.9216	-59.3915	-11.4240	-37.3164	-41.8003	-63.1150	-48.6864	-64.9362	-8.1707	-54.4090	4.2743	16.9593
1016.0225	1.7986	-6.9561	2.2620	10.5791	-6.3109	-23.3652	-21.7951	-32.6180	-13.1954	-23.2404	-11.5319	-8.1554	-11.6761	-28.5553	-2.5293	12.7260
1024.0227	-1.3880	-19.0755	-20.5436	-28.8863	-10.0820	-45.5502	-13.7554	-21.9557	-9.6879	-18.5050	-0.8660	-33.5172	-0.9848	-18.2497	-9.6966	1.9945
1032.0229	3.9186	-37.8492	-40.6413	-36.1866	-47.2312	-67.5144	-14.0900	-32.3147	-34.1186	-55.7002	-34.0270	-62.9383	-4.5136	-44.9028	2.2606	14.1184
1040.0231	0.9319	-1.6967	7.3012	5.5893	2.4860	-9.1652	-22.4252	-34.8445	-6.6354	-14.6921	-6.1014	-2.4662	-11.2728	-18.9190	-3.5022	13.3097
1048.0232	-6.9658	-5.3404	-5.6981	-27.4922	14.7399	-17.1376	-12.9094	-21.8885	6.8121	3.2686	9.0877	-13.1681	-0.6656	0.8683	-17.1050	-6.3896
1056.0234	-1.7544	-17.7512	-11.4568	-4.4421	-20.7084	-44.8536	-12.8118	-21.6622	-13.6895	-26.9336	-15.5919	-25.0687	-4.2032	-29.4749	-9.3029	-2.0546
1064.0236	1.4631	5.6963	24.5803	37.2006	0.2422	-16.0985	-16.3732	-16.3031	1.6201	-1.0064	11.5637	16.9293	-6.9410	-19.3583	-10.6074	0.5031
1072.0238	-3.6069	-7.6673	0.0106	-11.4182	-3.6661	-34.8482	-8.7014	-9.8621	6.2850	3.2744	17.8619	-12.1764	3.9107	-7.3399	-19.9776	-11.0651
1080.0240	-2.0743	-17.3249	-9.1809	-24.2963	-20.1972	-34.6508	-7.9297	-16.6586	-10.5596	-12.5015	-9.6398	-25.2156	0.9701	-31.4323	-10.0055	-4.2364
1088.0241	-0.8017	-0.3131	8.9376	-5.9930	-3.0653	-1.4255	-11.9509	-14.6202	-0.1114	4.2621	1.8927	0.6941	-1.0557	-14.7938	-6.1781	-2.1978
1096.0243	-3.8654	2.0715	6.8551	15.4040	1.9165	-11.8636	-8.8845	-8.3038	6.8596	-1.0242	5.5418	4.4733	-1.2298	2.6190	-12.5438	-12.5601
1104.0245	-1.5200	4.3026	11.8093	28.5435	-1.4243	-2.4662	-4.7358	-7.6367	-0.6217	-3.0721	-2.1958	12.3999	-4.1650	-12.2164	-6.8753	-10.4264
1112.0247	-0.0715	-5.8084	-9.4422	-18.2669	-19.4973	5.6494	0.1539	-4.4209	-7.5462	0.6394	-5.5279	-12.3959	3.8936	-15.2569	-4.7758	-7.1462
1120.0248	0.5016	-20.1382	-27.6062	-30.6223	-36.2200	-11.1565	9.9048	-4.7406	-24.3534	-18.0738	-26.3824	-32.9882	2.7654	-37.6862	-1.7624	-2.0520
1128.0250	4.1990	-11.2481	-8.5900	-5.9857	-28.3844	3.7491	7.7062	-12.5320	-26.3354	-18.4655	-28.9340	-13.3170	-4.0503	-47.8165	7.0374	5.1733
1136.0252	3.0592	2.6220	8.9500	0.6687	-14.8315	20.5328	-1.9402	-14.2671	-3.7439	-0.8441	-5.3628	2.7045	-0.8962	-13.5522	0.9657	-0.4526
1144.0254	0.8530	6.1706	14.5371	3.3170	-3.4739	13.7190	-1.0561	-3.8887	5.9902	12.1209	9.8446	9.9730	2.2876	-3.3145	-5.0842	-5.2816
1152.0256	-0.0518	-5.5607	-3.7301	-21.4054	-14.3711	3.3479	2.1676	0.0405	-3.4788	2.4298	-6.2694	-10.0300	4.2052	-9.7312	-0.8104	-1.0660
1160.0257	0.4328	3.1250	7.5033	1.0881	-10.4117	25.7563	4.5573	-3.5777	-2.6941	-0.6234	-15.7707	5.2466	-1.6187	-6.4768	2.4994	4.4469
1168.0259	4.0669	29.1419	41.8629	42.1679	13.6998	59.0145	6.1242	8.4029	13.5666	36.2935	24.0619	50.6872	-1.2273	2.1949	-2.5832	1.1720
1176.0261	2.6761	12.5631	14.1410	2.3578	-7.1822	34.9400	11.0230	16.7777	9.0072	32.8577	25.4328	17.7401	8.7598	2.1423	-9.4746	-4.6531
1184.0263	2.6255	-8.1715	-6.6301	-14.4341	-24.8518	9.7841	17.8059	0.3417	-14.5960	-3.9854	-14.2306	-11.7293	1.6323	-29.9404	-1.8424	7.1814
1192.0264	5.1941	-2.0296	3.8754	-3.3138	-16.6932	18.7133	17.7951	-7.7645	-14.0181	1.0850	-3.9921	-0.9919	-1.8864	-36.6751	-3.1062	12.7616
1200.0266	1.1743	1.9073	2.8599	-4.7922	-11.9985	22.7570	18.7023	-0.7451	-1.5352	9.8618	5.7550	0.6533	2.1509	-13.1588	-13.1046	5.0683
1208.0268	0.4282	6.7790	11.5292	5.4412	-0.7008	27.7325	13.6657	-0.9503	-1.1827	13.4479	3.1436	12.4630	-1.7107	-15.8435	-9.8419	7.9943
1216.0270	2.2531	-3.1053	-2.3426	-17.1513	-15.9005	11.9211	9.2314	-2.3665	-9.1763	13.0708	8.3737	-6.1361	2.6312	-29.8812	-13.4266	8.2718
1224.0271	0.2919	-9.0685	-6.4135	-12.0835	-19.9580	0.1117	13.6347	-4.6208	-15.3353	-1.0475	-8.3003	-11.7566	-0.8964	-39.0718	-13.5783	9.6811
1232.0273	-0.8340	2.8635	12.9684	10.5764	-1.4617	12.3793	6.9109	-8.3183	-4.3223	3.8335	-4.8800	9.5716	-5.7402	-24.0927	-11.4814	11.4003
1240.0275	-2.0089	-5.6046	-4.2229	-15.7584	-20.1979	0.6549	0.7927	-8.8363	-0.4695	0.5574	-0.0440	-13.8471	2.2307	-8.3980	-18.8271	3.9357
1248.0277	-2.5993	-1.3061	3.8763	4.5714	-5.1527	2.1609	1.3516	-9.2299	-3.2608	-3.6657	-9.0605	-0.1737	-4.6207	-14.0606	-11.9359	7.4157
1256.0279	-2.2477	12.8884	21.6307	28.5624	26.8346	10.7433	3.0283	1.0530	7.0091	14.8556	11.4794	27.7253	-7.2328	-3.5673	-9.1661	8.9306
1264.0280	-0.3626	-2.7725	-2.2596	2.4404	6.2090	-13.1236	10.1686	11.0466	-3.9580	5.5119	7.1002	0.5083	-1.0480	-12.6209	-7.4217	11.0667
1272.0282	0.4970	-1.2761	3.3008	10.0436	15.6989	-12.5977	5.7972	8.2524	-6.6510	-1.2311	-3.7395	6.6589	-6.8184	-13.7152	3.1095	21.5349
1280.0284	-3.9782	16.6109	22.5085	24.9418	43.2562	4.6795	-4.2562	11.2807	19.0845	22.9960	23.0616	31.3881	-5.1134	23.8927	-7.0414	11.4095
1288.0286	-5.8515	16.0390	23.1952	26.4671	36.5106	2.0059	-7.8785	15.7353	17.1806	29.6255	23.5905	33.0978	-2.9148	13.3468	-13.4341	2.6594
1296.0287	-5.1503	13.4956	24.6684	27.4068	34.9103	-3.9742	-10.5167	16.0444	12.0211	25.5269	15.3720	33.0625	-4.6207	3.3745	-7.6723	5.5801
1304.0289	-5.7990	10.4703	14.7744	15.3215	33.1065	-11.8597	-11.5885	19.5353	18.6050	22.1896	20.0154	22.0355	-0.0759	25.5734	-6.8116	1.1796
1312.0291	-5.2176	4.6709	7.2962	10.9602	26.2807	-19.0350	-12.7762	21.6159	10.8486	12.1228	5.8351	14.4479	-0.9695	19.5335	1.0313	3.8189
1320.0293	-6.1846	5.7547	13.1893	12.1315	32.3177	-16.5289	-10.6608	19.0176	13.5255	9.4898	-0.6048	17.9970	-2.9116	22.5930	4.5028	5.9602
1328.0295	-6.0883	7.8157	15.5070	11.9128	34.9821	-7.6722	-9.9345	10.3485	13.4183	9.4555	-0.8413	20.1978	-4.1265	19.6732	4.6617	2.2221
1336.0296	-3.5649	-1.8523	0.3974	-0.3230	15.0470	-10.8405	-10.1607	6.2393	-3.4985	-3.0099	-17.3218	4.3896	-4.3280	-2.5425	10.7208	3.4573
1344.0298	-2.7059	-7.7538	-10.8314	-9.3396	-0.0480	-10.9322	-8.1604	5.9595	-9.4241	-13.1038	-28.5350	-8.2582	-3.0487	-3.1346	13.3476	4.7673
1352.0300	-3.7006	6.3905	2.2550	8.1813	19.6572	16.9821	-9.6624	6.4687	-4.1042	2.3959	-21.0187	15.3944	-6.6718	1.5756	12.6683	3.4794
1360.0302	-5.7681	18.0091	7.1331	13.1232	34.3416	38.0660	-8.6961	17.5962	7.5043	23.8698	-3.0649	30.5916	-3.2937	21.0677	6.8471	-3.8576
1368.0303	-6.6033	17.2202	-1.1971	5.8781	25.3271	39.9277	-13.6198	14.5735	11.3323	23.1776	1.9901	21.9949	0.3366	34.0386	0.8407	-11.5709
1376.0305	-6.6480	9.6841	-10.2458	1.9711	13.7538	34.0021	-15.0287	3.7186	-1.2815	8.9974	-14.7292	11.1368	-2.6836	13.8849	2.2166	-13.4471
1384.0307	-5.2414	12.6470	-2.5340	15.1514	14.7144	32.0666	-8.6991	16.2428	3.6151	9.9107	-13.0480	19.2680	-1.0665	23.1927	7.9826	-13.3054
1392.0309	-4.2208	28.3768	17.4157	36.4891	29.7766	42.8010	-17.5095	24.6034	25.3244	27.4289	13.9658	41.6228	1.9023	58.7392	7.1208	-17.3913
1400.0311	-6.0788	18.8593	0.0600	13.1978	18.9847	30.5704	-17.5850	18.6031	22.7161	21.5273	13.6511	20.5590	5.9457	58.1244	0.1095	-25.0419
1408.0312	-4.7054	16.8314	1.6807	18.8388	17.5158	27.7275	-12.8959	15.9994	15.1309	17.0582	7.8247	21.8039	3.1185	40.5710	2.4662	-22.2609
1416.0314	-4.7001	38.0306	30.8634	50.7928	46.9850	53.2178	-16.9276	19.4688	29.5031	43.5496	32.0895	60.0127	0.1251	49.7297	-0.2314	-25.4221
1424.0316	-6.1293	22.3432	5.7205	16.7390	26.4717	34.5234	-5.0760	25.0721	24.2347	35.9266	27.7222	29.8213	8.9299	47.3068	-4.9471	-34.8711
1432.0318	-1.3312	4.5685	-8.1937	7.5749	-0.2225	6.1933	-0.2577	20.5027	5.8346	5.3067	2.5224	4.7333	7.0123	24.8464	7.4957	-22.4708
1440.0319	0.6565	13.1988	7.5190	27.1580	10.8125	12.5901	-4.7576	11.9465	14.2593	4.6067	10.6143	18.3756	2.6613	36.9190	9.5148	-16.3578
1448.0321	0.1899	11.3874	3.5627	17.7242	6.1218	13.0860	-3.5714	6.0272	14.9641	6.6167	16.4018	12.0604	5.1347	34.7564	3.0457	-22.6258
1456.0323	1.1543	8.9417	8.5231	24.0033	4.5604	5.6508	-6.7139	6.4367	5.8626	3.9608	6.6851	15.8054	1.4889	12.6471	7.6770	-16.7241
1464.0325	-0.6749	5.6129	2.6880	14.3294	5.5663	-5.3997	-4.1044	16.3128	13.4872	1.7609	7.3177	7.8783	5.1773	34.0558	8.0935	-15.1679
1472.0326	-0.6529	-5.1512	-14.3246	-6.9480	-7.1729	-18.8117	-4.6181	12.4736	6.3545	-8.3250	0.6142	-13.0579	7.4415	28.8145	7.7107	-15.1674
1480.0328	1.1449	-10.2272	-14.4673	-5.7288	-12.5649	-19.9274	-4.9690	2.8082	-9.1419	-19.8648	-19.0401	-15.2354	1.2016	-0.8041	15.2693	-6.9761
1488.0330	4.2191	-5.8161	-8.2305	0.8837	-13.4687	-7.4495	1.8679	6.0103	-3.6543	-22.5625	-19.1230	-10.4883	1.3236	15.3997	22.6066	1.0124
1496.0332	5.8062	-1.1850	-2.6302	6.8765	-9.7761	-2.3559	0.6689	5.7409	0.7133	-17.2352	-8.5031	-4.6187	1.1398	21.5170	20.7637	5.1032
1504.0334	2.4550	-6.7123	-4.2567	-3.8319	-5.4757	-13.0763	5.5818	2.5436	-1.2130	-18.5231	-14.3452	-10.0443	0.3230	10.0472	15.8345	4.4759
1512.0335	4.6549	-1.2739	8.7983	2.1480	1.8286	-7.0533	10.6358	4.5927	4.4227	-9.8179	-3.5615	0.8865	1.0147	11.2523	18.0303	6.6769
1520.0337	8.5511	0.5036	9.0067	6.1147	-2.4437	-7.0503	8.2662	6.2042	1.2755	-2.5602	11.4624	3.0760	2.7316	2.6735	16.5816	6.7928
1528.0339	8.1878	-19.2730	-20.0029	-27.7419	-27.2858	-28.3696	12.5378	0.0562	-13.6751	-24.4649	-8.7303	-33.1688	5.1528	-10.7381	16.5555	9.3830
1536.0341	10.0813	-22.3145	-17.5382	-32.3221	-29.4205	-28.9053	13.8620	-10.2979	-17.8514	-33.1510	-16.8937	-37.2429	1.7850	-19.3269	21.0541	19.2955
1544.0342	9.3799	-12.7841	-3.0967	-9.2250	-15.4833	-21.4137	14.0078	-10.7730	-11.5625	-25.3665	-7.5966	-18.6288	-1.3780	-16.9241	17.1653	16.8766
1552.0344	7.6102	5.4598	18.2000	26.8488	8.9871	-0.0096	15.6701	0.8312	1.9762	-8.1577	5.1857	14.6621	-4.2105	1.2243	15.5955	13.1305
1560.0346	6.4151	17.3138	30.6474	35.9661	27.9870	9.4731	15.0342	14.4189	17.3564	15.7236	30.6597	33.1572	-1.0613	21.4174	9.1179	11.7427
1568.0348	2.8726	-9.5029	-10.7174	-10.6886	-5.7924	-30.8708	13.0406	10.0463	5.7720	-9.9763	12.7248	-18.7329	5.5785	18.6969	0.0400	8.1198
1576.0350	4.5911	-8.6433	-4.2342	13.5133	-12.3961	-26.0080	2.6189	-0.8381	-6.9974	-27.7607	-13.3650	-11.4336	-4.7279	0.5867	9.6364	18.4360
1584.0351	4.4957	20.3587	38.5767	57.7802	24.5552	6.9169	-6.5175	5.3163	15.1974	7.6650	18.0175	40.9389	-8.1148	17.9161	6.9219	14.8999
1592.0353	-0.1847	5.5961	9.7609	13.8054	10.5242	-17.7582	-7.4577	4.1526	19.7769	4.6681	25.9841	5.7329	2.7205	33.7599	-6.9438	-0.8834
1600.0355	1.3113	-19.5631	-27.5725	-17.3037	-22.6137	-43.0894	-4.8132	-0.8688	-9.1516	-30.1529	-12.8511	-35.8734	1.3647	5.2678	2.8958	8.6177
1608.0357	3.8432	-18.0066	-19.8840	-2.7749	-25.3340	-37.5292	-3.3709	1.1837	-16.1732	-35.6181	-25.6695	-27.5204	-3.1000	-6.8639	12.0488	17.8643
1616.0358	5.0499	7.8364	18.1182	35.3786	-0.3129	-2.1497	-8.8772	-4.1066	3.3565	-6.1311	6.4404	15.5261	-5.4546	4.7687	4.5893	10.4595
1624.0360	2.8165	22.2055	31.1669	41.2777	21.6498	15.7132	-7.7382	7.4718	19.6630	26.3402	38.2559	37.2834	-0.4385	20.4510	-5.9965	-0.9601
1632.0362	-2.6726	-5.6994	-9.6031	-10.2998	-0.2795	-30.0202	0.1917	17.1826	10.9111	4.2235	16.3619	-11.5499	8.2105	22.7323	-7.8938	-6.8409
1640.0364	0.5155	-22.4745	-27.3839	-16.6505	-23.2707	-45.0400	5.2376	2.1729	-15.8357	-30.4119	-20.5105	-34.7976	0.7164	-13.3461	3.0573	5.9227
1648.0366	5.1028	-17.7077	-24.2673	-17.1519	-21.5499	-22.6481	10.4282	-1.1962	-21.4285	-24.1501	-16.1434	-28.6567	-1.6653	-23.4018	7.0846	18.6141
1656.0367	3.8955	-22.2416	-32.3055	-48.4519	-19.7198	-27.4554	4.8980	-8.6885	-14.4429	-22.0027	-8.7026	-43.7783	2.8511	-8.3609	5.3493	17.5321
1664.0369	2.3748	-24.6010	-28.8416	-37.4078	-19.5286	-36.4603	0.4109	-20.0314	-20.4191	-32.9954	-21.5739	-42.2490	-2.2500	-24.3490	6.1732	12.1966
1672.0371	2.7366	-17.8019	-13.9189	-6.2576	-17.9413	-35.4634	8.2434	-9.9964	-15.7236	-30.5173	-18.5372	-24.8687	-3.2059	-23.2798	4.7011	8.4844
1680.0373	5.4048	1.6993	11.7085	10.6088	-1.3788	-2.4420	4.0498	-8.8214	2.0593	-6.6900	6.5047	3.6192	-1.7750	-0.8694	6.1837	6.8518
1688.0374	0.6506	5.9770	7.1129	-14.7861	7.9636	20.4527	0.8341	-8.3511	8.0370	13.8607	13.0059	4.7548	3.3611	6.4455	0.0936	-6.7678
1696.0376	-3.3220	-13.7166	-21.6693	-36.0690	-11.6032	-17.6462	8.5911	-0.2497	-0.2351	-6.4436	-3.3484	-27.5054	8.5196	3.7280	-4.0977	-16.3220
1704.0378	2.7302	-23.5523	-31.2184	-22.3267	-31.9348	-39.8496	5.3024	-8.9255	-18.5216	-33.1468	-17.0151	-40.3482	3.3010	-19.0293	4.7608	-7.6552
1712.0380	4.5645	-29.8688	-41.2157	-42.2177	-46.6391	-28.4650	3.0816	-21.8251	-33.2197	-39.5047	-32.4122	-52.7731	1.8492	-42.5311	8.6190	-3.9134
1720.0381	6.3054	-20.5338	-25.4706	-23.0231	-40.7478	-9.4919	3.6319	-33.5089	-26.7489	-42.6829	-32.9217	-38.6114	-2.3712	-33.3967	12.6211	-3.2710
1728.0383	2.6026	-3.5312	-7.7946	5.8425	-15.4665	13.5942	5.1695	-28.5401	-10.5701	-29.3227	-23.2096	-10.7497	-5.4367	-8.1200	8.1337	-8.6686
1736.0385	-5.8392	-12.3003	-20.3166	-31.5869	-12.9934	5.8900	14.4651	-7.0794	-4.9812	-19.6664	-35.2006	-24.1971	2.4411	3.2013	3.6631	-12.7145
1744.0387	0.9025	-9.5987	-4.9032	-8.2093	-17.9162	-2.3118	7.3091	-11.8571	-5.4929	-30.0703	-34.0425	-15.8040	-1.3199	1.6566	16.1659	-2.5687
1752.0389	1.5946	6.5840	8.6769	23.1449	-0.7310	18.9776	1.5558	-16.0085	0.4604	-14.9359	-13.1529	9.7193	-4.9545	5.2526	9.6401	-10.2392
1760.0390	-2.7656	14.3373	13.4178	9.9220	17.5939	37.1370	10.1534	0.0342	10.5957	16.4507	4.7854	22.4379	1.3074	11.0245	0.6943	-19.6324
1768.0392	3.6893	17.1945	24.3771	18.6935	13.2553	32.7014	9.2226	1.8649	13.3762	20.0935	21.1251	27.9859	3.5342	10.9202	6.6685	-15.3980
1776.0394	1.8617	3.2987	-0.2643	-14.1159	1.2272	19.9374	15.2538	2.7866	3.8579	12.2027	10.8959	1.9375	7.7648	2.6493	5.2922	-18.6968
1784.0396	2.5516	-5.5163	-14.2987	-37.0619	-2.2301	17.4879	17.7346	4.0497	-10.3067	8.3837	-2.8770	-10.9035	6.8769	-16.7819	12.2438	-9.3382
1792.0397	9.2728	-6.0075	-9.5650	-12.2976	-11.1625	2.6964	13.7901	-0.0347	-18.9072	-0.9125	4.3907	-7.7937	3.0177	-33.5071	15.6469	-1.5008
1800.0399	7.7407	-6.4663	-11.3869	-13.0595	-9.5931	1.6579	20.7028	4.4925	-14.9204	-1.9278	3.8470	-9.3762	4.2610	-24.2540	13.5024	-2.3457
1808.0401	4.7695	-0.4526	-5.3235	-16.3173	3.9130	21.0969	15.6307	-1.3677	-7.7564	-0.9722	-5.6085	-2.6136	-0.0353	-6.6693	15.8947	7.2801
1816.0403	0.5966	-3.7104	-3.1138	-5.5691	6.0511	1.6625	13.1373	-5.1285	-6.5997	-9.1156	-12.0448	-3.2996	-3.0066	-10.5243	8.1718	2.7780
1824.0405	0.7937	8.3593	18.4995	27.2644	15.1479	1.8142	7.3632	2.9997	6.5133	2.8578	5.4071	20.5423	-2.3779	1.9559	5.2613	-6.1591
1832.0406	-0.5539	19.9957	27.7045	38.5398	16.3063	24.5828	-8.7881	-7.9652	18.0238	11.1011	15.7223	31.5465	-3.0383	22.2547	-3.4587	-12.2096
1840.0408	-7.6100	10.3601	15.6911	20.2816	15.3177	12.8251	-2.1852	-15.6239	15.0734	3.2397	0.9776	16.5442	-2.8838	12.9783	-13.8105	-23.1691
1848.0410	-6.1798	23.7067	33.8540	41.5730	34.2914	21.7271	-3.8476	0.1657	28.0770	21.3458	20.1873	41.1107	-1.7355	31.8543	-9.2015	-22.4607
1856.0412	-7.3631	21.4879	23.9912	32.9642	21.8899	21.0581	-10.5844	9.5721	29.7094	22.7920	19.0634	32.7186	2.6502	44.8370	-12.2521	-23.5704
1864.0413	-9.0260	5.0993	8.0445	10.9972	7.3996	0.5342	-4.2864	8.6897	12.5514	8.1559	-5.9688	11.8359	2.6101	14.6748	-8.7570	-24.0536
1872.0415	-4.2512	13.2715	17.3370	23.2068	13.3287	6.4856	-7.2571	13.3214	17.1784	20.8817	17.1371	24.0772	3.8352	19.5749	-7.5311	-20.0898
1880.0417	-4.3064	-1.8122	-3.2982	1.2407	-9.7981	-16.1257	-2.5461	14.7741	10.0638	5.8954	8.2658	-3.9427	7.9846	16.1666	-11.6350	-17.4810
1888.0419	-3.2654	-6.8249	2.4244	5.5225	-4.8429	-27.9010	-3.3219	6.2799	-0.2712	-8.0354	-11.1442	-3.2484	0.2455	-5.8071	-0.8104	-5.1373
1896.0421	-4.1095	14.3086	23.3548	28.2309	24.8287	2.2493	-6.1240	8.4616	18.6677	18.1199	17.9202	27.7523	-1.1473	19.6281	-8.0651	-6.3876
1904.0422	-7.1012	9.1171	8.6955	11.2006	15.6290	-2.4105	1.3713	18.0534	22.0570	21.2960	22.0106	14.0796	6.0126	30.5498	-17.4862	-15.5335
1912.0424	-5.8758	1.6445	2.3725	7.4547	6.7290	-17.8774	-6.6180	14.2267	9.8844	13.1600	12.9055	5.6316	3.8076	9.2065	-14.5172	-11.8719
1920.0426	-5.8844	-1.4200	-1.8589	5.4237	2.1708	-16.9586	-3.8686	10.8403	3.3697	7.8071	4.5792	1.3128	1.6179	-1.1079	-15.3483	-7.3578
1928.0428	-3.4251	-6.2631	-7.4869	2.8510	-7.7870	-21.9731	3.1874	13.8014	1.8651	-5.5261	-4.2077	-8.3015	2.1495	7.3317	-8.1717	0.8560
1936.0429	-0.7347	-3.7801	-6.5184	5.7516	-14.0204	-16.4846	-1.2275	9.3768	5.4274	-7.5284	2.5278	-9.7118	2.4530	18.8295	-8.9016	6.2239
1944.0431	0.9979	-1.0372	3.9179	15.9230	-18.6510	-6.3598	-2.7364	0.9290	1.1341	-9.0200	-3.5900	-2.3186	-1.5894	3.9471	-8.4223	11.8408
1952.0433	-1.7027	0.1268	11.4323	20.1064	-2.2697	-22.1782	-12.4243	0.3474	3.7541	-1.3930	3.9843	5.3976	-3.7199	-2.9303	-12.0002	9.6430
1960.0435	-9.4265	-16.1994	-16.1287	-25.4144	-0.5591	-49.0734	-7.0000	3.3614	1.7785	-2.2651	-0.0197	-24.0775	2.6827	-4.3187	-22.7002	-1.4386
1968.0436	-3.1656	-19.9452	-10.5774	-11.6445	-11.9026	-50.9293	-2.5517	-2.8172	-10.1637	-24.6041	-22.1765	-24.5430	-3.5871	-19.2064	-3.8740	13.4984
1976.0438	2.0642	3.0543	25.2463	41.9515	8.1381	-39.9988	-18.7220	-7.8538	6.7265	-6.8954	15.8981	14.6341	-8.1254	-4.6010	-7.3615	13.9588
1984.0440	-5.2550	-0.4097	7.2978	-0.4669	9.3118	-36.0117	-20.5346	-6.5553	12.8807	18.3264	35.9737	-0.2603	2.3421	-2.0899	-30.8929	-6.4457
1992.0442	-4.3656	-10.4563	-11.5707	-18.5112	-6.0068	-30.5367	-18.5959	-4.3550	-6.4419	3.8326	4.7738	-15.9865	0.0450	-19.8616	-18.4856	3.6527
2000.0444	-0.5065	4.3008	4.1355	17.1717	11.7215	-15.3896	-15.0020	2.6593	2.6989	9.0060	19.6878	8.4513	-3.9333	0.4419	-12.3492	11.4508
2008.0445	1.1398	9.5012	7.1876	7.4930	19.5360	-5.0262	-11.3526	-0.7705	11.9565	23.3103	44.0513	10.6416	0.1919	11.1096	-18.0732	8.8241
2016.0447	2.2039	-0.4619	-7.9705	2.1507	3.3155	-14.2159	-12.6432	-11.0402	-3.7424	4.9182	26.8887	-5.9827	-3.4408	-8.7732	-17.6278	13.8119
2024.0449	-0.5939	3.7989	-5.1455	14.5861	11.8310	-0.6660	-6.4339	-10.2661	-4.6020	2.9112	14.8993	3.3014	-8.1348	-8.4892	-17.9280	15.3708
2032.0451	-0.8056	7.6503	3.2134	2.7131	19.8486	12.9572	-7.8414	-11.5375	1.3796	12.1984	16.2450	8.6263	-7.1196	-2.1184	-13.6420	18.7099
2040.0452	1.5937	-8.3817	-15.1915	-14.0798	-6.8866	-11.6869	-4.3246	-16.4651	-8.2289	-12.3222	1.7881	-20.2352	-4.7278	-7.5192	-10.1165	21.6573
2048.0454	2.1470	-2.4103	-8.5889	-7.4729	-3.2520	5.7608	-3.0514	-21.5300	-4.1388	-12.5527	-0.1503	-12.9007	-6.7171	1.6559	-7.5860	23.6053
2056.0456	-1.0147	6.6863	2.9142	-12.6146	17.6591	24.7051	-9.4371	-25.4430	1.1475	9.7512	10.0952	3.2323	-7.5307	-3.5430	-12.1890	18.0304
2064.0458	-0.3682	-13.7626	-20.9487	-34.5152	-9.7565	-2.9846	0.9278	-23.6269	-19.3493	-10.7227	-12.5149	-26.3515	-4.9738	-34.4668	-9.4533	15.9436
2072.0460	2.3248	-7.5398	-7.4797	-15.7070	-15.0269	13.4400	-3.3675	-24.9889	-20.2660	-15.2224	-24.4169	-13.8759	-9.2967	-33.9302	-0.6433	25.1072
2080.0461	-4.5591	11.8764	19.0636	4.1266	14.6786	36.7155	-12.1971	-20.5776	1.5975	14.5238	-6.5005	19.8034	-9.4196	-13.7165	-12.3196	10.9495
2088.0463	-7.1432	11.5970	14.9365	-4.5917	11.0150	33.1672	-10.5214	-12.7083	12.7652	19.5696	2.0060	14.6313	-1.7259	8.2363	-17.0113	-4.4451
2096.0465	-3.3185	10.6427	13.6990	-3.7162	-6.3172	39.4268	-17.5522	-20.0732	9.8626	9.2519	-4.6064	8.6477	-2.0410	11.7632	-11.3528	0.5118
2104.0467	-1.6898	7.8336	17.1616	-2.2222	-9.8564	43.4939	-15.3866	-25.1397	-4.4932	5.2099	-20.9567	11.6371	-6.6460	-20.4155	-4.0418	5.1415
2112.0468	0.2199	20.3121	27.2697	-2.3961	1.6131	70.5783	-21.5272	-19.0943	5.6295	25.4913	-4.4924	27.3056	-4.0202	-1.7750	0.1848	6.5346
2120.0470	-5.3051	30.4720	27.4878	-2.0658	12.3218	87.5403	-27.3397	-13.8171	21.1447	46.1706	14.9930	36.1660	0.4514	24.4014	-16.3307	-7.4821
2128.0472	-6.6505	22.4308	21.6707	12.0941	12.4492	67.7426	-13.2570	-5.5527	6.2036	31.7090	-6.2835	35.2206	-3.8224	-2.8159	-10.3886	-10.5085
2136.0474	0.3007	21.2558	15.3750	20.2146	6.9383	63.2386	-12.0828	1.7553	1.0600	20.3800	-5.8672	31.4721	-4.7167	6.0833	4.7910	3.4755
2144.0476	-1.3971	11.7101	-6.3123	-10.0413	-9.2135	56.2399	-12.3632	0.7656	-1.2216	19.6466	-2.8008	7.3842	1.8997	8.9459	-5.1853	-2.2941
2152.0477	-1.3638	7.7288	0.7134	-12.8100	-5.0948	47.5629	-3.1832	4.2699	-5.6853	17.9822	-13.1169	10.0034	1.0853	-8.7418	2.8765	-1.4828
2160.0479	4.3473	14.3486	12.4891	-4.6665	5.4997	56.3880	5.0006	10.5872	0.5531	21.2107	-3.0962	21.2495	1.2552	4.8873	17.1663	8.7820
2168.0481	6.5767	11.1951	3.8125	-18.4379	-0.5781	55.2448	4.4612	4.8634	-1.6927	21.3009	5.2572	11.1213	4.5202	3.1267	16.9185	4.1674
2176.0483	6.1883	16.9338	14.6521	-0.7896	11.3784	45.9910	-5.2318	1.7492	3.8913	28.2330	20.6747	23.5312	3.1951	2.8811	12.8927	-4.1559
2184.0484	3.5454	12.9797	6.8032	-4.9227	13.3266	38.1529	-1.3959	4.8658	0.1011	27.2949	16.9720	18.8759	3.2648	-3.9091	8.9775	-8.1327
2192.0486	2.8526	-0.4787	-16.6694	-34.9798	-0.1524	33.4777	0.7772	0.6665	-15.1508	13.1272	-5.6607	-5.5347	3.3292	-17.9954	14.3205	-3.8486
2200.0488	3.5494	0.9581	-17.1033	-22.5663	-4.4603	28.1082	-4.7129	1.3396	-10.6549	6.0467	-3.4213	-6.1708	2.7353	-1.8181	13.2878	-1.5890
2208.0490	3.1119	-0.2500	-12.6264	-5.5584	-10.6412	18.9845	-0.3862	6.3250	-11.7920	-1.5664	-11.2327	-3.2271	0.9145	-5.3650	11.8403	0.1541
2216.0492	3.1608	-5.1575	-14.8520	-15.2252	-5.6084	8.4609	6.4109	4.9532	-11.7364	-8.1255	-15.0950	-9.9204	0.5634	-4.4952	16.4897	4.6440
2224.0493	4.0299	-12.6326	-28.3270	-30.5525	-13.3021	-0.1609	13.5439	3.6995	-12.8472	-19.0442	-18.0566	-26.8679	3.2885	3.6853	18.7188	5.2952
2232.0495	6.1026	-16.1339	-32.0995	-30.5793	-25.3884	7.6134	13.0706	2.0311	-25.6307	-29.6943	-39.6649	-30.1814	-0.2282	-11.8496	28.4125	13.5733
2240.0497	6.3169	-16.7119	-32.6705	-29.2341	-17.5207	4.9011	14.2738	-6.8207	-27.6503	-34.9026	-40.1327	-30.8608	-3.9182	-15.8108	28.9850	17.0249
2248.0499	6.5697	-21.3254	-30.1425	-19.8776	-18.6846	-14.2740	19.1728	-12.2843	-31.4881	-43.6921	-41.0268	-33.1486	-6.6404	-30.7345	25.2109	17.6335
2256.0500	5.7693	-6.3647	-2.3029	9.4373	-1.0697	-8.0619	13.6111	3.4490	-14.6882	-23.2516	-23.9211	-2.7806	-6.6342	-13.6234	23.4186	19.3214
2264.0502	1.0143	-2.0463	-4.4531	-4.6513	6.6610	-2.3647	13.8361	11.7805	3.7735	-8.1485	-7.1773	-3.6379	1.3595	20.0869	13.4030	6.2084
2272.0504	0.2252	-14.0411	-11.8007	-17.5878	-14.4879	-12.5787	11.2984	-1.5507	-8.5479	-27.7829	-34.2077	-21.0220	-0.6768	-1.3826	15.8706	6.1257
2280.0506	1.2111	1.9811	13.0303	13.9277	6.5631	-3.0819	10.0585	5.0888	8.3285	-11.7511	-10.5822	7.2375	-2.1731	18.6739	13.1800	8.1435
2288.0507	0.0700	7.9702	3.8145	4.9526	22.7661	6.6810	19.9735	15.2975	18.4338	7.8141	18.5977	9.2986	4.5428	39.1347	4.7319	-3.7924
2296.0509	-0.4385	-0.4203	-1.6139	-0.8963	14.0586	-3.0884	12.6003	8.4873	1.0411	-1.1378	-2.5313	2.5970	0.3754	4.9575	9.2494	-2.7754
2304.0511	-1.9838	2.4750	7.9992	7.8936	14.1686	-11.6978	6.1274	9.6769	9.2158	6.6615	9.9105	8.5095	1.9930	8.7468	-1.0557	-6.9643
2312.0513	-1.7860	-21.3929	-29.2425	-36.2446	-19.2301	-37.3458	14.5738	4.7026	-6.9675	-14.9574	-5.0346	-37.5002	7.9951	-5.7271	-5.7637	-6.7023
2320.0515	-0.6110	-36.2964	-38.3495	-37.5839	-34.1857	-57.4151	14.7403	-5.9717	-28.9428	-47.4255	-45.3521	-53.6580	-1.0271	-36.7460	6.9253	9.6194
2328.0516	-1.1009	4.6359	18.4793	32.3033	12.0716	-5.2105	4.1648	-2.1850	2.9848	-10.6678	-12.2309	16.8054	-8.0935	-0.7462	4.3701	5.8241
2336.0518	-2.8532	28.7848	39.9690	51.3384	32.1441	27.2357	-8.0596	7.7682	32.5633	24.9243	27.7935	47.4797	-1.6479	45.2470	-6.3924	-9.8718
2344.0520	-6.5166	2.3698	1.9736	5.7938	5.7119	-22.0907	-9.5547	9.5549	23.7840	4.2983	16.5033	-0.5671	6.7795	43.1306	-13.0348	-18.1022
2352.0522	-6.2125	-14.1869	-17.6449	-8.5921	-9.5381	-41.3576	-9.0097	-3.9047	-0.9513	-19.5207	-11.8405	-23.0020	1.5137	3.9841	-8.1484	-14.4087
2360.0523	-4.8816	-11.3108	-11.2983	7.1506	-7.1351	-33.6375	-10.9568	-6.8963	-8.9042	-23.8523	-23.6165	-12.9917	-4.3949	-10.8109	-1.1057	-9.6218
2368.0525	-7.9404	-8.3834	-6.9773	1.7820	-2.5484	-36.4791	-9.6167	7.3318	5.2391	-9.9261	-10.8613	-9.4365	2.5275	10.1587	-6.7136	-18.2552
2376.0527	-7.6424	2.2056	6.5802	15.1090	5.5381	-21.6221	-17.0775	8.4171	14.2011	2.0808	0.1097	6.9409	2.5572	21.6126	-7.2071	-21.2669
2384.0529	-5.4788	-3.9999	-4.3588	10.1035	-7.7342	-26.4619	-19.6758	-1.6425	5.8491	-12.5360	-8.3426	-6.3939	1.4492	15.4155	-4.0833	-20.8553
2392.0531	-5.1877	-19.1456	-21.4532	-22.3565	-17.2486	-40.9155	-7.0661	-2.2818	-9.2282	-19.1659	-20.6533	-28.2811	3.8015	-12.8702	-1.0527	-18.8389
2400.0532	-3.1071	-9.7997	-2.8540	-0.3807	8.3396	-38.0267	0.5668	8.5697	-6.5084	-6.2018	-9.3004	-3.5930	-0.0961	-18.9389	6.0093	-10.5913
2408.0534	-1.6772	-10.5065	-9.2990	-5.0060	2.3588	-40.3493	-0.5445	8.2946	-3.7305	-5.5851	1.6371	-10.2453	3.6405	-9.5509	3.1074	-15.2927
2416.0536	-1.1030	-12.6665	-10.0570	-13.6020	-6.1598	-35.3101	-2.7686	2.4400	-10.1006	-2.8897	-1.1128	-13.4266	3.9053	-26.8255	0.5837	-15.8300
2424.0538	-1.2513	7.6058	20.6008	26.7014	21.0777	-18.4876	-6.5855	11.9912	7.5448	16.2897	18.1914	24.2671	0.1032	-6.0937	-0.2102	-12.4519
2432.0539	-3.5197	-0.2332	1.7464	-3.5404	1.0307	-20.4017	-10.1383	9.5297	11.2889	12.8969	17.7406	0.2816	8.3915	10.8414	-7.5505	-23.3900
2440.0541	-3.2343	-12.8928	-8.6351	-9.6949	-14.7186	-38.9814	-11.0040	1.2125	-4.5295	-8.3637	-6.9372	-15.6305	5.1956	-13.9934	-1.5974	-22.4000
2448.0543	-3.6456	5.2428	16.8633	26.0940	14.9347	-23.2528	-16.6751	8.5784	7.9276	7.8671	6.5189	19.3259	0.0061	0.5362	1.5471	-19.8170
2456.0545	-4.9454	-3.2470	-3.9346	-13.1970	-8.1480	-20.3041	-20.7339	9.7484	6.8251	13.5400	9.7434	-5.3085	9.5539	5.3338	-7.9308	-26.1209
2464.0547	1.3458	-26.6493	-25.5682	-17.5742	-49.1069	-63.6406	-18.6414	5.9700	-16.9823	-27.5532	-17.9668	-40.0394	7.4314	-20.8350	1.9448	-9.9287
2472.0548	6.4167	-20.9053	-14.3882	0.5780	-37.3053	-55.4973	-16.9777	1.8056	-20.6411	-31.8293	-18.5502	-27.3342	-0.4729	-25.4404	12.6194	11.0512
2480.0550	5.2157	-14.5164	-8.5023	0.1196	-12.6226	-44.5690	-5.7246	0.7268	-16.8960	-16.3506	-2.7334	-15.7762	-2.5921	-29.8001	5.9901	14.6027
2488.0552	3.9578	-12.1061	-3.2337	0.6717	-5.3984	-42.6372	-0.3550	5.8489	-11.5944	-9.7092	1.9180	-10.6388	-2.0165	-25.0598	2.8472	17.1990
2496.0554	-0.3831	-4.8349	-0.7467	-36.4367	-7.6096	1.0471	-7.7162	5.2835	-0.1124	17.3660	4.9697	-9.4130	5.0935	-8.5182	-5.4627	14.1887
2504.0555	-2.2088	-2.8148	5.9898	-2.8225	-2.3421	-26.5290	-7.2915	10.0001	8.5022	11.7596	17.7819	-1.9198	3.9718	1.7578	-15.7787	5.1614
2512.0557	1.0663	-2.1901	12.2671	24.2386	0.8487	-45.2622	-7.1528	9.5439	5.4868	3.5396	24.2070	4.7789	-0.3246	-6.2731	-13.9833	9.0952
2520.0559	0.9977	-13.8142	-12.3087	-33.8345	-14.6540	-24.5076	-1.4460	-0.4507	-11.9269	10.0071	13.1221	-21.6318	3.5190	-35.2777	-17.0305	15.1614
2528.0561	0.4597	-31.5881	-37.2590	-38.3692	-29.5900	-67.1694	5.4684	0.2687	-23.4808	-17.2601	1.6804	-49.6898	2.9876	-43.0277	-20.1881	17.0274
2536.0562	1.8514	-25.4953	-25.7411	-54.4800	-25.9698	-31.9247	1.3020	-10.0797	-23.7499	-8.2547	-7.9037	-41.7382	0.6622	-47.3953	-11.4320	28.2504
2544.0564	3.6321	-4.6228	0.5341	-34.1411	-7.0520	17.5757	4.9363	-18.0217	-15.3383	15.6245	7.5816	-8.4798	-2.8866	-47.8662	-13.4291	27.6376
2552.0566	3.8773	3.1223	0.3514	9.5415	-1.4469	-5.6796	4.5900	-4.1029	-1.8937	18.4260	42.5428	1.7657	-0.1591	-20.2942	-28.8617	13.0013
2560.0568	6.5451	-23.8982	-17.7892	22.9277	-18.7614	-90.6150	-15.4828	-33.9852	-9.8073	-67.7452	-7.6347	-38.6202	-8.6617	0.9974	8.7820	4.1020
2568.0570	5.9328	-12.4124	2.8262	45.5351	11.8158	-78.4651	-15.1440	-30.2858	-8.5189	-55.5352	-6.7840	-9.9375	-16.3301	-7.8544	15.8350	11.9273
2576.0571	3.0319	-7.2263	2.1028	31.0116	23.0809	-73.2140	-12.9929	-16.9945	11.9986	-39.9221	12.8584	-9.5684	-7.9756	33.2072	11.2775	5.6229
2584.0573	8.7575	-19.5034	-20.2261	16.7468	-5.8995	-89.4728	-7.3885	-19.1414	4.3610	-59.1223	14.1042	-38.1105	-3.1309	36.9782	12.9625	9.6846
2592.0575	13.5003	-29.8106	-21.8562	7.2480	-21.3338	-95.0144	-13.3334	-43.5815	-18.6829	-76.7859	-7.2756	-49.8645	-11.1477	-9.7928	20.4898	25.3063
2600.0577	11.0791	-23.4308	-10.9158	6.2448	-18.6920	-70.9308	-11.2923	-40.9419	-17.8338	-60.8360	-10.6505	-36.7098	-11.1845	-20.2303	15.8837	23.9812
2608.0578	7.7778	-15.6593	-3.5896	39.2613	-5.9374	-79.0051	-8.6879	-24.7857	-3.8504	-61.6219	-5.1452	-21.8221	-11.6683	10.1953	13.1115	17.4976
2616.0580	7.1950	-21.4672	-10.2101	15.3385	-7.5095	-86.9931	-14.5709	-32.1611	-2.0668	-64.3777	-5.2479	-35.4238	-9.3589	15.5193	14.1836	18.2096
2624.0582	9.2612	-17.7419	-12.2395	-25.8165	-14.7726	-47.2264	-15.2690	-28.9134	-3.1206	-35.0456	5.1000	-37.0303	-1.1620	8.2772	13.9122	20.4831
2632.0584	7.7746	-21.5308	-16.9197	-16.1360	-9.7556	-67.6576	-10.8474	-15.9280	-3.8368	-42.6042	-0.0206	-38.5885	-2.6076	13.5493	15.6742	25.6552
2640.0586	9.8071	-32.0927	-26.5662	-31.2791	-18.6483	-83.0636	-5.5734	-27.4407	-11.4063	-58.0630	-6.6172	-56.9716	-3.8242	2.4240	16.9940	33.5750
2648.0587	16.8542	-16.1887	-12.0176	-28.6712	-18.4927	-30.5937	-2.3491	-42.2444	-11.9586	-32.4095	19.8734	-38.1473	-3.2189	-12.6450	12.5090	33.6868
2656.0589	16.3612	-12.1320	-7.7900	-5.7343	-13.6487	-28.7013	3.0279	-37.0593	-13.1048	-34.5563	17.0057	-27.4265	-6.4780	-14.4925	12.2306	32.2690
2664.0591	12.1545	-8.3800	-1.2939	-16.5651	-8.6964	-11.7428	-0.4435	-31.0136	-5.5297	-26.3685	5.2540	-21.5070	-5.1988	-0.7880	15.0509	32.8763
2672.0593	7.0244	9.8002	14.1129	-11.1103	12.4981	20.6970	-12.1760	-32.7224	13.8352	4.6193	29.1264	2.3570	-2.3177	21.5935	1.8377	14.8761
2680.0594	4.6562	-7.7924	-15.2808	-18.6489	-12.6207	-6.1985	-6.9399	-33.2245	-3.7849	-21.8164	4.7411	-25.9703	-2.0129	4.4360	-1.5078	5.8991
2688.0596	10.0733	-8.2408	-12.0906	-13.6460	-30.4437	16.9243	-1.1434	-32.3894	-19.8385	-30.3955	-20.5271	-22.6943	-6.0412	-18.4246	14.0139	20.5601
2696.0598	11.3698	17.7770	19.4286	21.6924	2.5143	47.1244	-8.8187	-27.2876	2.1984	0.2777	15.1859	19.0437	-7.2651	8.4729	11.9764	16.9449
2704.0600	8.0510	2.7764	-11.1586	-11.7381	-16.8450	30.3212	-11.6563	-29.5203	-3.3448	-13.3766	4.3846	-14.1231	-2.0068	15.1092	6.0076	10.5313
2712.0602	6.0085	2.8600	-6.6167	-13.7398	-25.1849	49.6685	-14.5440	-40.3817	-11.0704	-17.7561	-19.8552	-11.5479	-6.1691	-2.6541	7.6421	10.3731
2720.0603	1.7704	16.4589	16.8399	17.6034	2.4380	47.5819	-15.9199	-30.2121	6.3590	-0.3411	-2.0569	17.7861	-6.6664	12.1959	2.0190	-3.6762
2728.0605	1.8085	-13.2991	-31.8864	-42.8740	-40.0206	21.3789	-7.5645	-20.0122	-17.4256	-21.7092	-30.7589	-36.5672	2.5833	-5.6379	6.0301	-0.2756
2736.0607	5.8958	-14.8609	-33.8829	-39.2320	-57.0197	39.7963	-10.7618	-29.6102	-37.0886	-29.5886	-50.7198	-36.9783	-3.5377	-37.9019	12.2085	12.0317
2744.0609	2.7375	11.5882	3.5554	7.6372	-10.4836	58.3703	-11.4245	-22.5346	-9.3568	-1.5712	-17.9826	10.7271	-7.3609	-7.4027	5.1094	5.0688
2752.0610	-0.0933	6.9716	-11.5899	-41.6707	-5.2264	75.6598	5.3185	-11.9863	-6.1735	13.3778	-17.8219	-3.1985	1.6352	2.2348	7.0880	2.0782
2760.0612	2.9321	9.2836	-10.7459	-28.1973	-11.6120	81.0709	2.0157	-15.5485	-14.7126	13.9896	-15.3035	2.1645	-0.1201	-15.2031	7.6846	-1.7585
2768.0614	3.1406	18.7043	9.8365	38.9857	-2.6398	51.4383	-2.5443	-8.1588	-3.6732	6.6539	1.3457	26.4822	-5.0116	-2.8842	0.3114	-10.7231
2776.0616	4.6860	21.8268	17.1853	28.3043	6.1551	62.1339	8.6107	0.4958	2.0401	18.4832	8.3134	32.4724	-1.3549	2.4586	7.0305	-8.0224
2784.0617	5.9057	17.6845	3.3544	-14.3308	6.7406	70.3249	9.5924	0.9373	1.7924	32.2075	20.7597	17.7468	6.0958	4.6192	8.5405	-8.7009
2792.0619	5.1600	-7.5394	-27.7608	-35.1887	-20.4349	33.2166	16.4685	-7.9794	-20.3001	-8.7044	-17.3946	-21.8665	3.2635	-17.0355	13.8083	-2.8242
2800.0621	7.3331	11.3432	6.7543	9.2660	-0.9652	64.5946	11.0833	-14.8117	-17.7704	-1.8497	-22.2609	17.6933	-7.9474	-24.7357	22.6069	6.7440
2808.0623	-0.3378	40.0724	31.4958	27.2839	41.1732	93.9970	1.3514	5.5853	20.1861	54.7239	34.1299	58.4919	-0.2552	23.9824	-2.8761	-13.2186
2816.0625	-6.4744	2.4026	-26.6791	-31.1817	-0.5972	42.4077	13.6086	10.6461	-2.7096	19.5547	-2.5017	-7.2210	7.7883	6.7446	-10.4689	-21.0995
2824.0626	-2.1342	-7.6722	-29.2555	-23.4050	-24.4496	30.0934	6.5974	-3.4207	-22.3084	-8.6940	-32.6545	-18.1634	0.5493	-22.4940	1.4413	-9.2290
2832.0628	-4.4927	8.4018	-4.0827	-7.1242	3.1000	40.6951	10.9662	7.7816	2.1978	19.3600	-0.7975	9.0185	3.6113	3.5984	-8.5110	-13.4566
2840.0630	-1.3566	-4.8250	-21.8713	-37.3990	-7.5309	36.1504	28.9877	10.6109	-12.7081	9.0246	-15.6654	-12.0197	5.6655	-15.0991	2.5004	-4.0258
2848.0632	1.6491	-0.8339	-20.2313	-25.6258	-11.9066	48.8911	22.3772	7.0677	-19.7844	8.4570	-18.0598	-5.7465	2.0426	-24.1149	5.8301	1.6685
2856.0633	-4.0729	0.4680	-20.5157	-25.7724	-6.9869	45.4590	24.2903	11.6915	-11.1654	16.4986	-11.8721	-4.3877	4.5722	-14.8389	-8.6124	-8.1829
2864.0635	-2.6110	-1.2972	-20.6039	-35.8285	-14.3637	44.5541	14.5944	4.1328	-12.7552	18.0068	-8.7397	-9.5163	5.7016	-20.3308	-9.2704	-7.4792
2872.0637	-8.1449	6.9039	-10.6637	-19.6103	-3.6091	39.0078	7.2232	14.2755	4.2765	33.5009	9.3650	3.9132	8.8211	1.3278	-24.7234	-20.3384
2880.0639	-13.4089	-3.1294	-17.8305	-23.7466	-1.4833	20.6812	25.0597	24.8869	0.8126	18.0695	-17.3426	-4.7788	7.4387	-1.2512	-21.2775	-19.6409
2888.0641	-8.2205	-0.4869	-10.1649	-19.3364	1.0995	29.2423	23.9818	16.9993	-2.0478	12.7359	-19.3771	-0.3203	3.0902	-3.7711	-9.8225	-4.6108
2896.0642	-9.9741	4.0681	-5.0968	-10.7137	7.7586	20.6333	20.6865	19.5216	9.2597	24.1344	3.8712	5.3261	6.2056	7.8085	-23.1943	-13.5555
2904.0644	-8.9424	-7.0088	-15.8025	-29.0109	-6.0074	10.8009	18.1656	14.4824	-5.8670	13.7824	-14.0071	-9.9940	5.2216	-17.1095	-17.2996	-8.7115
2912.0646	-5.3232	1.0469	-3.5602	-23.6885	-2.5444	33.8153	16.6289	11.7450	-5.9361	23.1082	-9.6494	3.0244	2.9930	-21.3418	-12.5598	1.3294
2920.0648	-6.2386	6.3203	2.4432	-10.1266	6.1774	28.8194	22.1081	21.2405	6.0790	29.9498	6.7557	11.2052	5.6865	-2.5008	-18.2960	-4.0625
2928.0649	-6.4830	-17.4933	-31.8302	-49.6461	-20.1669	-6.7846	21.2543	16.3950	-9.6544	5.7946	-10.7616	-31.7866	9.5108	-15.1038	-17.7145	-2.4300
2936.0651	-4.2157	-22.9109	-30.6894	-49.1583	-28.2334	-3.8274	32.0829	8.8317	-23.8196	-6.2735	-30.7596	-34.6452	4.3408	-43.9509	-11.4777	7.6214
2944.0653	-0.6238	14.0951	28.8593	14.6553	15.2052	41.6778	26.3871	12.3317	3.1419	27.0797	1.1606	32.7243	-2.6355	-19.5732	-4.8612	11.6689
2952.0655	-6.2619	8.5436	16.8543	-20.5858	14.8237	22.3519	21.3991	18.2863	20.7300	40.8540	24.4067	14.3698	9.9181	9.1098	-20.9936	-5.8345
2960.0657	-4.2655	-25.3733	-17.7957	-56.5219	-31.4853	-22.1944	31.0178	8.4945	-13.0539	-1.5018	-20.0136	-35.7381	10.4247	-40.9296	-12.7706	-2.6053
2968.0658	3.1933	5.1805	26.8555	6.5546	-8.1551	19.1045	11.8531	3.5318	-1.8154	15.7782	-0.4827	17.9996	0.4807	-29.5951	-0.2515	7.5312
2976.0660	-6.7723	18.9353	27.2229	-6.5024	17.1507	40.6602	12.0770	12.3043	29.2388	49.2323	33.4542	27.7648	10.4740	20.6436	-24.3990	-18.5030
2984.0662	-9.5261	4.9621	8.2628	-25.7355	2.7793	33.0222	16.8402	6.5359	11.8695	29.9043	0.2016	7.5816	8.4559	-2.4066	-19.4168	-21.1857
2992.0664	-8.6602	19.4152	24.1773	6.6140	22.0128	40.1199	6.2942	19.4629	20.7937	44.5021	16.4235	34.3964	5.9354	12.8080	-16.8057	-19.2059
3000.0665	-11.3152	-1.2930	-7.7750	-23.1848	7.4864	1.2073	13.7869	24.3631	10.0300	27.0264	6.2385	-0.6999	10.4845	5.2057	-20.8428	-23.1130
3008.0667	-4.5895	-10.9283	-11.9023	-18.8302	-13.4304	0.5300	6.9821	2.0225	-19.2061	-1.5941	-28.0436	-10.5802	-1.1219	-40.9252	-4.8957	-1.8948
3016.0669	-6.3007	15.2106	20.0705	11.7487	18.1266	34.9933	12.9912	21.7339	8.1717	38.2463	8.7155	32.2763	1.8529	-8.5670	-14.7379	-6.3143
3024.0671	-6.2779	12.9393	20.2113	-1.0873	17.0700	23.4033	14.5895	29.3697	17.9936	43.1085	20.1394	26.3002	8.4448	7.7908	-15.0914	-9.7718
3032.0672	-4.8076	10.5942	20.9769	-1.2107	6.7106	17.2154	-2.4207	13.3648	12.8224	37.2667	19.1229	21.1940	5.8261	-4.4210	-17.8038	-8.2996
3040.0674	-10.7377	1.0778	3.6818	-17.1574	4.5541	0.3239	9.8510	23.1337	13.3430	32.5145	11.9879	5.1146	9.8545	1.0715	-26.7560	-16.4127
3048.0676	-7.5746	-12.4665	-7.6246	-26.6920	-10.4918	-21.2516	2.7322	9.2459	1.9530	-1.7234	-16.3774	-17.3913	4.2572	-1.4817	-11.0168	0.8464
3056.0678	-8.8745	-0.2005	13.3516	-4.2908	5.4235	-10.6602	-1.8992	-0.1958	12.2984	12.0365	1.4776	4.4420	1.3093	-1.3145	-21.4169	-6.0734
3064.0680	-9.6393	10.2291	26.3241	15.9790	23.8771	-2.5476	5.0862	13.1480	19.2305	29.6447	16.8488	26.5137	1.6839	1.2217	-23.6677	-11.9219
3072.0681	-6.5973	19.6898	31.7584	34.4369	28.3789	7.0666	-5.7599	20.8886	26.8109	32.8473	26.8842	37.6205	0.2553	27.4036	-18.9247	-0.4581
3080.0683	-10.2584	19.9141	24.6977	25.1275	34.3366	7.4151	6.2157	34.3822	31.6147	47.8789	39.9982	36.8334	6.1840	31.5100	-30.3496	-11.0869
3088.0685	-7.6105	9.8549	14.8056	14.3968	26.8339	-8.8255	-1.0891	26.5662	16.7529	32.7551	25.1685	23.1205	2.3856	11.3141	-20.4878	-0.7479
3096.0687	-9.9434	6.6625	7.8267	15.5964	14.9695	-16.4357	-6.0659	20.5818	22.1520	20.0345	20.7672	11.5010	2.4555	29.9953	-29.6040	-0.2286
3104.0688	-11.4956	6.8931	8.4826	18.2219	17.7493	-11.3515	3.7845	27.5043	20.5076	20.5707	12.3630	15.3730	2.1163	26.3255	-27.7254	-1.7739
3112.0690	-8.9749	14.4280	19.6488	35.3714	29.3928	-6.1231	-18.4612	18.3446	16.7220	23.0379	14.0148	30.4355	-5.5338	18.7933	-20.4583	8.0270
3120.0692	-13.7434	2.9081	0.0917	19.1918	9.9352	-29.0356	-14.5195	14.5681	17.6785	16.2367	18.0071	6.0517	1.5930	19.3482	-40.3243	-12.7896
3128.0694	-10.3171	-6.7359	-6.1558	12.1520	5.1046	-40.2572	-17.2032	7.0234	0.0432	-3.9206	-7.9313	-3.6708	-4.2717	-4.3015	-20.8997	-1.2563
3136.0696	-14.5698	7.6886	6.8900	32.0309	34.4770	-21.7597	-28.3021	9.5453	10.2568	8.7324	-4.7483	21.0263	-10.0287	14.0702	-20.9519	-0.1104
3144.0697	-18.1841	-8.9058	-22.7032	3.5200	3.0685	-40.1653	-15.3056	15.0340	8.6835	-7.1044	-15.5669	-14.1460	0.2861	24.6048	-30.6840	-17.5270
3152.0699	-9.8583	-30.1640	-39.3133	-13.2106	-21.6112	-70.0175	-28.2508	-7.5297	-19.4644	-53.8982	-56.4132	-46.2249	-9.9964	-3.6566	-3.6112	15.9697
3160.0701	-12.0940	-29.2733	-33.5266	-7.1982	-4.6528	-67.9798	-19.9923	-20.2048	-23.9686	-55.9031	-61.6417	-39.3536	-17.2923	-23.0839	-7.4604	19.1101
3168.0703	-3.3808	-36.1879	-36.3595	-23.0721	-28.3802	-67.9845	-20.3668	-35.5745	-33.6024	-66.9926	-61.8241	-54.2814	-14.4252	-39.2913	4.8049	20.5305
3176.0704	2.5312	-29.9304	-19.0068	-8.3132	-26.7688	-67.6545	-38.0885	-37.7128	-30.8034	-67.0045	-57.1808	-42.0931	-17.8765	-33.6523	18.0462	36.3986
3184.0706	-1.1997	-10.3096	5.2383	25.8478	-7.8263	-38.2503	-19.4015	-11.8144	-14.3537	-34.5346	-37.5113	-3.8633	-13.7876	-22.7134	7.6786	18.5292
3192.0708	8.7863	-0.1267	14.6860	27.0935	-20.6672	-12.2326	-36.1381	-16.4647	-7.9521	-27.5667	-19.3496	2.2173	-9.8383	-1.4022	21.7306	25.1318
3200.0710	5.8809	-4.8574	6.2599	4.2039	-18.0162	-20.6544	-34.6086	-13.8748	-3.6045	-21.7097	-12.8943	-8.6610	-5.2827	5.1520	15.2971	22.0085
3208.0712	6.5602	-10.4233	3.0416	-4.4223	-12.9695	-19.5178	-6.0417	-1.0045	-16.3485	-18.2414	-22.9432	-7.7179	-4.3698	-25.8739	23.0076	21.0646
3216.0713	12.5967	2.4603	18.9859	3.7836	-2.4274	0.8569	-22.1581	-5.8083	-7.1254	-7.4007	-4.8070	8.0056	-6.1843	-6.2524	32.7963	35.4234
3224.0715	6.7863	14.0599	31.7658	8.7996	3.2906	16.6265	-17.5073	6.6334	11.5956	26.0653	23.8876	25.1139	2.9426	5.6648	8.9877	10.8819
3232.0717	13.5488	19.2139	41.9996	16.4793	0.8010	31.7640	-14.8135	6.5987	6.0715	32.4382	30.1594	35.9770	2.6349	-9.0115	19.8052	15.2973
3240.0719	8.6306	17.6042	32.6322	7.0762	21.6210	26.6510	-12.5512	-0.0184	11.9011	24.5449	25.6942	29.4144	-1.0544	10.9035	17.9511	18.6862
3248.0720	3.2017	8.3385	16.8820	-5.9770	17.0938	20.0413	2.7624	1.1426	4.4127	16.9552	8.9595	16.5152	0.8846	-2.6027	12.9682	2.0472
3256.0722	9.9228	10.8467	18.5516	-0.7561	15.1818	23.2934	-12.9212	-5.3665	-1.6915	12.7526	11.8083	18.8816	-2.1227	-4.6279	27.5332	12.1518
3264.0724	1.3930	2.6239	-0.5421	-16.0298	23.0974	6.5401	4.2474	9.7226	-0.5543	14.5634	7.6912	6.8839	2.3027	-1.0955	15.2407	-2.2163
3272.0726	9.2192	-6.4928	-12.6572	-24.9176	-4.7054	9.6713	12.9703	7.7010	-19.7081	-0.5802	-6.4833	-8.4363	3.0870	-25.1740	28.5607	5.7741
3280.0727	12.5557	5.4895	-1.5576	-12.6271	5.8177	23.2660	-5.2735	-6.8386	-6.2069	3.5812	15.6519	1.0711	-0.8375	3.9738	24.9849	20.6411
3288.0729	-0.0377	-6.3107	-14.5181	-22.8179	3.8353	-2.6208	16.5684	8.4819	-2.8777	0.7644	0.3181	-11.9942	4.1059	0.9900	3.8434	-0.1669
3296.0731	8.7179	-19.6355	-19.6929	-25.3894	-32.1730	-16.3189	13.6075	-0.9785	-22.8277	-29.4714	-26.8972	-30.6581	1.6784	-24.2158	23.7324	13.9101
3304.0733	7.1386	1.9025	7.4827	0.8624	6.9864	4.9225	8.5924	-13.5639	1.9583	-9.5641	6.7192	0.4879	-2.7054	5.9475	13.8322	11.6840
3312.0735	4.2304	8.0594	17.4349	9.2260	21.0020	7.5110	18.8250	-3.4480	11.8985	5.1431	19.1801	14.2144	0.6902	11.4008	8.6875	-2.3367
3320.0736	9.8972	-11.3622	-9.5490	-19.9425	-18.2651	-16.9619	5.6279	-13.4036	-4.1907	-23.9559	1.4605	-25.1562	3.1005	5.6124	18.2528	9.4620
3328.0738	4.4492	-22.6991	-29.2513	-39.9408	-13.2162	-27.8112	24.9519	-17.6413	-15.0132	-30.3723	-9.5176	-41.7143	1.7141	-16.4421	7.5014	5.0510
3336.0740	9.6729	-17.6547	-16.0314	-21.6752	-9.3538	-13.9272	33.4929	-14.1162	-24.3281	-28.9868	-15.6839	-25.2459	-3.3081	-38.1048	20.4765	16.3368
3344.0742	6.3141	0.5968	1.5271	-0.5321	7.2177	6.9249	19.6169	-11.5194	0.3900	-9.6722	8.0069	-2.6893	-2.4714	3.9305	8.1150	12.2595
3352.0743	-0.8614	8.0161	1.9379	-0.7862	28.9494	14.8541	34.6434	6.8346	15.3654	14.1005	26.7702	8.8475	3.5217	22.5220	-6.8627	-5.2623
3360.0745	6.4271	-10.2191	-20.0672	-22.2603	-7.1618	-7.4923	29.6024	0.5097	-3.4755	-14.9561	7.1875	-24.3758	4.5205	8.7971	7.3077	9.5169
3368.0747	2.3659	-23.9409	-36.1712	-34.3182	-26.6055	-25.3358	27.8043	-16.0746	-13.7674	-36.9036	-14.7090	-48.0405	1.9585	-7.1799	-3.3486	6.4387
3376.0749	3.0443	-17.1985	-25.3143	-17.7270	-11.5881	-12.7332	41.2934	-5.2936	-17.6020	-25.9024	-14.1534	-28.3868	-0.9302	-23.0971	1.0746	8.3038
3384.0751	4.6292	-11.6825	-26.0932	-18.1764	-6.9801	-8.9412	28.8942	-8.9026	-6.0079	-23.5434	2.5793	-29.0729	0.4376	7.9996	0.1629	12.4177
3392.0752	0.0878	-19.3524	-38.0318	-30.8433	-10.7575	-25.3446	27.8371	-22.6669	-3.8701	-33.8178	1.2736	-46.1330	1.4538	11.4491	-12.1551	0.7766
3400.0754	7.2174	-25.6851	-35.8250	-23.4278	-25.3799	-33.2435	30.9479	-20.3646	-21.4503	-48.1327	-16.4030	-47.9459	-2.3175	-17.1625	6.3818	15.4100
3408.0756	4.7752	-16.0755	-27.3424	-21.4059	-11.7342	-22.0568	22.4696	-15.3432	-7.4763	-30.6631	-0.1489	-35.7787	0.0011	4.5845	0.6275	11.7372
3416.0758	1.8517	-7.7914	-14.9712	-21.1990	10.0769	-19.2438	23.8763	-9.1481	6.5426	-7.9864	22.5151	-20.6012	4.2864	14.0140	-5.0369	-2.8184
3424.0759	7.0473	-4.1994	5.6578	5.4397	-1.8050	-18.5248	15.8783	-15.9451	2.1385	-15.8284	14.0073	-7.2019	0.3221	-2.4636	5.9319	-1.0178
3432.0761	3.4164	10.4994	28.4515	31.0081	6.1015	-3.2741	3.5036	-19.4369	18.8372	-0.1348	27.6658	16.6981	0.6382	12.4902	-5.5233	-17.2985
3440.0763	0.9819	9.7641	29.9304	25.9512	12.8466	-24.1771	-2.2411	-4.2313	30.9650	8.7613	40.8339	16.4344	6.9487	32.4415	-6.7677	-24.9767
3448.0765	-3.1225	4.2255	33.7955	34.4578	0.8501	-40.3070	-13.8173	-7.5456	31.1039	-9.9165	13.3957	12.0180	3.6126	35.4037	-4.8635	-25.4728
3456.0767	-6.5260	15.6466	49.9400	49.4585	12.7666	-20.3292	-21.1689	-9.0343	40.6143	0.9918	13.4076	31.7768	1.4121	45.1470	-7.5939	-31.7191
3464.0768	-4.6127	0.9932	25.1922	23.1704	4.0017	-45.4731	-19.6650	-3.3364	29.0736	-11.2591	7.2620	6.1876	4.2317	39.7445	0.2235	-25.5044
3472.0770	-3.3045	-7.4266	12.2215	32.3342	-7.1871	-47.1493	-17.9042	-14.0915	5.9010	-39.5292	-28.7141	-2.9866	-5.7613	12.3058	10.9713	-15.4052
3480.0772	1.5373	21.1022	38.0202	74.6800	22.4578	2.1809	-21.1705	-3.9449	17.0957	-11.4819	-2.3430	42.4516	-10.2641	32.0856	18.0691	-8.6370
3488.0774	-1.1007	21.5011	25.4977	59.4580	28.6792	-3.9609	-21.3253	5.5035	30.0136	-0.5642	20.5665	33.6276	-3.0307	62.4948	6.7440	-14.4829
3496.0775	-4.6160	6.8686	6.2062	45.0662	16.0706	-16.9355	-12.5872	-6.1106	16.3164	-26.8447	-10.8116	10.3340	-7.1309	46.9416	5.5740	-12.6251
3504.0777	-1.0050	16.0183	13.3779	66.0011	22.8176	0.5746	-11.8669	-1.0828	15.3382	-22.8907	-6.6949	25.6811	-11.0427	50.4222	11.3894	-2.0282
3512.0779	-3.3787	22.5931	13.6944	74.4488	31.1783	4.2930	-11.2764	8.0938	23.2003	-6.8676	13.4548	34.0738	-8.2755	60.5664	-2.0288	-9.0229
3520.0781	-2.6567	13.3440	-3.1721	55.4007	28.8392	-3.0042	5.0840	14.7841	11.9859	-9.3390	9.6136	20.0714	-6.3844	44.4419	-0.5405	-5.5996
3528.0783	0.3686	0.5882	-23.5855	33.8057	15.7817	-16.0326	18.5431	14.9428	-0.1538	-21.6033	4.7061	-3.1767	-4.5881	32.1105	1.5972	3.2551
3536.0784	1.1493	2.7786	-17.6440	45.0292	15.4179	-15.2110	23.2177	10.1858	0.8714	-21.7187	10.5902	1.1209	-6.3404	27.2546	-4.8375	4.9296
3544.0786	3.6924	-2.9269	-26.5772	30.1151	6.8403	-23.3165	30.7348	19.9103	-0.7382	-20.6461	16.7304	-10.3600	-1.6186	29.0428	-4.0921	11.9948
3552.0788	2.7656	-17.5012	-42.3093	8.2945	-13.6780	-39.8736	37.5998	18.2826	-13.3393	-31.4354	2.0637	-32.7143	0.6486	6.2154	-8.1990	11.8589
3560.0790	5.2510	-0.4899	-10.0912	40.0528	6.5709	-15.2021	36.4325	17.5810	-10.9338	-9.6459	14.7769	4.5854	-5.0396	-12.6285	-6.3170	14.7455
3568.0791	5.8255	0.4575	-17.4552	9.0602	3.8866	-10.1490	33.5557	25.4600	0.9727	12.6260	44.5720	-4.8357	6.0462	8.2085	-16.0908	11.7769
3576.0793	1.6611	-25.4219	-45.7216	-41.8478	-29.6896	-39.5138	37.8553	14.1977	-12.7838	-7.2137	19.6776	-49.6047	11.7773	-15.7483	-25.2175	5.7282
3584.0795	5.0822	-15.8091	-9.8888	-10.0710	-11.8262	-34.7167	37.3425	15.9104	-17.1104	2.4027	15.2181	-15.5210	3.6863	-48.4249	-11.2949	14.9331
3592.0797	6.1690	-3.0595	4.0718	-12.8237	-8.6537	-20.7556	20.7115	23.2826	1.6514	34.4841	52.6276	-1.5501	12.9170	-25.7208	-19.9654	3.8231
3600.0798	3.4445	-14.3834	-14.2850	-46.2092	-30.1980	-29.8735	5.8930	12.1695	-5.7474	32.3457	46.6976	-25.9380	17.8285	-38.2670	-28.8525	-7.3742
3608.0800	5.0286	-16.4803	-9.1909	-39.8509	-18.1799	-35.5481	3.3880	8.7485	-21.8190	28.9008	31.9753	-17.6061	9.7716	-73.4788	-16.0647	1.6626
3616.0802	6.0446	-5.7912	-1.7958	-28.2880	-12.4015	-15.8898	-6.1327	11.8607	-15.1291	39.2992	40.5851	-3.5222	10.2139	-57.8101	-12.9258	-1.6686
3624.0804	4.2433	0.4441	-1.0558	-22.1768	-7.3449	-5.0967	-21.1059	11.7988	-9.5418	40.9603	38.3309	2.6926	8.9832	-38.3311	-10.4502	-4.0121
3632.0806	1.7548	-3.3170	-3.5798	-23.8896	-0.2662	-17.5751	-26.0703	2.1826	-12.4275	33.2357	31.3049	-1.0862	5.4057	-45.3180	-10.7524	-6.8602
3640.0807	0.5854	-0.0555	1.6177	-13.9857	-7.9936	-8.5827	-33.4503	-6.1781	-9.7776	28.8350	24.6456	2.3936	4.2765	-40.8138	-13.0548	-14.3010
3648.0809	-6.3132	2.5314	1.6104	-1.3399	9.3974	0.7750	21.2241	35.7257	8.6041	25.6669	9.9375	9.7354	6.3230	5.4267	-16.1843	1.2948
3656.0811	-3.2630	-11.0435	-12.6591	-25.1606	-6.4471	-14.1837	23.2900	15.4108	-2.0973	5.1264	0.7166	-16.4760	5.3148	-9.2238	-13.9929	8.1244
3664.0813	-3.3169	-21.0055	-26.4840	-36.6640	-19.9670	-22.0321	23.6190	6.4114	-14.5699	-10.8452	-17.0716	-33.1672	3.1927	-24.8957	-12.5955	10.5300
3672.0814	-1.7441	-12.4794	-8.0204	-9.5403	-18.9128	-10.3757	25.1181	26.5368	-14.4393	-2.6625	-24.8360	-9.5121	1.9316	-28.3496	-2.0667	14.5867
3680.0816	-0.2844	6.8261	18.8332	17.5814	10.6612	3.7927	22.1767	42.7276	4.3495	25.3378	5.8996	25.2105	2.8499	-5.6844	0.2268	15.1368
3688.0818	-0.7938	12.4766	26.0261	26.1479	21.2973	-5.2966	11.7068	35.0887	18.7722	29.8251	28.3840	30.2106	4.8045	15.4990	-5.3864	2.9525
3696.0820	1.4925	-2.2821	6.4911	-6.5690	-11.7351	-13.5699	5.8330	20.6621	6.3833	14.8847	15.8468	-0.5277	9.1365	0.1430	-5.0599	-0.1282
3704.0822	-0.5022	-3.1308	-4.6748	-18.1735	-14.9891	8.8371	12.6011	27.6495	-3.0991	17.4831	-1.4981	-3.0638	7.7379	-7.6511	-4.3779	7.6096
3712.0823	-2.7466	23.0148	27.2767	37.5849	18.0799	30.6968	12.0696	47.1632	22.0410	39.9400	21.7265	43.3962	5.2773	30.9445	-7.1918	1.9637
3720.0825	-1.5122	32.3480	40.2758	48.5580	28.3164	27.2936	6.9188	46.6884	38.1697	58.1794	58.5555	55.6089	10.6983	46.0745	-16.4764	-13.2981
3728.0827	-2.3817	22.4113	23.5770	17.8295	21.9637	24.9764	9.6201	34.2429	27.0574	54.6033	52.1775	36.6290	12.2704	25.3331	-18.3238	-19.5181
3736.0829	-0.7637	8.8188	12.3315	6.2369	-0.1249	13.2767	8.9266	21.8681	11.5900	26.5461	19.9462	16.0491	8.7600	7.5843	-7.5114	-12.7706
3744.0830	0.2814	2.7475	9.6183	7.0292	-7.8896	4.5522	11.9100	14.5700	3.1199	13.4030	7.7110	8.9939	5.5697	-7.4953	-5.2063	-8.2871
3752.0832	-0.6315	19.2819	25.2556	25.3855	16.0913	24.4204	9.4434	23.8919	18.5074	37.0854	31.8889	34.9364	6.8945	13.8090	-7.8679	-15.8163
3760.0834	-1.5110	15.5496	15.1289	13.7143	8.8393	15.4935	1.1087	28.2028	22.5317	33.7648	32.3724	23.5779	11.2444	31.9781	-6.8021	-19.9416
3768.0836	-4.7102	2.9324	2.1476	8.7211	6.8176	-1.5190	5.5537	14.5883	6.7976	7.2758	-0.0816	8.1729	2.9651	9.3922	-3.9118	-13.9864
3776.0838	-4.0672	16.9938	25.9759	34.9400	27.8542	9.6463	-0.2823	9.2351	19.2906	17.5401	15.3142	33.2076	-1.2259	20.7313	-4.2176	-13.1050
3784.0839	-4.3708	2.1522	6.3337	4.3810	5.4291	-18.8092	-0.4515	19.2080	17.7564	12.9542	17.2190	5.0393	8.0252	24.4898	-8.8698	-15.0168
3792.0841	-5.4662	-24.2203	-22.2988	-18.6971	-12.4755	-52.4439	15.9606	18.5922	-14.2175	-22.0901	-30.9719	-27.4505	2.5313	-21.6120	2.6774	-3.2949
3800.0843	0.9384	-22.4959	-11.5182	-4.0212	-11.4670	-51.5658	10.3263	3.6502	-21.1138	-35.0031	-36.7915	-21.4235	-4.5386	-33.5439	17.6631	8.4771
3808.0845	2.4833	-24.6265	-18.1649	-10.9047	-18.4517	-61.6589	3.2812	5.7752	-16.2079	-36.2949	-26.1650	-30.6966	-0.2900	-17.1588	16.9288	7.4926
3816.0846	-0.0630	-19.4336	-17.2761	-3.3528	1.2214	-57.1423	3.9556	19.5109	-14.0872	-28.4827	-27.3239	-18.8518	-2.4714	-8.6905	21.1271	10.8061
3824.0848	0.6795	-15.1115	-11.9349	-3.0690	5.7138	-49.6889	-3.2210	16.8166	-10.9317	-22.2939	-21.3305	-13.3831	-3.0222	-4.5793	21.6225	13.6746
3832.0850	-1.1851	-19.2978	-17.9938	-7.3046	-4.8574	-56.7158	-3.4427	14.2061	-12.7859	-23.3103	-20.4088	-21.5572	-1.2199	-11.2821	10.7113	8.0748
3840.0852	-2.1531	-5.4289	-1.9110	10.1762	15.1328	-37.9043	-5.8520	18.0706	-4.9986	-0.8444	-1.7861	3.0893	-2.6726	-9.8603	4.3980	5.2557
3848.0853	-2.8183	-5.0877	3.1271	3.1301	13.6709	-36.1939	-6.0074	11.0929	0.1895	2.6547	3.3757	1.9767	-0.6567	-8.7090	-0.2073	0.4415
3856.0855	-0.5942	-7.9848	7.1841	14.9877	0.0341	-41.3082	1.8135	7.1435	-0.4465	-13.9071	-7.5554	-1.3682	-1.7081	-7.7794	4.0184	1.5802
3864.0857	5.7714	6.9054	21.2505	37.5828	4.2494	-16.7125	-2.1336	11.0761	7.8747	-1.2502	14.8894	18.2230	-1.4427	9.9313	8.3759	7.8799
3872.0859	2.1566	-6.7296	0.5056	2.7205	-6.5175	-36.8228	-4.5866	2.6271	3.3602	-5.3873	14.3327	-8.8893	2.9750	1.4671	-3.4105	0.9550
3880.0861	-2.5305	-18.8963	-7.2941	-10.9976	-2.3748	-59.9231	2.2784	-6.0421	-5.0722	-19.3712	-4.8904	-22.4218	-1.1307	-19.2419	-6.3515	2.5304
3888.0862	-0.2808	3.0451	15.8396	22.1378	23.1515	-22.2525	5.0869	3.7290	6.2028	2.1350	12.3188	14.2050	-4.8230	-2.1165	-2.2072	8.7621
3896.0864	-1.2602	5.3665	11.5100	19.7860	21.2455	-16.8642	5.7269	10.8190	12.2586	7.9867	19.9357	13.2996	-0.6711	13.6372	-6.1811	2.8110
3904.0866	-0.0081	-9.4349	0.1523	0.2158	8.7588	-44.6312	7.2378	2.8313	4.1469	-11.2965	7.7352	-9.9080	-0.7437	2.6614	-1.9937	9.9023
3912.0868	1.6651	-3.8792	11.2912	10.2905	14.0947	-33.0866	6.4482	-4.1046	4.2353	-8.6862	9.0869	0.8695	-4.1502	-3.3794	0.1565	13.3370
3920.0869	-0.9171	5.0898	17.1316	15.4244	24.0545	-17.5584	2.4650	-2.4490	13.1616	6.3137	20.9978	12.8423	-2.2949	7.9183	-6.3312	2.1912
3928.0871	-1.0870	-0.9728	9.9684	6.0144	23.3736	-33.5613	3.8488	2.2758	12.3728	1.4106	19.5085	3.4920	-0.5186	10.7947	-3.4573	3.6577
3936.0873	0.6202	-9.5319	5.7867	10.4856	9.0669	-48.1624	6.1899	-1.4334	0.2662	-16.7921	0.8654	-5.4204	-3.7510	-8.2218	2.1862	8.3313
3944.0875	2.6783	-1.9878	6.2781	19.2012	3.4745	-26.4677	-3.8172	-6.4470	0.5162	-12.2409	6.6531	0.5516	-4.5012	-1.7355	0.3429	8.0158
3952.0877	-1.0527	12.1588	6.6438	19.1997	17.4431	4.1478	-11.8154	0.7018	15.7044	11.7019	26.4317	13.6873	-0.6144	30.1766	-9.8428	-1.3120
3960.0878	-5.4496	7.0810	0.0989	12.2126	15.4314	-5.5725	-10.5826	0.4337	15.0140	8.5077	18.9484	6.5627	0.6516	26.9845	-15.6379	-11.4504
3968.0880	0.0421	-6.7028	-13.9836	13.2348	-6.5851	-31.3183	-12.3233	-9.8809	-2.7579	-21.9359	1.2461	-14.4046	-3.3536	7.9148	-5.1831	-1.3675
3976.0882	2.0101	-11.6381	-25.0734	11.7937	-16.2884	-27.6842	-15.3095	-21.2121	-15.0072	-40.7172	-18.2754	-24.6742	-8.4707	-0.0221	2.8068	6.0061
3984.0884	0.4749	-16.1486	-30.1660	-9.2421	-16.2769	-17.8027	-14.6004	-40.8750	-19.5857	-50.1047	-34.2510	-35.1596	-11.3362	-7.3890	5.6185	6.5055
3992.0885	3.3563	-18.8349	-24.4899	11.6561	-18.4280	-37.3163	-10.7202	-42.2862	-20.7350	-68.0943	-40.4221	-34.4896	-15.0342	-6.9804	13.5051	11.4716
4000.0887	3.2093	-13.2369	-12.3929	43.9091	-21.0236	-37.6983	-15.6064	-30.8206	-20.3012	-70.7620	-49.7312	-18.3692	-18.3028	-5.3738	17.3385	12.7972
4008.0889	-0.1890	-1.6252	-7.3868	14.5041	-7.8194	8.2209	-27.6808	-40.6914	-8.3615	-44.0666	-39.8363	-10.8848	-15.8571	12.7093	10.9829	13.1084
4016.0891	-3.9400	5.4199	-1.7038	12.5978	11.3658	15.6098	-26.0693	-42.5160	5.0313	-30.2633	-23.3645	-2.4427	-13.9822	29.0131	2.4077	2.9979
4024.0893	-2.6514	0.2033	2.9242	39.9375	-0.1600	-14.7001	-27.6966	-30.8491	-3.6080	-41.2593	-32.6030	1.2686	-15.4500	9.2806	6.7337	-1.1598
4032.0894	0.2692	3.3451	9.2270	36.9957	-2.3405	-9.7016	-33.7040	-24.8847	0.6041	-33.9289	-25.5365	5.0437	-13.0418	17.8255	12.0803	6.0507
4040.0896	0.1893	17.1251	23.7769	44.1907	17.1469	11.0050	-23.6378	-14.8729	19.3782	-11.1677	0.9343	24.3495	-8.1707	43.7421	8.8762	-1.3638
4048.0898	2.7318	13.4719	10.7635	17.5711	1.8604	27.7365	-21.9382	-14.4428	9.6970	-2.8110	1.8088	13.0460	-3.1299	29.5056	9.3502	-2.2727
4056.0900	1.3765	-4.4981	-20.3957	-32.1391	-19.0388	25.0528	-20.2725	-20.2316	-10.3127	-12.0390	-21.0335	-20.7843	-0.6437	4.5328	9.5694	2.7910
4064.0901	3.5160	-12.4396	-23.0226	-22.0781	-23.8884	5.9444	-10.6200	-20.9782	-24.5288	-26.9924	-34.0748	-24.8198	-4.9843	-23.3441	15.2318	7.0815
4072.0903	9.6320	-9.1148	-22.9279	-24.0381	-30.3462	19.0175	-9.4098	-22.4621	-28.5826	-17.3811	-16.5369	-23.5004	-3.4986	-31.9606	14.0070	15.5995
4080.0905	6.4630	-10.3025	-32.1327	-51.8828	-24.3291	34.2939	6.3864	-16.7586	-27.3497	-1.7309	-10.6749	-29.0177	1.6394	-34.0604	5.8286	11.5983
4088.0907	7.7116	-2.5071	-13.4496	-25.8184	-9.3130	40.6953	10.4305	-15.0183	-27.6927	0.8132	-13.3510	-7.2289	-4.2980	-43.9222	13.0978	15.9995
4096.0908	5.9266	19.3061	10.4208	0.9695	11.5094	62.9488	0.7749	-10.4865	-0.4432	29.0612	24.2469	22.3502	-1.9574	-5.7245	-1.9955	8.8431
4104.0910	1.7339	16.7336	1.2872	-24.6885	5.0683	71.2363	14.4969	-5.3942	7.1764	41.0496	32.3327	12.0261	7.7828	2.8435	-14.5666	-9.3282
4112.0912	8.7054	6.1589	-8.5893	-38.1916	-22.2619	76.0916	10.7651	-20.1918	-15.8059	18.5102	4.0344	-5.1565	3.4650	-27.0111	2.5657	6.3635
4120.0914	3.8813	13.3759	4.9972	-14.3599	-8.4288	64.0928	4.6484	-14.8648	1.6644	23.0445	15.4336	8.2731	2.5652	-2.0117	-8.8384	2.0004
4128.0916	0.0459	5.7071	8.0565	-11.5529	-3.8764	26.7520	11.9433	-7.7386	6.8825	17.7108	15.9571	4.1294	5.0287	-4.1044	-12.9916	-8.6811
4136.0917	3.8910	-3.2766	-2.5072	-31.0737	-14.7974	26.0314	0.3123	-24.0388	-11.6849	3.4508	-3.3233	-11.0551	-0.4426	-29.1299	-1.5878	8.0380
4144.0919	-2.4677	4.9940	2.2012	-27.4903	5.5311	37.7118	3.3605	-6.7094	-2.5561	25.2120	3.6573	4.9316	1.1568	-18.6154	-10.1129	1.8435
4152.0921	1.2776	1.7700	-1.7324	-28.5066	-4.7680	33.0277	6.7889	8.7904	-10.1806	26.6917	1.7914	3.1932	4.3472	-27.8829	-0.9231	5.0233
4160.0923	3.7895	-8.0378	-22.7246	-53.3424	-25.1245	34.0124	-0.7263	-5.9536	-22.0888	11.6507	-9.2742	-21.7644	3.9745	-33.6926	0.6788	13.2713
4168.0924	-1.4088	-7.2849	-17.3582	-53.7743	-8.1562	26.0882	4.7590	-5.4862	-14.5635	16.5943	-7.0027	-16.7322	3.7666	-30.7204	-5.4174	5.0269
4176.0926	3.9280	-4.8208	-8.8764	-37.8217	-3.1366	23.2335	0.4254	-8.7842	-20.9520	11.8851	-6.5670	-7.8840	-1.5294	-42.2279	6.4291	16.2025
4184.0928	3.5499	-5.0758	-20.9028	-39.8693	-4.8757	37.4555	7.6620	-9.4676	-27.6563	8.0676	-14.0045	-11.8924	-3.1546	-43.9824	5.7835	17.1963
4192.0930	2.7038	3.1981	-6.0063	-31.6641	6.4025	49.7437	17.0003	8.3124	-17.3459	23.7022	-8.4952	5.9502	0.0267	-32.4781	9.7122	14.7138
4200.0932	4.0037	16.0165	14.5018	-11.8312	14.9387	53.0575	5.3394	10.8853	3.8559	36.6923	17.9924	23.1958	2.4460	-0.3792	5.1255	13.7851
4208.0933	-1.4884	17.2819	9.4792	-6.8586	16.4400	49.9521	6.0160	7.0986	12.9814	35.8538	23.4984	20.6019	4.4844	15.6738	-9.5855	-3.9612
4216.0935	0.4737	14.2597	10.5071	-7.8700	8.5784	51.9758	6.2132	9.4073	3.5429	30.8909	8.1453	20.4557	2.9805	-0.1010	0.5872	0.8504
4224.0937	2.0888	2.9386	-3.2783	-24.6498	-7.5973	40.8103	10.2919	5.7349	-9.1034	19.6044	-2.9783	2.0304	3.4451	-18.7695	1.8553	5.9716
4232.0939	-0.2311	-14.5013	-25.8424	-45.0581	-24.5869	20.1780	19.2009	1.6742	-25.1605	-2.3766	-29.5061	-24.5751	2.6734	-39.6372	1.7943	6.2354
4240.0940	-0.1352	-2.3180	-1.8692	-14.0278	-12.7496	33.9489	11.5420	8.9201	-16.0343	-1.4620	-38.6268	0.7005	-3.6949	-22.1820	11.2096	20.4859
4248.0942	-3.2227	29.4335	39.7082	37.4003	30.9408	65.6592	11.9504	23.0205	17.8413	33.2923	-2.2323	54.7182	-4.5473	20.9693	3.9342	9.4776
4256.0944	-5.1700	39.6180	47.4415	37.9434	50.3363	74.1786	10.1963	29.6487	32.7150	57.1821	25.6038	68.5865	0.7838	38.4528	-2.5010	-5.7474
4264.0946	-5.9763	24.7982	24.1257	11.3486	24.3090	56.3466	3.3610	29.1473	21.5658	45.3000	12.4288	40.5522	4.8863	29.1714	-5.1599	-7.2977
4272.0948	-6.0724	15.5259	15.2146	9.6021	8.0921	45.5227	3.7500	21.7744	6.1062	32.3077	-4.5331	29.4557	2.4573	0.0482	-6.5344	-9.8447
4280.0949	-6.8637	26.2957	35.1697	16.6123	29.6497	54.0901	-3.6232	15.2732	19.8553	47.7232	13.4615	47.3281	0.9365	10.7158	-9.7758	-9.3515
4288.0951	-10.3524	18.1273	20.7329	-5.8978	24.5162	38.7994	-1.9479	16.3920	25.0309	43.1415	14.0219	28.5423	6.4436	25.8346	-15.7768	-16.9631
4296.0953	-9.6711	-2.9570	-7.3158	-29.1185	-3.6590	21.1090	5.4132	10.6792	-4.3363	17.1637	-21.7545	-1.8941	4.7824	-16.5079	-8.9210	-15.9218
4304.0955	-8.7956	15.4703	24.0207	-0.0960	22.0789	44.6780	6.0425	12.5498	9.0233	37.3481	-4.9715	33.0309	0.7085	-9.1391	-8.5690	-11.2710
4312.0956	-8.1067	29.2671	37.7316	23.8838	41.1710	47.3459	12.8122	22.3304	32.7278	51.7341	30.5017	51.3525	5.7860	29.7022	-13.6248	-24.8144
4320.0958	-4.7656	-2.2470	-13.6003	-17.2038	-2.7010	9.4504	19.5810	12.3958	2.6103	9.9652	1.6087	-6.5299	9.0857	4.0335	-7.3346	-25.3852
4328.0960	-2.0385	-14.5332	-27.3848	-32.8803	-24.6223	1.1603	17.6296	3.1026	-12.8989	-10.4319	-20.5402	-27.5219	6.6356	-13.2969	-0.8448	-12.6600
4336.0962	-0.9014	4.8571	2.4652	4.8524	-0.7329	14.1566	10.1294	6.5483	6.7768	5.3950	3.0694	6.0061	4.2463	12.0427	-0.3539	-13.9175
4344.0963	-4.0214	7.2184	3.2201	9.9306	12.1800	6.2030	11.7123	3.1877	16.2935	7.3279	15.1720	8.0376	4.7534	25.4585	-8.6844	-23.8708
4352.0965	-3.7543	2.8996	-0.2433	4.8608	8.6801	-0.3273	16.7165	-0.6001	12.4293	3.4127	13.7574	1.8985	4.9311	15.6379	-10.2656	-25.2077
4360.0967	-1.4716	4.3713	6.1438	19.0758	5.3954	-7.6749	13.7062	5.4660	12.2146	3.4505	17.3786	7.7696	4.6333	13.6227	-7.8690	-22.2034
4368.0969	-3.4943	-1.1168	-2.0600	15.7115	-3.5246	-23.6844	10.3785	7.1626	14.4362	-4.1604	15.4367	-3.5132	6.7118	22.9515	-13.5230	-25.0145
4376.0971	-2.4713	-1.4411	-3.1757	11.1085	-4.2713	-18.3242	5.7137	1.0156	10.3699	-5.9724	11.1366	-4.9530	4.7729	17.6037	-10.2182	-20.7632
4384.0972	-4.6346	2.1647	5.5429	16.2817	12.1539	-17.9334	10.0739	7.1468	13.9226	2.1559	12.8835	6.1237	2.6019	16.4375	-11.0812	-16.1661
4392.0974	-6.3478	1.7153	10.6279	22.6203	18.3685	-37.2532	12.6336	16.4771	22.4436	5.8533	23.7645	8.4160	4.5859	25.5039	-17.3295	-16.2814
4400.0976	-1.2637	0.2830	7.9322	21.1399	10.2404	-39.9055	9.1098	17.0962	17.3794	4.8821	30.2918	4.5522	5.3374	20.6257	-12.3685	-8.2731
4408.0978	-0.0716	-8.4487	-5.9483	5.4721	-2.9949	-39.1143	20.2709	19.0944	6.2572	-5.4883	14.2596	-10.3190	5.8309	9.5836	-7.7255	-1.4331
4416.0979	1.3116	-9.0398	-2.8463	9.5291	-5.9021	-37.7163	18.2304	11.5994	3.0927	-13.4095	6.3703	-10.5082	2.2774	4.9518	-4.2404	5.5422
4424.0981	0.6490	-4.7764	1.1224	10.4965	5.3351	-32.9876	11.9733	7.6078	7.5128	-8.9608	11.9152	-5.2141	0.0383	12.5464	-5.3762	10.3322
4432.0983	-2.1826	-15.1455	-13.1962	-7.0996	-5.6511	-48.4473	18.7607	18.0733	5.6368	-16.7833	-0.1725	-22.4736	4.0617	17.0638	-6.6373	10.3749
4440.0985	0.4041	-13.1027	-1.0766	4.0746	-11.0078	-51.0515	11.6108	15.6966	5.5488	-16.7763	0.9567	-15.7502	2.4957	10.1944	-4.4979	15.6726
4448.0987	-2.4578	-11.7824	0.9023	-4.0924	1.5147	-46.9867	10.7526	8.9282	5.6139	-7.8654	4.7622	-12.5467	0.8264	0.4588	-10.9410	13.9129
4456.0988	-4.8413	-29.2634	-26.4084	-26.8579	-15.6575	-69.1983	13.2487	8.0803	-10.7152	-28.3532	-19.8708	-40.9965	0.8897	-15.4495	-10.1349	14.0614
4464.0990	-1.0251	-20.2273	-14.0067	2.9391	-19.9553	-59.2696	5.3708	5.5430	-7.1724	-31.0573	-14.8070	-27.2404	-2.2846	-6.2704	-7.7436	17.9347
4472.0992	-1.9438	-6.9442	-3.7234	6.9876	-7.9942	-29.8449	4.2529	5.3318	6.1407	-12.4225	1.8943	-11.5888	-0.0914	13.8230	-12.7607	11.3401
4480.0994	-3.5017	-14.6798	-17.6768	-9.9758	-9.6771	-38.1210	1.0348	7.0323	-2.4229	-18.6367	-11.5693	-23.6959	-0.4428	6.9443	-7.7686	13.3222
4488.0995	-4.5340	-7.1183	-5.3692	16.1825	6.1924	-40.2307	3.3993	14.0008	5.0118	-16.0796	-6.2528	-6.6878	-3.6678	17.1724	-7.6429	13.9493
4496.0997	-3.8782	-11.1227	-12.6357	8.8121	-3.4062	-40.0961	8.8449	12.4619	2.5967	-22.4562	-10.8465	-15.7872	-1.6201	17.4925	-6.6352	10.6823
4504.0999	1.0105	-22.4593	-22.5140	-2.2197	-23.3729	-49.6734	5.0752	7.6579	-17.5368	-39.3445	-32.6400	-30.5775	-4.1140	-11.0890	7.7191	21.4558
4512.1001	1.5545	1.7191	8.5523	31.3523	0.2147	-19.2171	1.1242	22.9476	3.5217	-6.3195	-2.2090	9.9431	-2.9554	13.5878	3.8077	19.3913
4520.1003	-0.7305	14.6383	12.9841	28.3399	8.0578	5.5584	-6.1846	24.7618	22.4362	18.0737	26.3763	19.7955	3.5962	45.1461	-9.8750	6.4653
4528.1004	-0.7259	6.4419	6.2056	15.5458	8.3309	-5.0028	-5.7662	9.2987	11.8944	6.3616	14.9334	8.8398	0.4906	23.5856	-5.4774	3.9376
4536.1006	0.2522	7.9931	17.4345	17.5787	13.1713	-2.8845	-1.3672	9.2029	11.8228	10.1729	13.4778	16.8750	0.0689	13.1863	0.1029	2.9693
4544.1008	-0.5019	-0.4031	3.4408	-5.8861	-4.8933	-7.4975	-1.4864	14.0603	10.8543	4.7963	5.1717	-2.1056	5.3859	21.5931	-0.5421	4.4721
4552.1010	-1.5697	-7.6027	-6.6464	-13.1964	-1.3447	-17.1317	5.1869	13.9413	3.1242	-8.3000	-11.4421	-11.1831	2.3267	15.7329	6.6036	9.6131
4560.1011	2.9444	-4.0147	-0.4038	-6.7867	4.4490	-2.8808	5.3229	-1.6898	-6.5075	-9.5289	-11.6766	-3.4006	-3.4688	-6.7056	14.1253	14.1186
4568.1013	5.6008	-7.0592	-4.0221	-11.8914	-9.8775	3.0857	4.5972	-15.0409	-16.9591	-12.3040	-13.1957	-9.6030	-3.8178	-30.3755	11.6700	10.0989
4576.1015	3.7428	-4.8151	-2.1419	-5.3560	-9.1368	0.2431	7.8286	7.2403	-12.4541	-2.0630	-10.5489	-2.1841	0.8193	-22.3709	11.9505	3.4524
4584.1017	5.6472	0.6605	0.3432	-1.4001	-7.6813	6.4024	2.9749	19.3699	-3.8727	3.6314	-2.0900	2.8707	3.5660	2.8510	17.1463	9.3923
4592.1018	6.5887	-4.7016	-6.3829	-9.1454	-14.1036	3.9105	2.8866	-2.7135	-8.2996	-12.7305	-8.9506	-10.4189	0.5125	-2.1272	16.3556	9.4112
4600.1020	6.7474	-8.4991	-6.9363	-8.0188	-23.6043	4.1186	1.8623	-12.7123	-19.2388	-19.3864	-21.5813	-12.8998	-2.2007	-27.4408	16.5330	5.0942
4608.1022	7.7966	-0.6245	2.8459	4.7780	-22.2024	18.6721	-1.2353	-4.7729	-16.3502	-8.9022	-17.1033	1.0630	-2.3528	-24.1821	17.1567	8.3295
4616.1024	5.2246	1.6247	0.2762	0.1957	-12.7681	19.0311	0.4954	-3.5287	-6.9465	-4.1649	-7.3962	0.4537	0.0708	-5.6723	11.9587	2.1056
4624.1026	4.3980	-4.6224	-11.8717	-12.6358	-17.9321	12.9673	-3.7068	-9.7873	-12.7312	-12.7307	-15.8083	-12.2451	-0.2188	-8.9516	13.2034	0.4781
4632.1027	4.6189	-0.9621	-6.2829	-2.7067	-7.2085	17.2844	1.9971	-6.7088	-10.9424	-13.0193	-17.2853	-3.8048	-3.1110	-5.0168	17.2716	6.1043
4640.1029	5.1233	-2.7668	-8.3371	-8.5366	-4.9792	8.5769	8.6415	-1.8794	-7.2159	-9.7931	-6.8600	-7.3650	0.4953	-0.3685	15.7506	3.2143
4648.1031	7.2069	-7.4427	-16.8645	-15.0681	-27.7745	8.9092	-6.2775	-11.8767	-18.7724	-13.8146	-11.3241	-18.0592	0.6739	-19.0556	12.1796	2.0767
4656.1033	4.4950	2.8014	-5.7653	2.3683	-15.2071	27.0685	-5.7809	-13.5111	-13.9404	-2.1259	-5.5626	0.0477	-2.1685	-19.4813	4.0971	-3.6026
4664.1034	4.1294	7.4538	4.5859	3.1704	5.5621	25.9247	10.8477	-6.3993	-0.9206	7.7979	10.7860	9.3985	0.5002	-5.0543	4.7123	-6.0307
4672.1036	5.0795	5.6186	8.4595	5.2462	2.1829	20.4048	8.4081	-11.5616	-0.2331	-1.3014	4.0017	7.1153	-1.3905	-2.5705	8.7860	-0.4501
4680.1038	0.2192	-6.7188	-12.5359	-8.3952	-14.9341	5.4341	8.2560	-11.8717	-8.6164	-17.0469	-17.2504	-14.6858	-0.9773	-7.2185	1.2840	-3.8087
4688.1040	1.1256	-16.5827	-27.4414	-21.0577	-22.1723	-10.4796	14.3624	-4.8973	-16.6263	-27.5961	-26.2695	-30.2413	0.0033	-11.1445	6.2152	3.4954
4696.1042	3.6737	0.4151	0.0835	12.6347	2.0417	8.3155	8.1800	-6.6109	-7.8734	-16.6373	-15.2736	2.1918	-6.6136	-3.9387	13.5914	10.3875
4704.1043	3.4749	-2.3499	-7.5203	3.3291	-6.7855	9.1957	6.4021	-13.5603	-10.4779	-16.8186	-12.3173	-6.2480	-4.2703	-9.1439	7.9796	2.0255
4712.1045	6.4740	-12.6964	-23.3497	-16.4091	-24.0845	-1.6573	8.4952	-15.3760	-19.4961	-26.1712	-15.5814	-26.6722	-1.2817	-17.2108	10.3900	6.1492
4720.1047	4.4800	4.0324	2.3984	13.1235	1.4599	18.4208	7.6491	-10.5112	-6.5304	-9.7635	-6.6197	5.6767	-5.4520	-5.7065	9.7858	5.7604
4728.1049	1.3252	8.5326	6.4446	13.4435	8.4013	24.3523	8.7155	-5.5589	1.4991	1.8243	1.2966	12.4370	-2.6307	2.7691	3.1544	-3.7662
4736.1050	1.6657	3.3246	-4.5507	-3.4196	6.9570	11.0734	10.3255	0.3474	4.6998	2.6542	11.2146	-0.4409	2.1111	14.5588	1.3281	-2.0365
4744.1052	1.5177	-9.8733	-19.1642	-19.7816	-5.2243	-5.0614	14.8932	-8.8373	-7.3594	-16.7237	-7.6895	-21.2768	0.3292	-1.4912	3.8908	1.8534
4752.1054	2.6821	-11.7766	-10.6706	-9.4634	-12.2588	-2.3456	12.8725	-23.3813	-17.5140	-30.1605	-28.7067	-18.2653	-6.4775	-25.4512	9.9895	5.8279
4760.1056	-0.1805	15.6790	25.1565	24.9005	20.9630	25.8808	10.2739	-3.3546	13.8556	11.9994	11.3444	27.5046	-2.8058	11.4173	-1.0379	-3.7306
4768.1058	-2.4621	-1.3808	-6.7132	-17.8207	-6.7493	5.6263	12.8429	4.4922	8.6190	9.1999	11.4313	-8.5732	8.7713	11.9119	-11.2917	-14.7924
4776.1059	0.0421	-39.7587	-49.9808	-59.9645	-49.4063	-46.6256	12.5502	-16.2412	-32.8798	-44.2271	-41.0157	-67.3846	3.3679	-43.2148	0.0080	2.0117
4784.1061	0.9850	-34.7253	-35.1073	-33.9281	-26.7556	-49.9562	22.8635	-8.5041	-36.2050	-43.2068	-43.9223	-47.4134	-5.1462	-56.5253	5.9896	19.1675
4792.1063	3.3553	-20.3381	-19.5746	-14.5922	-15.6321	-24.6930	23.7574	-1.6958	-27.3737	-26.6638	-27.8835	-25.0321	-5.3648	-43.9801	6.7961	21.8547
4800.1065	2.6295	-3.3708	2.0174	10.4756	2.1413	-10.4222	12.8163	-1.2432	-6.8148	-9.7159	-3.3116	-0.2690	-5.0520	-14.5866	1.1802	15.0453
4808.1066	0.1672	10.8610	19.4433	32.1980	17.6591	-5.1300	14.8773	16.4452	14.8889	16.5985	28.9298	22.9816	1.0496	11.3605	-11.3980	0.6609
4816.1068	1.7864	10.7568	16.7470	30.0646	5.7412	-3.9394	5.5823	11.0944	15.1528	16.2054	34.3897	18.1061	3.3718	14.0367	-13.8674	-4.0064
4824.1070	0.6056	8.0758	16.6840	25.4202	13.6689	-14.8222	-0.1841	2.0829	16.0663	9.4015	30.9854	14.1863	0.4191	15.7343	-12.0395	-0.8333
4832.1072	1.2022	3.5856	19.6631	26.0208	17.0884	-24.2904	7.6852	9.3480	5.9725	8.4540	20.0520	16.9971	-2.2227	-9.1583	-5.2984	6.6919
4840.1074	1.4472	10.0461	32.4514	39.8443	26.4569	-23.4578	1.7588	10.3953	10.7232	17.2519	29.7872	30.6537	-3.8639	-9.2015	-7.0346	7.8209
4848.1075	-4.0467	16.7623	35.8769	38.8899	44.0848	-31.3236	-2.4420	15.8755	35.5702	32.1066	57.9624	34.7218	2.4443	31.6194	-22.0293	-6.8959
4856.1077	-4.6423	15.0513	33.4638	38.1945	36.4077	-33.4990	-7.4139	14.1184	32.9105	31.0333	55.0963	31.9796	3.4982	26.0109	-23.7243	-13.8119
4864.1079	-1.7903	5.6397	22.8771	30.8792	19.2733	-41.4872	-8.0217	7.6695	15.8192	18.3480	40.5830	18.9658	1.7315	-1.4281	-18.6143	-10.6209
4872.1081	-0.6674	-15.4678	-7.7632	-0.8892	-3.2122	-64.0312	2.9017	11.6551	-4.4433	-5.1260	13.8606	-15.3760	3.2845	-20.0022	-10.0960	-1.4954
4880.1082	0.4424	-8.1941	7.3962	19.8415	8.8336	-53.2168	-1.7346	7.2562	-4.1598	-9.4021	3.6771	1.1046	-4.6506	-19.2586	-0.5547	10.6634
4888.1084	0.8709	4.2291	23.1897	30.5374	27.1115	-43.1613	-7.0014	4.8406	14.3158	4.5865	28.8011	16.9812	-3.3843	7.9383	-3.6440	7.5465
4896.1086	0.4677	-17.3663	-13.4166	-11.0039	-2.7878	-65.0302	-8.5147	5.0020	-3.9350	-14.2776	7.4855	-23.3251	1.7719	-5.9610	-1.1046	6.0635
4904.1088	0.9507	-17.1478	-7.4334	4.9579	-7.2066	-59.9470	-17.8681	-4.1230	-15.6809	-26.2099	-16.0342	-16.8800	-6.8538	-26.1592	5.8923	14.5067
4912.1089	2.4972	1.8818	18.4306	27.4585	9.2768	-37.2018	-21.9184	0.6988	4.9822	-0.9375	15.5056	11.6789	-4.4036	-1.5599	0.8554	10.3542
4920.1091	-1.6111	1.6369	7.9097	14.7509	12.0600	-38.9496	-22.9386	16.2107	11.9495	9.9158	22.3839	7.4549	2.1525	17.0560	-4.4407	0.2360
4928.1093	-5.2133	2.7905	6.0422	22.1402	19.2105	-35.4409	-23.0308	18.6037	13.4274	1.3965	5.7322	10.2371	-1.4738	29.2918	-0.2901	0.7040
4936.1095	-1.7822	11.1048	16.2010	28.3111	14.4622	-10.4922	-28.2210	11.6356	16.4472	7.1327	10.6836	19.5980	-1.7895	33.8365	2.2498	3.0134
4944.1097	-4.0663	14.4456	22.2186	27.6860	20.3433	-9.9498	-37.0197	7.1676	18.9835	20.5633	21.9525	26.2571	-0.9551	24.8148	-6.9536	-6.5083
4952.1098	-6.2084	1.6720	4.6317	10.4711	16.6348	-38.5376	-38.3945	0.9678	12.2632	7.1650	16.0309	5.2019	-0.3397	16.8328	-9.2302	-11.7839
4960.1100	-2.5844	-10.8636	-14.6881	-8.4760	-5.3317	-40.9126	-40.3833	-10.4861	-7.3006	-15.3911	-9.2516	-17.7983	-3.0439	-2.2989	2.0463	-1.7903
4968.1102	-6.1155	4.5676	15.1079	11.9116	16.4627	-15.9403	-45.2113	-14.4024	6.7159	-1.4215	-9.9992	12.1004	-7.8075	7.1798	1.6960	-2.5148
4976.1104	-9.1301	17.4606	35.5056	20.6616	33.8486	-7.2354	-48.7326	-12.3079	30.8678	19.7476	16.3871	30.4863	-3.3919	35.6975	-8.4807	-14.7902
4984.1105	-4.6889	11.3510	20.1035	17.3203	18.1318	-11.4464	-45.5193	-15.1835	18.8209	9.9397	16.4494	17.1692	-2.5683	23.9309	-6.1389	-14.2013
4992.1107	-4.1162	14.0323	24.2570	29.4721	19.6134	-0.8410	-43.0812	-17.3180	14.7878	3.5195	3.6028	24.0913	-7.1204	19.9509	0.2248	-10.0614
5000.1109	-7.3909	11.1233	16.7180	10.3865	22.8180	-1.1408	-41.5505	-15.1832	17.4819	8.1360	3.2825	16.8401	-3.7378	25.5354	-2.7283	-15.8472
5008.1111	-6.3662	-5.6955	-10.8900	-15.9565	13.9756	-22.0106	-28.2780	-15.3444	1.1019	-10.2251	-11.3145	-10.9258	-2.6665	9.3777	4.2768	-13.9070
5016.1113	-4.1060	-5.1893	-6.6085	-15.6804	5.0091	-9.2689	-27.7809	-21.8523	0.9206	-20.9646	-25.7280	-12.1337	-4.5288	15.7595	13.5608	-6.5951
5024.1114	-3.8376	-0.3665	-1.7552	-19.5512	-1.4992	7.2574	-33.3181	-30.2109	4.6495	-10.0644	-14.9196	-9.2389	-2.1840	14.6105	4.4464	-12.3107
5032.1116	-1.1121	-7.4604	-13.0744	-11.9492	-2.2150	-13.7098	-24.5798	-31.0914	-8.3891	-21.0173	-13.3175	-16.7277	-4.7258	-6.8267	5.5841	-12.1568
5040.1118	1.1518	-3.2340	-3.6259	13.0878	1.5344	-15.5873	-23.9696	-26.7241	-6.1951	-30.2756	-18.9139	-6.2542	-8.9279	2.9978	14.8693	-4.2843
5048.1120	2.1712	7.1318	9.6654	16.8406	8.3494	6.2858	-23.5742	-31.1992	4.4810	-15.2186	-1.6698	6.6127	-7.2231	13.1764	10.0472	-7.1987
5056.1121	3.1189	11.9432	8.5255	6.6469	7.7259	24.9087	-23.0523	-33.2624	9.5235	-2.8608	12.6640	7.2364	-3.3206	21.5455	4.9501	-10.6691
5064.1123	-1.8099	12.6862	-0.7027	-0.6222	1.2704	29.0900	-30.4693	-16.0339	15.9669	5.3095	10.0852	4.0260	2.0047	43.4010	-1.7543	-16.0981
5072.1125	-4.5155	5.2788	-9.0635	-7.1947	2.8582	10.1255	-25.9025	-4.6571	9.5477	4.6391	3.1113	-1.8848	2.9894	30.7146	-2.1389	-18.2243
5080.1127	1.5002	6.7339	4.1562	4.4159	7.3898	12.0771	-16.2397	-6.1561	0.7309	4.1874	2.5357	9.1476	-1.1217	4.9436	9.9235	-7.6493
5088.1129	5.2462	17.6939	19.3210	19.3119	7.2829	30.6870	-14.5664	-2.5901	8.8895	19.1802	22.3140	25.2675	1.5014	11.6929	7.8737	-9.2512
5096.1130	1.3586	13.2176	8.0862	1.4146	-0.1249	25.0826	-17.2365	-2.2924	13.9846	20.8792	25.2802	11.8650	6.6535	23.4951	-2.8841	-17.8872
5104.1132	-2.1435	1.0804	-7.9184	-16.3969	-8.7258	16.1969	-14.3201	-6.2873	1.9876	2.9698	-4.8001	-6.3146	3.6195	11.3313	-0.0048	-12.7669
5112.1134	2.1680	4.2579	-1.9596	-0.2812	-6.2694	24.2517	-9.5839	-12.1308	-5.5325	-2.1707	-7.3783	2.1958	-1.3879	-2.9079	7.9538	-7.2478
5120.1136	6.1405	14.3729	14.3210	13.1357	-0.8686	37.3698	-8.4906	-12.1871	3.2728	10.5873	13.4914	17.6180	0.0533	3.9491	7.8797	-7.0702
5128.1137	5.0610	11.6231	10.8629	3.8920	-1.6271	31.8565	2.1452	2.8042	6.8669	15.9984	16.4869	13.8186	4.7554	10.7383	6.1459	-5.8061
5136.1139	4.2705	3.8830	-4.3022	-9.6930	-5.0719	19.3122	8.1587	7.5084	4.4221	7.7613	12.1482	-1.2714	6.7050	16.7371	6.7041	-3.5653
5144.1141	4.0119	-9.1429	-21.6834	-27.0827	-22.8171	7.3770	9.6282	-2.4334	-5.0926	-16.4970	-11.0732	-25.7671	5.2121	13.2824	10.0474	2.6165
5152.1143	7.6461	-27.0895	-38.9819	-40.7304	-41.7772	-12.9901	17.8513	-14.8557	-29.8791	-46.5448	-40.7507	-50.3940	-0.2760	-23.0458	20.9618	15.9269
5160.1144	9.9171	-16.7372	-20.4551	-31.1457	-25.6257	3.6483	14.0806	-22.9142	-26.0344	-32.4969	-27.0074	-31.6320	-4.1032	-29.5719	21.1072	22.9858
5168.1146	5.9598	0.7979	0.1410	-16.6387	-7.9149	26.7108	11.6662	-9.0143	-1.6879	-3.5421	-2.8764	-5.7581	0.3479	3.6593	9.6711	15.1772
5176.1148	5.4680	-11.3680	-20.9849	-21.1385	-23.0482	0.4836	16.6556	2.4513	-11.0627	-18.0850	-12.4830	-24.6965	3.0420	-0.0522	10.0015	12.0960
5184.1150	7.7056	-23.5502	-29.9969	-28.4315	-35.9779	-19.1732	18.8378	-6.9617	-25.7839	-37.5482	-28.8297	-40.8899	-0.4753	-24.2556	14.8067	20.6512
5192.1152	9.1529	-22.4632	-19.6626	-29.8928	-31.0545	-15.6600	24.7258	-15.2238	-22.7673	-39.1017	-28.7881	-37.7596	-2.2799	-26.3773	17.7084	26.6857
5200.1153	8.2405	-10.6664	-7.3975	-25.4950	-12.0217	8.6623	25.1649	-14.8769	-13.9395	-21.2470	-16.8241	-19.6414	-2.7649	-17.5217	16.8173	24.6464
5208.1155	4.0962	10.5829	21.1706	-1.8139	8.3178	42.0175	25.0872	-2.1094	6.1767	13.6900	4.5025	17.1845	-0.3488	-1.4478	5.1398	12.7571
5216.1157	2.8749	6.6320	16.2673	0.4474	-0.1465	18.7030	28.2803	8.3788	12.5711	15.9733	19.7759	10.0850	6.3870	6.7723	-5.8753	0.7225
5224.1159	4.4532	-20.0413	-22.6166	-34.1429	-26.2950	-19.8410	30.7526	1.8797	-15.0262	-14.1110	-4.5735	-33.8054	5.8698	-25.3407	-1.9307	9.5502
5232.1160	7.9332	-21.5300	-15.8715	-29.2293	-32.2918	-7.0160	34.4072	-6.9559	-28.7909	-26.0277	-28.9435	-30.5115	-1.9071	-49.9145	10.2160	27.4611
5240.1162	7.8682	-3.7738	10.1032	-10.3535	-16.5547	16.1737	28.8508	-11.8107	-4.5800	-9.2736	-4.7971	-6.6634	-0.8250	-16.6879	4.7138	22.7759
5248.1164	2.9785	-10.2669	-7.3236	-38.2736	-19.7538	13.8964	28.4694	-9.9628	-5.3279	-4.7222	-6.5484	-22.2064	3.9364	-14.5694	-4.1990	14.0669
5256.1166	3.2164	-15.4983	-16.7484	-36.2441	-25.1259	16.9058	36.2860	-3.2292	-23.8270	-11.7262	-28.7900	-24.1228	-0.5493	-42.2062	1.8638	22.1458
5264.1168	1.2595	5.4895	7.6561	-4.9094	5.0642	37.9669	34.3979	4.2555	-1.0710	11.4794	-1.4024	9.1625	-1.6422	-10.3552	-5.3062	18.7853
5272.1169	-2.1587	-2.4238	-3.4457	-29.5716	3.3699	20.5959	34.0123	7.5374	2.3621	13.6876	2.2806	-6.0233	4.2434	-4.9487	-10.8478	10.3855
5280.1171	1.7967	-26.9213	-36.0911	-56.5041	-25.7821	-10.8086	38.5990	1.2227	-28.5751	-16.2883	-25.2763	-43.4624	3.0715	-45.8110	-0.6939	18.0245
5288.1173	1.7337	-14.9209	-27.4919	-25.6935	-10.1420	7.6429	39.4704	3.1340	-27.0147	-11.7670	-21.6525	-22.5336	-3.4155	-40.8792	-2.0153	22.4093
5296.1175	-1.9297	-2.0868	-12.0331	-4.6004	3.7180	22.7937	35.0374	9.1718	-12.1481	0.9496	-13.5288	-1.7860	-4.2333	-18.8167	-8.7689	17.9386
5304.1176	-2.0326	-7.6557	-18.5572	-27.8372	-5.1140	15.7486	34.1356	5.6576	-7.8975	1.6367	-7.2684	-16.2745	1.6919	-11.6821	-12.0354	13.0282
5312.1178	0.1281	-16.4376	-25.9373	-37.9267	-17.2020	7.3876	39.6662	0.7736	-18.5686	-10.5699	-19.6781	-28.7551	1.2603	-28.8408	-6.2753	15.8690
5320.1180	2.8094	-22.7968	-28.4583	-28.2004	-26.7730	-2.0877	39.8903	-9.8515	-32.2343	-32.0615	-39.7651	-34.5900	-5.3052	-48.8218	2.1781	23.5016
5328.1182	1.8796	-16.9997	-24.9999	-36.6982	-13.6599	8.0459	40.4116	-13.1893	-21.1605	-19.1237	-21.4880	-30.7035	-2.8656	-33.2794	-3.8230	20.9149
5336.1184	2.9860	-17.9727	-25.2666	-36.8992	-23.4085	6.7453	38.2159	-9.0287	-22.0461	-17.8886	-20.6096	-32.5444	-0.7730	-34.5623	-4.5954	21.4562
5344.1185	5.3543	-16.5377	-20.0978	-12.3577	-31.9140	3.2428	31.4988	-17.0969	-26.0967	-31.2800	-27.1276	-28.6224	-6.1579	-38.9449	-3.3391	25.7221
5352.1187	1.6781	-0.3368	-1.5331	-3.4166	4.0200	20.8377	34.5084	-13.4184	-5.0897	-3.7444	1.6426	-3.1880	-5.0115	-15.9744	-11.7078	17.2958
5360.1189	1.1462	-1.0398	-2.0232	-11.2266	-1.8860	18.3011	35.0020	2.4132	-0.6309	5.1899	5.2015	-3.9348	1.6284	-7.8694	-10.2672	11.5056
5368.1191	3.4228	3.7296	1.0923	0.6852	-14.3088	32.2005	27.3010	5.0566	0.9973	2.1082	0.2927	0.4553	1.8740	4.7252	-5.3299	13.2868
5376.1192	0.0855	20.5582	23.8689	18.5497	23.0693	51.7546	23.3536	7.5926	13.4383	26.9859	16.2052	32.8124	-1.8464	11.3631	-6.9271	9.0851
5384.1194	-1.6535	12.5295	16.0119	5.3259	24.5375	28.1842	28.4266	16.3810	10.8804	29.8574	20.5016	23.7578	2.1006	1.4423	-9.7539	3.1875
5392.1196	1.2454	0.1953	-6.3635	-15.3208	1.4835	17.7808	36.8301	15.3986	1.1401	15.8605	15.6284	-2.3760	6.2167	-3.0622	-9.6564	5.4135
5400.1198	2.6442	-6.0969	-13.9768	-20.4273	-4.3970	17.4816	36.9799	3.8641	-15.2249	4.5661	-0.8042	-9.8062	1.1256	-30.9487	-4.8319	10.2500
5408.1199	3.2954	-10.7651	-17.7153	-21.4136	-10.5958	12.5837	36.6481	-3.2419	-23.1254	-5.5490	-11.6932	-15.6782	-1.3537	-43.9057	-1.8720	11.1044
5416.1201	3.7653	-3.9452	-5.8340	-9.6649	-5.3426	18.1997	35.4076	-4.6180	-11.2392	-3.9058	-3.9740	-6.5475	-1.0948	-24.0446	-1.4598	10.2063
5424.1203	1.2471	5.4134	11.5835	8.3995	7.1836	17.3181	26.0536	-1.9387	4.6057	5.1420	7.3370	10.1808	-0.5083	-3.7563	-4.5650	1.5578
5432.1205	-1.2179	14.1083	13.4745	15.0401	17.8839	25.9756	17.3916	2.7058	16.6959	17.2068	22.4857	19.2360	1.9814	20.7322	-10.1023	-8.2831
5440.1207	-1.3246	2.6570	-5.6284	2.3665	3.8612	12.9812	11.3072	-4.6135	-1.4699	4.3027	6.9251	1.1261	-0.5168	-4.9074	-10.5809	-6.2680
5448.1208	-0.7342	-12.8702	-20.3889	-8.0669	-21.6846	-11.1726	5.6774	-6.0766	-20.8753	-13.6063	-16.7450	-19.1734	-1.6382	-35.4683	-7.8677	-2.4361
5456.1210	-2.2952	12.2813	12.2712	26.9792	9.6207	14.6346	-6.2611	4.4032	8.2431	10.9599	7.9816	20.6132	-2.2885	11.0653	-7.3897	-4.5910
5464.1212	-6.6017	27.2519	35.2480	48.3764	40.1191	18.4632	-17.2352	4.6841	28.2703	30.6072	29.8517	47.3168	-3.5857	31.6952	-14.7854	-14.8692
5472.1214	-6.9367	0.7106	-3.4185	6.5498	8.9997	-21.6779	-13.1003	11.2810	3.9931	16.6602	15.8622	5.0279	3.3503	-3.7417	-17.7302	-20.2798
5480.1215	-3.8542	-17.6772	-31.4208	-15.2135	-12.3154	-42.5269	-7.7027	16.9386	-17.6171	-8.4910	-11.4971	-24.1284	2.8443	-20.1738	-3.5718	-6.5482
5488.1217	-1.7945	-6.6006	-10.9893	15.5789	-1.1699	-26.5823	-8.9185	9.1893	-11.4996	-14.5029	-16.2659	-3.7289	-4.7375	-9.5363	4.3733	2.0859
5496.1219	1.4302	20.9740	18.6906	50.5584	14.2704	19.0297	-14.2018	15.3916	8.7862	20.0097	21.9011	36.2849	-2.7732	15.1220	-2.7273	-3.4163
5504.1221	0.9085	32.6506	28.5284	58.1888	24.3365	33.8292	-24.0417	20.0418	22.3287	38.5353	42.5813	50.8782	0.1997	36.5372	-7.4433	-9.4643
5512.1223	-5.0504	30.5169	27.0989	53.9125	32.7052	17.6216	-33.3261	18.1109	31.5501	35.0224	39.3383	47.0218	0.9102	53.3880	-11.5422	-19.8208
5520.1224	-9.0700	33.8913	28.6702	61.0383	43.4246	14.1140	-35.8799	29.7726	34.5931	46.9437	44.5212	56.4595	2.1620	53.7376	-16.7954	-29.7684
5528.1226	-8.8220	27.1421	21.7125	47.6819	31.8672	8.6536	-37.2477	29.7489	26.4619	44.2273	35.9381	46.8312	3.9998	38.8814	-14.7075	-31.9946
5536.1228	-7.1282	20.7392	13.5016	25.7320	13.5585	10.0352	-52.3781	11.0896	20.4621	35.3714	28.2047	29.8196	4.7178	32.4814	-13.0974	-31.9238
5544.1230	-8.4556	17.4313	11.0863	27.3436	9.6247	3.2612	-65.2504	-0.9828	11.2947	29.4336	18.8622	26.9006	0.3480	12.8070	-15.8763	-33.7279
5552.1231	-12.1473	15.8144	11.4432	30.3262	10.3088	-5.5445	-67.6378	9.0156	13.8006	27.6401	8.5693	27.9335	0.7443	19.1885	-15.4109	-36.0357
5560.1233	-15.7112	27.5716	19.1739	37.3390	26.8418	5.5279	-75.3364	26.7461	32.5064	47.4950	24.8457	43.5881	4.7514	55.8676	-19.1294	-39.9641
5568.1235	-17.7049	18.8776	6.1203	28.1364	22.1675	-12.0604	-76.7304	21.7770	23.8584	40.4142	19.8357	30.6327	4.6761	40.0585	-23.7010	-47.2528
5576.1237	-16.9373	2.2010	-12.0088	4.4542	-5.3137	-24.0024	-76.3845	12.3405	4.1326	19.1743	-9.6982	4.6732	4.3619	11.3548	-17.7893	-45.9206
5584.1239	-16.7688	11.6672	4.1934	17.0144	7.2329	-5.9920	-79.9227	15.8364	6.6928	30.2377	-10.6491	24.4108	0.5455	9.7950	-13.4745	-37.6980
5592.1240	-16.5709	20.2458	16.8059	29.2577	26.4343	-3.9887	-78.3058	18.4987	16.9531	43.1809	9.4924	39.5976	0.2377	19.1444	-16.6800	-38.0773
5600.1242	-17.6694	22.4188	14.0413	20.7648	23.9206	2.7670	-79.9514	26.3754	22.5047	54.8429	19.2401	38.9991	5.2570	29.7630	-22.3591	-42.2522
5608.1244	-20.6869	18.4374	12.6178	18.6356	22.0045	0.2354	-73.0840	32.4358	15.0166	55.8607	5.8639	39.2460	4.4160	10.0040	-24.6739	-44.1128
5616.1246	-18.1775	9.7507	4.4805	13.5994	10.6840	-13.1695	-60.2773	33.0505	10.2970	39.1597	-3.4380	25.3869	5.5183	8.7568	-18.0260	-41.0256
5624.1247	-14.6524	14.2532	10.6114	19.4402	7.9358	-1.4530	-54.6937	36.2831	17.5293	36.3442	-1.2220	28.9876	6.6889	29.1320	-10.5445	-33.8833
5632.1249	-12.9887	15.1263	19.1714	21.2605	15.5575	-0.3265	-44.5252	32.3961	18.3846	35.7119	0.1219	33.6231	4.9363	23.1858	-6.7850	-29.3712
5640.1251	-8.8493	-1.9577	-5.6083	-9.6392	0.4276	-23.7135	-32.1284	29.7420	6.9429	17.3523	-4.1403	1.5032	8.1712	15.8092	-0.8124	-19.9874
5648.1253	-6.3783	-19.6468	-20.2337	-27.8200	-14.3677	-42.1878	-23.0689	17.9543	-15.9132	-10.7552	-36.8699	-21.5614	2.9150	-19.2116	12.0925	-7.3751
5656.1254	-3.7363	-5.9998	11.5518	-1.7472	2.5107	-17.4839	-28.0711	-5.2647	-12.5667	-8.6299	-38.2441	6.2153	-6.1980	-31.2162	20.1590	-6.0306
5664.1256	-0.9063	21.1709	34.8895	25.4919	18.0617	20.7132	-37.6734	5.9204	17.8182	25.9157	10.2134	38.8410	0.3704	21.2168	12.1912	-13.8137
5672.1258	-1.5179	9.4026	15.4260	4.9166	4.1729	-1.4191	-26.1112	28.3874	14.1256	25.9422	10.8787	19.7272	9.1213	22.2119	10.7710	-16.9255
5680.1260	0.7562	-5.1968	0.0505	-17.7658	-2.4949	-13.1962	-13.0437	20.9241	-4.3345	6.1437	-12.6988	-0.4921	6.0672	-4.5520	23.3070	-6.7076
5688.1262	5.4980	8.3375	9.7019	3.7390	7.2178	23.2839	-9.6493	14.8933	-4.8167	9.4988	-8.7883	18.2147	-0.0138	0.5860	30.2247	4.3184
5696.1263	5.0747	11.0611	11.3159	5.1441	6.3228	27.1737	-9.1859	19.7303	1.0020	14.5254	-2.6203	20.4488	2.5529	11.4763	27.3007	1.7159
5704.1265	2.0614	5.3406	4.9661	-12.7213	7.1107	12.0102	-10.0627	14.2794	9.5596	9.2345	0.0982	6.4275	5.8543	28.3142	22.3283	-3.1068
5712.1267	5.1024	3.2251	6.6671	-1.3172	6.5083	8.1556	-4.3046	-0.3857	0.7852	-4.1829	-4.9877	5.7687	-0.0640	9.8247	25.0714	1.1084
5720.1269	10.0620	0.7984	2.5068	-0.8250	-3.2156	10.6940	-0.9086	-7.5729	-10.2150	-8.3724	-2.7798	1.3220	-1.5061	-9.8420	26.9919	6.1736
5728.1270	9.6175	1.6553	-2.7379	-8.6244	-3.3461	17.0571	2.4182	-8.3443	-5.2089	-6.2551	3.9216	-3.3147	0.9925	3.5216	22.7869	4.6908
5736.1272	9.9385	-2.0603	3.4130	-1.7419	-1.9131	2.3349	9.2879	-17.6758	-7.7877	-14.6256	1.7695	-3.7892	-1.6884	-12.2710	21.6072	2.4233
5744.1274	11.2331	-1.7293	8.5075	4.3049	0.4178	-4.8987	11.6410	-17.7015	-6.3092	-14.3396	8.1527	-1.1231	-2.0078	-14.6678	20.9874	4.1923
5752.1276	10.3356	9.9579	16.1095	20.8933	11.0968	13.5496	14.3688	-2.4069	8.5204	-6.0999	14.8718	14.4230	-0.2722	21.3197	23.8409	3.7668
5760.1278	10.2822	8.5400	12.7872	14.5829	6.4349	9.2716	15.0455	0.7822	14.0729	-6.3098	20.0035	8.5047	3.7439	34.6807	22.5345	0.1427
5768.1279	10.5338	-7.6115	-9.2799	-14.5674	-8.4582	-8.7697	18.0314	-12.3963	-1.2620	-22.0876	8.1991	-20.1764	3.2439	11.6183	19.3784	5.4396
5776.1281	11.8691	-5.6533	-0.1436	-2.6958	1.6922	0.0227	21.6282	-24.8544	-12.0062	-27.5233	-4.6419	-9.7577	-5.8795	-15.1732	25.6106	14.4676
5784.1283	10.0915	6.0779	16.7430	8.7886	17.4081	9.9524	17.9281	-21.0857	2.8741	-6.5669	17.6429	9.2812	-4.0019	-2.0566	16.7416	8.1658
5792.1285	5.9749	-2.5749	1.0721	-5.7657	6.6026	-5.8807	20.3358	-13.9275	4.1477	-12.1765	12.4558	-7.9052	0.6289	7.2504	8.4947	2.1825
5800.1286	8.2573	-9.5836	2.0962	-4.9176	-3.8149	-16.4575	23.3030	-17.4423	-5.6726	-26.4842	-4.7650	-13.6290	-2.3220	-10.7610	17.0313	9.6837
5808.1288	7.0862	-5.5004	7.6986	-6.3259	-3.3997	-10.3292	18.7271	-18.4620	3.9162	-19.6682	3.4810	-10.7855	-0.2205	3.7114	11.0816	8.4852
5816.1290	1.1749	-4.1898	0.2559	-4.8642	-0.2038	-3.2675	15.5852	-17.1963	8.4190	-24.7182	-9.5465	-12.2914	-1.4722	22.7606	6.8894	2.6099
5824.1292	2.7989	-2.6987	2.7411	-3.8890	5.0597	-0.9883	17.6281	-15.0175	5.6552	-19.5966	-5.5075	-7.4380	-1.8172	14.5154	10.4963	3.7227
5832.1294	5.0463	-16.9802	-14.9666	-27.3656	-13.2091	-20.0752	24.9356	-20.5242	-7.2882	-29.4651	-7.9014	-31.7880	1.2060	-8.3332	7.8809	4.1894
5840.1295	5.7736	-22.8978	-16.8932	-16.9218	-19.4149	-26.6940	27.4276	-30.6964	-21.3561	-50.0592	-32.6230	-35.3538	-6.3630	-30.9154	14.7946	10.1403
5848.1297	7.1493	0.9476	15.0110	13.7100	11.0935	0.7346	25.2985	-14.3483	-2.6734	-12.8158	2.1661	7.0558	-5.6198	-14.4593	12.8708	10.0096
5856.1299	2.5699	1.7269	8.3831	-1.6979	12.1663	-1.6524	24.0280	-0.8203	9.6110	3.8053	18.4004	2.9372	3.3401	6.6554	0.6401	-3.4116
5864.1301	-0.0871	-6.6740	-2.0642	-5.9723	1.5792	-13.1609	18.7240	-6.4367	3.1939	-15.8067	-5.9329	-10.4961	0.5219	5.6408	3.5383	-2.9496
5872.1302	2.0963	8.6912	13.4740	15.0445	16.5413	10.7709	16.7477	2.4395	11.6329	3.8801	13.1044	14.0406	-0.5973	17.3911	2.9862	3.1214
5880.1304	0.6726	6.6266	4.6750	0.9262	12.0432	12.9000	20.5354	3.9932	13.3576	9.7833	20.5098	5.9358	3.8523	20.5910	-5.3397	-2.7523
5888.1306	0.2960	-12.1307	-16.0017	-21.9000	-11.4797	-14.8027	22.1217	-5.0964	-0.7737	-14.2530	-0.6119	-24.6306	4.5959	2.0524	-4.7287	-3.0933
5896.1308	1.3260	-24.3875	-30.5369	-30.4491	-25.8433	-32.6845	22.5573	-9.4708	-16.6626	-31.5316	-17.9799	-42.0350	1.9744	-20.0065	-1.8242	3.6408
5904.1309	1.0141	-29.0824	-36.1565	-36.6447	-26.7829	-32.1134	23.2757	-21.6544	-24.3123	-44.6095	-33.5948	-49.9814	-3.2827	-29.0209	0.6525	12.6534
5912.1311	4.2911	-26.1284	-35.5379	-33.0150	-28.3068	-21.9210	24.1537	-23.7106	-23.8620	-46.9414	-30.7615	-49.0389	-4.9111	-21.2011	3.5746	24.0466
5920.1313	6.6676	-31.9748	-44.0604	-41.7964	-41.6180	-25.8178	27.7756	-23.7330	-32.1993	-50.3444	-32.1416	-59.3786	-3.3536	-34.3236	2.9481	27.1652
5928.1315	4.5929	-37.6681	-38.4527	-51.8689	-41.8795	-33.5989	31.5329	-30.8977	-34.5263	-55.8891	-46.1420	-63.1883	-5.1637	-48.8467	3.9895	29.3275
5936.1317	3.7221	-33.3549	-30.4146	-35.4176	-36.6156	-33.3069	33.5281	-24.4997	-26.7415	-59.4907	-49.1739	-54.8881	-7.1400	-31.1314	5.6100	35.0329
5944.1318	6.2763	-31.4175	-35.5192	-28.4507	-39.9604	-29.7450	35.7781	-28.3026	-25.9534	-62.9887	-39.4575	-57.2064	-6.7638	-23.0303	3.3988	33.5796
5952.1320	7.7536	-27.6496	-27.6411	-35.2728	-32.7045	-18.6954	34.5551	-35.7864	-25.9106	-51.5835	-30.1737	-50.5902	-6.5638	-34.2194	4.1114	31.5799
5960.1322	5.0978	-26.5867	-23.9536	-29.3093	-24.0148	-17.7413	35.5051	-23.3921	-30.0833	-47.2125	-43.0127	-40.6883	-8.7360	-43.6178	9.7626	32.2868
5968.1324	4.7223	-13.0971	-5.3699	-3.9020	-5.2780	-4.4577	34.6452	-16.6423	-18.1705	-35.4723	-32.2832	-15.9624	-10.1651	-27.5920	12.4541	28.0335
5976.1325	5.1303	11.0531	26.5396	14.9633	19.6888	19.3184	24.4779	-8.4651	14.5652	2.9623	15.9848	18.1548	-3.4324	13.8863	4.1856	16.3493
5984.1327	3.0020	-2.5641	1.5937	-12.4255	5.6219	-0.0050	27.6857	-3.0213	7.7992	-4.8747	9.3663	-7.5544	2.3306	12.0202	1.4473	9.2290
5992.1329	5.6870	-20.0578	-24.0438	-28.1431	-18.1235	-7.8761	30.7661	-23.1765	-21.0150	-40.3092	-29.1926	-36.0900	-4.6568	-22.5893	12.6101	17.8282
6000.1331	6.8006	-8.7527	-8.0814	-10.1012	-16.5143	10.4206	19.5957	-28.0253	-15.8832	-27.1949	-16.9154	-18.4378	-6.4552	-22.8480	6.2197	17.9788
6008.1333	3.3206	-10.6454	-11.9959	-21.9461	-15.4486	-0.9948	21.1441	-13.2257	-8.0150	-14.0466	-4.4686	-22.0491	0.6825	-13.2318	-3.1143	9.7988
6016.1334	2.9326	-11.3760	-13.1538	-21.2241	-13.6984	3.4275	18.3165	-17.3719	-11.4499	-23.7884	-20.5242	-22.6077	-3.2489	-11.6658	5.2042	14.8184
6024.1336	2.1112	0.6470	2.9599	3.6537	-7.5244	17.5550	3.8731	-23.4360	-4.8293	-14.0162	-11.4370	-2.7681	-6.4463	-8.0079	-1.1719	9.4565
6032.1338	0.9664	3.6349	9.6859	2.9089	-7.2967	11.2675	-5.5380	-19.2331	2.1096	2.5947	7.3746	2.6801	-1.2639	-8.4998	-9.9664	-2.7418
6040.1340	-1.5334	15.9980	25.1559	14.8188	2.9902	33.7815	-13.6951	-12.7273	11.7450	20.5073	12.1158	23.6748	-1.1880	2.3705	-12.0859	-6.8233
6048.1341	-6.4454	33.6314	40.0920	37.1129	27.1392	56.4542	-13.5337	1.8638	28.2436	49.3390	33.9550	52.7952	0.6020	21.8917	-24.0083	-20.2579
6056.1343	-8.1478	23.4960	23.3660	17.8802	24.1928	30.8413	-15.2403	10.7011	25.2689	47.0148	35.1763	36.1497	5.5183	22.2361	-23.9261	-26.5797
6064.1345	-8.1914	-1.9911	-9.4354	-15.8857	-12.2210	1.2872	-17.5390	3.4450	3.2156	11.3235	-3.9475	-7.1854	5.6467	3.5230	-16.9468	-18.8367
6072.1347	-5.3252	0.4659	-7.4476	-6.2397	-15.3472	12.4886	-12.9111	-0.8274	-2.1398	8.5373	-5.6420	-3.1006	2.7488	-5.2730	-15.0812	-13.9321
6080.1349	-2.4561	10.5496	5.6371	11.0758	-1.0902	21.8568	-13.7048	9.2217	1.3651	23.8429	10.0997	16.8392	1.8656	-4.2286	-11.0336	-9.3137
6088.1350	-2.7076	-0.4519	-6.6477	-0.2412	-21.4184	6.7276	-12.4587	12.5608	-6.3636	10.8559	-5.0045	-0.8981	3.5284	-10.9754	-11.3361	-5.1762
6096.1352	-2.4728	10.0672	8.8038	15.0909	-12.3418	24.6379	-15.4224	3.9473	2.1860	17.8885	4.0051	14.6052	0.6543	-2.9668	-15.4263	-4.4042
6104.1354	-6.1326	12.2365	8.1254	6.4875	5.5448	22.2470	-12.6536	13.0240	7.7989	34.1547	16.7035	19.4364	3.2486	0.2836	-21.4442	-9.8432
6112.1356	-5.7281	-17.9638	-31.1446	-35.4718	-24.7197	-24.9971	-2.6849	19.8355	-14.9475	4.5985	-10.7391	-28.3211	7.8925	-22.6514	-14.4519	-4.9576
6120.1357	-0.1501	-7.7287	-11.7666	-2.5219	-22.1326	-8.0517	-10.0735	5.9634	-15.0958	-5.6391	-15.7644	-10.3262	-1.2497	-20.7937	-3.4523	8.8085
6128.1359	-2.9079	8.7514	4.7034	14.5533	1.1685	17.5588	-5.0806	13.7457	-0.2989	20.6291	6.6260	16.1273	-0.4546	-6.4253	-13.6921	1.5698
6136.1361	-4.5051	-1.1617	-13.0170	-11.8206	0.0060	1.4222	4.5494	25.7840	-2.7871	21.4699	7.5340	-1.1649	5.2293	-5.2029	-14.2802	0.5680
6144.1363	-1.2684	6.3184	2.4708	7.5631	10.4792	11.6765	0.5493	13.5628	-1.0611	16.3247	6.6886	12.5973	-2.0362	-3.8420	-6.6492	11.6642
6152.1365	-0.7894	1.6850	-4.3969	-1.9235	0.4797	8.4910	5.9695	10.3984	-6.5293	18.2266	11.5001	4.0289	0.6436	-19.2357	-14.2832	6.4461
6160.1366	-0.5349	-4.7087	-12.4142	-9.7486	-12.9137	-1.0897	5.0735	15.4671	-11.9579	14.4190	5.8989	-5.9718	3.0661	-25.7249	-14.5831	6.6734
6168.1368	0.4412	7.8264	8.9289	20.3655	-1.2067	14.5695	6.2932	18.5496	-2.1000	17.9059	7.9815	17.5726	-0.8085	-11.3739	-9.9472	10.6678
6176.1370	2.4479	7.6604	1.9824	11.8408	-8.6848	19.2690	7.5078	20.4591	1.7643	18.0705	15.7680	10.0928	3.4321	4.2772	-9.7659	10.3131
6184.1372	2.2607	16.4153	7.4621	18.1474	-7.2802	39.2247	-6.9095	7.4311	10.8787	19.0875	20.5649	15.7718	1.4238	26.0930	-12.9957	10.8270
6192.1373	0.9512	22.7267	21.9305	32.0981	1.8881	45.1721	-8.8451	-2.2216	12.7778	27.7798	27.9092	30.2723	-1.4697	11.7647	-20.3671	2.9209
6200.1375	-0.0407	14.8363	18.6040	23.5917	3.1570	18.5412	-10.8017	5.9527	5.4077	32.2152	29.6770	25.5665	0.1867	-11.2187	-21.3367	0.6793
6208.1377	-5.2863	20.9617	26.3117	30.9995	22.5426	13.0299	-17.1709	12.6869	21.6562	39.4576	37.1342	35.5504	0.8171	16.7333	-25.2469	-5.4362
6216.1379	-6.8821	4.5574	0.0659	-0.3463	3.8891	-7.2024	-15.2319	5.4856	12.6522	22.5203	24.6916	3.7120	5.0966	10.9634	-26.7110	-14.3181
6224.1380	-2.6003	-23.4040	-34.1935	-30.6930	-39.1082	-29.8049	-15.5974	-8.8066	-26.9284	-19.6042	-26.4286	-39.1519	0.0497	-39.5639	-11.2835	1.9171
6232.1382	0.2688	-23.6525	-28.7991	-17.3013	-40.2011	-29.4109	-10.6083	-13.7347	-31.1553	-33.3369	-37.9436	-36.7110	-5.7915	-43.3144	-3.7328	15.8168
6240.1384	-0.1513	-22.8893	-25.9796	-16.9123	-30.1944	-44.3017	-9.9161	-12.7304	-19.8930	-30.7098	-20.4695	-37.5301	-3.8888	-25.8211	-9.0748	16.5675
6248.1386	-4.6214	-3.3893	3.4444	20.1761	1.6003	-22.9501	-17.1801	-12.4072	-3.7874	-16.1547	-15.3883	-0.3877	-11.0102	-8.7612	-11.6501	14.7687
6256.1388	-7.4737	20.7778	33.7506	49.8605	34.9333	4.1303	-18.2015	-3.4390	24.9614	13.5806	15.3362	38.2210	-8.9564	28.8400	-16.9071	0.1229
6264.1389	-4.9323	4.9012	10.8992	16.2391	9.0110	-19.9678	-12.8449	7.1407	18.1717	8.2669	17.1897	8.4587	1.6574	24.9911	-14.9801	-4.8168
6272.1391	-0.2630	9.2539	22.4535	38.9686	4.7332	-3.5850	-8.6641	12.2036	4.5787	6.2004	1.1337	24.7812	-4.3976	-1.0216	-1.4329	6.3862
6280.1393	-1.0656	32.2655	49.2992	69.2821	38.3437	19.8960	-14.0977	16.6877	29.5690	31.3242	33.3580	59.9979	-5.2167	34.7719	-5.6794	2.1299
6288.1395	-5.5701	14.6807	21.0627	26.1450	21.4287	-8.7589	-10.5552	13.4283	34.9657	16.5707	30.3740	20.6482	4.1639	56.6936	-14.5161	-9.0271
6296.1396	-1.4271	1.3428	8.9967	15.7720	1.2628	-15.2529	-3.2296	2.5050	12.1619	-8.1903	0.5308	2.9924	-0.2079	22.9746	-0.8783	-0.0982
6304.1398	2.2836	10.3360	21.3349	36.8227	14.0069	-6.3371	-6.7962	4.2310	10.8956	-0.2154	10.5355	21.4623	-4.6148	16.9509	4.6110	7.9340
6312.1400	0.1089	14.4311	18.9522	27.4912	16.3255	5.5411	-3.0865	17.2021	20.3806	14.6439	21.1117	23.4046	1.6389	35.9369	-0.6750	2.1176
6320.1402	-0.1444	14.2540	12.2587	14.7601	18.5918	20.4328	0.7636	16.3491	16.6340	15.6379	13.8769	20.5117	1.4208	35.3921	3.7722	4.1383
6328.1404	-2.0264	9.5966	9.4979	21.9037	17.0528	7.9566	0.2932	10.1374	9.8743	4.3463	2.0794	17.0941	-2.8392	21.8133	1.4638	3.2212
6336.1405	-2.4338	17.0430	20.9744	33.9055	16.1748	13.3430	-3.5069	13.9486	20.8280	16.5231	18.0981	27.7904	0.3326	33.0670	-7.3415	-3.4479
6344.1407	-2.9605	16.7045	10.1383	15.3578	22.3224	22.8839	-2.6965	11.1623	22.7252	18.3803	21.2863	19.7877	1.2379	46.2389	-7.3946	1.2149
6352.1409	-2.6810	3.9386	-8.0469	3.9325	13.2001	19.8261	11.2401	7.9379	-0.3883	-3.1560	-13.0290	4.0664	-4.2875	15.4533	3.1385	9.9551
6360.1411	1.8230	18.8103	12.0212	17.7330	25.7537	46.4642	11.0974	14.1990	8.6645	17.3110	6.8194	27.9826	-3.6613	24.9472	8.7023	15.9268
6368.1412	-1.3391	11.6263	-6.5018	-9.7981	27.7646	34.5656	11.2272	7.4830	16.3778	9.9508	11.6292	5.7546	0.2421	50.5276	2.6911	12.5507
6376.1414	-2.1732	-19.2315	-44.4949	-29.9411	-10.4995	-4.4865	17.5022	-7.7354	-20.9737	-38.6538	-41.4144	-39.1845	-5.9031	-0.0699	6.9712	17.0279
6384.1416	0.6440	-3.1485	-20.1688	5.8681	2.5399	24.9274	12.9111	-9.0359	-19.6893	-31.1518	-42.2978	-8.2599	-14.6947	-2.4680	12.6609	31.3466
6392.1418	-5.1191	20.2119	2.9067	30.0727	35.3632	62.9236	17.4252	-1.7556	11.6184	-10.6665	-26.0430	24.1085	-14.5289	52.0035	6.3954	22.9830
6400.1420	-6.7272	14.0683	-7.5762	15.4348	28.8714	48.3508	16.2596	2.4833	13.5323	-10.9060	-21.9160	11.3803	-9.2998	57.9707	2.1797	15.3622
6408.1421	-5.3066	-1.0869	-23.0430	-6.5741	12.8485	19.4611	14.5194	-1.2844	5.6629	-27.9361	-30.8730	-14.2800	-7.4743	51.0429	5.2781	21.7138
6416.1423	-1.0988	-5.0334	-21.2199	9.9877	-5.9966	20.0337	19.8956	-9.7840	-8.2850	-47.3823	-50.8703	-15.9982	-12.2412	27.7467	13.4528	24.8418
6424.1425	3.2665	12.3565	0.2711	27.9263	12.7331	37.5888	10.2092	-5.3164	-0.6769	-10.6393	-7.1874	13.5155	-10.5274	20.6501	6.3777	22.5800
6432.1427	-4.9508	14.3741	-6.5460	7.0976	34.9238	26.7352	10.3124	13.5088	23.7837	6.5300	12.2471	10.3142	-1.0612	68.6239	-2.9089	8.7345
6440.1428	-5.7985	-1.8084	-29.2168	1.9816	9.6912	8.3419	14.6357	17.7467	8.0397	-29.1440	-30.8885	-14.3061	-3.3208	65.6522	10.2302	13.2785
6448.1430	1.1715	-9.8609	-33.9582	-11.0036	-1.0750	0.6218	14.0735	6.3650	-13.1953	-29.4448	-27.1772	-23.4553	-5.8705	18.1522	13.0144	26.3653
6456.1432	2.6563	-6.3714	-17.0932	-14.4633	0.3186	-5.6201	12.4165	6.9652	-0.8857	-13.3517	-3.6820	-16.5218	0.4727	20.5236	8.5277	17.9007
6464.1434	4.6645	14.8692	20.0326	29.8229	12.6203	8.4222	-3.3026	9.5110	19.9723	6.1258	22.7416	20.6785	-0.0440	41.6046	6.0976	11.2018
6472.1435	-0.6451	17.0922	19.1316	13.4568	34.4895	11.7010	-0.0145	1.1686	22.5776	27.7071	41.9177	24.5660	1.7189	26.0691	-9.7314	-5.9187
6480.1437	-3.1148	-3.1304	-7.3573	-25.6379	15.7376	-9.4444	5.7819	0.2335	3.6390	15.2302	18.2375	-5.9681	5.7475	-4.4881	-6.8643	-15.2602
6488.1439	2.0326	2.8115	1.1949	-0.6622	13.0500	-3.4928	-2.7582	12.4029	-2.6814	15.2110	13.6509	9.0354	2.2625	-8.5367	7.4546	-3.8294
6496.1441	0.9865	15.4490	10.8049	14.2960	30.5949	15.3479	6.6045	27.8654	9.2656	34.9400	31.3882	29.5096	5.2987	9.3022	5.3193	-12.5087
6504.1443	2.5979	10.3403	2.0016	4.0243	7.4710	5.1041	-0.0919	32.1547	14.1288	29.8783	36.2718	13.7736	12.4440	27.6166	2.7188	-15.4403
6512.1444	1.3649	-1.5937	-10.4931	-17.8040	-14.0502	-15.7900	-14.9709	22.9282	10.1248	18.5469	28.3591	-9.8531	14.4842	24.3758	-3.7561	-12.7741
6520.1446	-3.0013	-5.9651	-7.1137	-28.8595	-10.5695	-16.3211	-6.9540	14.6582	6.7694	17.5366	14.1727	-11.3141	13.2199	4.4165	-6.6723	-20.9754
6528.1448	0.2842	3.7193	12.1286	-7.5573	4.6869	-7.3893	-1.4911	14.6439	13.0915	22.8239	23.8734	8.7566	10.8795	7.6984	1.7494	-20.6095
6536.1450	0.0975	-4.4135	-1.6668	-16.8659	7.6666	-27.8445	9.1734	20.9608	9.7134	15.2696	24.1774	-3.5607	13.1473	7.7527	4.9193	-24.3904
6544.1451	2.6972	-24.0759	-22.3850	-32.2154	-16.2596	-59.1804	15.3668	15.5212	-7.4705	-16.4887	-0.7806	-33.9405	11.8194	-9.7855	13.3677	-15.1299
6552.1453	6.9244	-18.2784	-10.7549	-8.9278	-16.5710	-56.0252	2.9299	3.0528	-5.0550	-28.7364	-2.2239	-26.0263	5.0655	0.6251	20.3032	-1.9426
6560.1455	1.5194	-8.5673	-3.1427	5.6053	1.3173	-46.8284	-2.3503	4.2998	4.4361	-14.8882	7.6544	-9.9538	3.5609	10.2715	8.5897	-12.1484
6568.1457	0.4467	-9.3708	-4.7440	4.6291	-3.2533	-47.4751	-4.9592	2.2739	1.8540	-11.3414	9.5776	-10.9475	4.3535	0.5830	2.1970	-17.9801
6576.1459	0.5933	-13.4967	-12.1086	-4.1478	-10.8646	-49.4313	-7.1329	-1.1463	-1.5696	-17.6630	3.0213	-19.8354	5.2828	-0.1685	4.6294	-20.4302
6584.1460	-2.1351	-24.1355	-21.6734	-8.6140	-17.3713	-71.1625	-7.9338	-8.8170	-9.6833	-35.8537	-15.1831	-34.1913	1.6612	-12.1845	2.4534	-18.3692
6592.1462	-0.3042	-24.5537	-17.2258	3.5802	-24.3086	-73.3088	-19.1883	-21.4173	-17.7559	-44.7611	-23.3587	-32.3628	-4.1428	-28.7008	3.4900	-12.7259
6600.1464	-1.5438	-15.8777	-14.5077	12.6669	-17.6733	-54.6922	-18.6911	-2.6090	-15.6773	-26.4842	-17.8166	-16.9174	-1.9536	-23.8583	3.0261	-16.4422
6608.1466	-2.2104	-8.4722	0.9213	30.4041	-7.9265	-54.4153	-14.7848	5.0461	-3.0880	-19.3962	-7.3487	-2.4043	-1.4511	-8.3636	0.3335	-16.5463
6616.1467	-2.2191	8.0945	30.2009	52.3309	4.8385	-37.6959	-29.8607	-2.7355	18.5488	-5.9494	10.6689	22.5303	-1.3838	18.2868	-0.8228	-24.6309
6624.1469	-7.6737	15.4539	28.8457	55.9171	18.7355	-29.2322	-30.1063	20.8491	28.5113	13.4969	18.6930	34.3860	2.9464	39.2214	-6.3307	-33.8740
6632.1471	-6.8538	7.4767	14.6336	41.5891	5.6514	-28.7408	-25.7139	14.4944	18.5636	0.6301	4.3528	18.3897	2.3620	30.7161	-3.8648	-30.1754
6640.1473	-3.1716	8.4675	14.9266	19.4336	-10.6816	2.6035	-33.5863	-0.0873	10.2707	6.6048	-1.8986	14.3229	3.1945	14.2379	0.2308	-25.7366
6648.1475	-5.8072	15.3103	26.3709	34.9127	8.1702	-0.1336	-27.6182	23.0732	15.6354	26.7224	9.4057	34.2939	3.6785	12.8330	-4.0928	-23.9421
6656.1476	-7.6722	18.6623	36.8891	51.6919	18.9578	-12.1414	-31.4822	23.2003	23.4236	25.7344	13.1272	43.9641	2.5031	20.7235	-3.7559	-32.4886
6664.1478	-6.2004	13.0419	17.8006	11.6613	-2.5676	6.9337	-38.2116	16.3812	16.3222	31.3317	12.3902	23.1048	8.7736	16.7873	-6.2941	-32.9208
6672.1480	-3.8681	4.6710	1.4887	-3.6892	-16.0714	9.2593	-28.8395	16.1570	2.7151	21.6139	-0.0295	7.4643	8.4060	2.6829	-2.8610	-23.1540
6680.1482	-2.3458	-4.1770	1.6089	7.3046	-25.6121	-7.7636	-25.3592	7.0945	-10.0666	-5.8011	-28.9970	1.1602	2.0036	-17.1114	10.1550	-19.8631
6688.1483	2.4698	-24.6034	-13.2727	-26.5374	-47.9894	-32.9220	-12.2558	-0.0685	-29.9626	-22.2954	-42.8278	-28.3792	3.4922	-55.6601	16.6726	-7.1045
6696.1485	7.3664	-20.4477	2.9214	-70.1426	-45.9752	9.9973	-7.2246	-19.6850	-26.9420	-4.9742	-40.3808	-26.8101	6.5519	-65.7116	28.2230	3.0707
6704.1487	4.1561	8.6322	41.4310	-71.2810	-18.5646	78.8760	-11.5136	-16.7968	6.6127	39.2349	-18.5959	13.2431	11.1752	-22.4448	25.6916	-1.7785
6712.1489	4.4178	15.0090	53.8561	-7.8635	-11.2012	31.4242	-1.4763	3.2002	28.3631	34.0985	19.3511	28.0951	14.1408	11.5098	9.6073	-17.6132
6720.1490	7.1819	7.6609	60.3423	15.1333	-15.2975	-12.8548	-1.5225	-1.9878	27.5410	12.9095	20.4827	24.5261	12.5640	3.8184	15.3100	-25.6847
6728.1492	5.9881	2.5910	57.2065	-53.4820	-12.1860	24.4584	5.2920	-7.6423	16.1302	38.8238	7.9741	15.9052	16.4153	-31.5918	20.7408	-14.8109
6736.1494	7.7384	12.2967	61.7971	-60.0073	-6.1550	49.5490	3.8776	-11.4940	19.7430	65.7414	36.6085	26.6572	21.5266	-38.1531	12.6174	-29.2735
6744.1496	4.0518	15.2931	63.1453	-54.3256	2.4707	42.8278	-0.2957	-8.8270	28.8581	70.9826	45.4160	31.0052	24.0167	-24.6933	7.0938	-45.1704
6752.1498	4.7699	-9.1336	34.8070	-103.0913	-10.8473	22.2845	23.4358	-9.6495	5.5011	51.0573	16.4006	-5.4880	24.4307	-59.2675	15.9443	-29.2232
6760.1499	11.1964	-6.0472	35.2617	-83.7777	-16.8025	26.3848	18.6045	-16.6871	-3.1314	44.1193	20.9016	-1.0133	20.9388	-69.1995	23.3836	-26.8725
6768.1501	2.7400	2.6257	40.0808	-66.7191	15.0138	22.4043	22.6674	1.2186	11.2119	60.1999	32.4840	16.7464	19.6884	-47.7325	10.0479	-31.6476
6776.1503	2.5614	-4.1721	22.9437	-77.8629	21.0421	16.1903	34.5560	4.1275	-0.2063	55.1120	27.2175	6.6322	18.0097	-60.8497	12.1005	-27.3411
6784.1505	6.9090	6.2477	10.3455	-58.2467	6.1008	47.6586	15.9429	8.0411	-8.5020	61.6224	35.7015	13.1055	17.0497	-53.8716	10.0271	-26.1408
6792.1506	-1.7759	-5.5351	-19.0117	-76.8992	7.4388	31.3722	38.5411	30.0031	-14.3409	62.0218	27.1012	-5.4926	20.4234	-56.3819	-7.6261	-28.3750
6800.1508	1.6421	-13.6529	-27.9654	-79.5195	6.8227	16.7706	39.6120	19.5353	-27.1832	42.0528	13.8368	-16.1458	15.8778	-71.2266	6.3322	-24.1247
6808.1510	2.0501	-8.1931	-33.1947	-54.2866	9.2153	21.4595	24.6674	19.2177	-28.4273	30.3805	7.4953	-11.5742	8.0318	-51.9941	7.2656	-8.5915
6816.1512	-2.3799	-23.3739	-51.8636	-55.7507	6.2114	-11.1870	48.6471	23.7590	-35.2094	5.3585	-11.3348	-32.3305	5.1702	-56.6637	-0.4507	-2.3515
6824.1514	4.7659	-9.4954	-29.0583	-30.9076	5.7693	8.0847	25.2661	13.0307	-29.4498	9.6545	0.2104	-12.2328	1.0035	-46.5735	9.5536	8.4891
6832.1515	1.5837	-0.1973	-22.6108	-9.3444	17.1616	14.5104	21.7404	27.6935	-21.1532	21.5891	8.7473	3.5133	-1.3611	-30.3393	-1.2567	17.5246
6840.1517	4.1751	-12.5319	-25.9239	-7.0905	8.1145	-16.5499	37.0854	28.7677	-30.7477	1.5709	-3.4930	-7.9570	-1.5507	-50.1419	8.0240	15.8246
6848.1519	10.6605	-8.5700	-14.6283	-5.5872	-5.6846	-13.8926	6.6728	18.6050	-23.2333	-5.0732	-0.2058	-9.0265	-2.8317	-25.5215	18.8807	36.6418
6856.1521	1.5292	-12.2272	-25.0975	-3.7464	-2.6154	-23.6520	8.8417	19.2001	-16.2345	-16.4085	-14.0977	-18.0287	-5.7631	-4.4258	2.2201	38.3145
6864.1522	2.4398	3.5155	-5.0648	20.3072	10.5403	0.4491	-2.9640	14.4078	-10.0727	0.3561	-1.0569	9.2591	-7.4235	-4.5031	4.2946	24.6323
6872.1524	1.1534	2.6329	-9.4851	2.5996	4.7333	-8.4997	-22.9247	17.6532	-0.1500	9.9566	13.8355	0.2069	-1.7765	16.8528	-3.7974	26.8069
6880.1526	-3.8557	-33.9564	-45.5424	-31.8158	-28.9559	-72.2739	-9.7363	5.9825	-21.1311	-42.2055	-34.9194	-54.4921	-1.5399	-9.3068	-2.3420	20.3945
6888.1528	6.3962	-24.2870	-17.2164	-3.8970	-33.2237	-56.2588	-25.6562	-6.7746	-29.4815	-42.6955	-36.3432	-31.4645	-8.9195	-33.8051	17.6313	34.4772
6896.1530	8.0388	-5.6446	9.3912	40.9902	-14.2365	-48.8882	-25.6505	3.3643	-7.5106	-29.1966	-6.9827	-0.7548	-10.3277	-0.8225	11.6843	38.2409
6904.1531	5.3153	-0.3791	15.9881	58.5095	1.9985	-41.4487	-10.0573	7.0249	1.2212	-37.8933	-18.1492	10.5268	-12.0617	19.5742	21.3782	26.3194
6912.1533	6.9619	1.7806	12.9844	34.1897	14.6447	-13.2347	-3.0814	11.1322	-7.4896	-23.4701	-23.0966	14.2888	-13.3412	5.4668	31.6236	41.0758
6920.1535	5.4893	-16.1596	-12.2389	19.6319	0.3548	-44.2055	14.0649	10.7322	-19.6453	-47.1678	-38.4063	-14.0342	-11.9070	-7.5224	29.4357	35.9713
6928.1537	8.7386	-16.7422	-16.7571	0.3103	-5.1039	-24.6153	15.7390	5.2077	-22.7335	-49.1907	-45.4932	-20.4183	-10.4826	-4.3632	41.1416	40.4360
6936.1538	11.3878	-22.9189	-36.3073	-44.2511	-6.3803	-9.6387	30.7776	2.6965	-30.6546	-37.0301	-32.6945	-39.3412	-6.1916	-16.3711	35.3862	54.1727
6944.1540	13.2071	-29.8316	-42.0116	3.4463	-17.1511	-48.5309	32.2372	-11.7745	-42.6144	-73.8686	-42.1549	-44.2061	-14.8055	-33.0782	33.1290	43.2656
