Time	Fz	Fpz	C3	C4	T5	T4	O1	O2	F7	F8	F3	F4	T3	T6	P3	P4
0.0000	0.2280	-14.4109	-9.5875	-15.4345	-7.5441	-42.6781	-14.6363	5.8557	-0.8091	27.8269	1.8142	-14.2030	1.2179	-4.9144	-3.8463	10.9415
8.0002	-2.2852	-14.1300	-4.8153	-17.2286	-10.4370	-35.1846	-18.8047	12.3066	-5.3241	24.7845	-14.5227	-10.3718	-1.3005	-14.2000	-3.4895	22.1202
16.0005	-2.4066	-11.8078	-4.9771	-22.6284	-1.7274	-20.6315	-8.0438	15.1857	-2.8565	35.8906	-16.2462	-6.2209	-1.2196	-8.4687	0.2503	23.6768
24.0007	-1.1688	-3.6257	3.1620	-14.0983	15.0701	-17.0717	-4.7804	16.0825	7.6029	41.5413	5.0232	4.8448	1.3458	6.3053	2.6929	12.2511
32.0009	-4.3538	-12.9140	-10.1236	-19.4333	1.4817	-26.2895	-7.3963	15.7894	-10.2646	20.2492	-19.2536	-7.6384	-1.9316	-21.3690	-0.1856	14.5226
40.0011	-3.7280	-16.6653	-18.5053	-13.4124	-9.7223	-31.8238	0.3599	22.8075	-15.1686	19.5213	-21.4735	-12.6074	-0.8410	-26.1402	-4.0664	13.4302
48.0014	0.5501	-1.0540	-5.3308	-11.6166	-0.8766	-2.5243	-1.7598	25.6109	-1.1524	36.5444	12.9534	3.0584	5.3115	-5.0419	-4.5008	8.5409
56.0016	-3.1724	-6.6443	-13.3259	-22.4450	-10.1404	6.3458	-6.8957	15.3864	-10.6384	30.2898	-15.7234	-5.2584	0.5301	-17.3816	-5.6200	13.0312
64.0018	-5.9753	-13.6676	-10.7607	1.6063	-8.2633	-31.0513	-1.2818	15.3255	-8.6968	27.0459	-23.2682	-4.6629	-2.2318	-21.7747	-8.7076	0.4659
72.0021	-0.9186	-7.3664	-4.7170	-0.0543	1.8230	-27.1542	4.8249	25.1478	-4.5915	21.3750	0.4084	0.8677	2.5001	-13.6517	0.1084	2.7201
80.0023	0.2350	-9.0901	-18.7788	-10.6223	-10.4690	-9.0969	-3.5599	20.0265	-13.8091	7.1861	-17.3822	-10.0443	-0.4677	-9.1514	5.9029	15.9898
88.0025	-2.5563	-12.2012	-7.4320	9.0519	-16.1016	-36.8902	-11.3368	16.4518	-8.3580	7.2998	-19.9400	-6.7322	-2.1264	-12.9400	-3.0093	8.8261
96.0028	-1.2462	-12.4048	7.6692	2.9469	-8.9646	-42.1478	-2.7905	16.2115	-4.8909	7.0585	-15.0037	-2.6443	-2.0171	-21.6895	-1.0927	18.9996
104.0030	-2.4779	-6.1725	3.6532	9.7257	-0.3250	-24.6467	-5.1114	8.5580	-1.4476	-1.6251	-17.3943	0.1701	-5.0980	-2.8203	0.3504	16.5929
112.0032	-6.5839	-1.8226	6.8435	18.9218	1.8613	-26.1658	-13.7585	10.1839	1.6375	-11.2442	-13.7825	5.2110	-3.5579	-0.5732	-6.2985	0.8293
120.0034	-4.9442	-4.8982	5.4258	4.5280	3.5865	-22.5366	-9.9169	7.8897	-3.0332	-9.2397	-18.8629	1.3030	-4.6445	-9.2503	-0.6207	11.3486
128.0037	-3.8573	-8.7712	-13.5998	8.6756	6.0356	-29.0602	-1.7761	12.7693	-4.0651	-8.9506	-21.5661	-7.2067	-5.6082	9.2592	3.9938	12.1923
136.0039	-6.5630	-13.9875	-15.6829	7.6548	-4.6274	-38.5627	1.1691	20.4150	-8.4986	-21.7310	-35.1036	-12.9359	-4.8487	0.8498	1.1373	12.8321
144.0041	-4.6495	-10.8306	0.0800	2.6443	-3.8883	-30.8272	0.3515	12.1205	-5.7763	-15.1076	-28.2005	-6.1094	-4.0177	-10.5497	1.6555	13.2976
152.0044	0.6460	-19.5552	-26.6038	-10.5931	-16.6140	-45.1776	10.9253	28.4811	-17.5261	-24.7730	-17.0510	-26.0661	2.2434	-12.8926	6.2761	16.0124
160.0046	-0.2052	-29.6597	-41.3605	-12.6618	-40.2318	-48.8755	9.3974	29.7879	-35.0513	-53.5795	-50.7498	-42.8949	-3.7321	-27.4068	5.9274	39.1158
168.0048	-2.7360	-4.2437	7.2553	30.7463	-13.8244	-17.6615	-10.0309	2.3662	-8.7805	-31.3033	-35.0057	1.1759	-11.7275	-8.9628	-2.5793	28.2454
176.0051	-1.2496	8.8189	18.0809	34.5128	4.8473	-8.0175	-16.1903	2.4126	7.9904	-9.0910	4.6458	16.6753	-4.4825	11.1008	-4.5095	4.5873
184.0053	-5.1586	-1.4882	0.3923	7.7050	-0.7559	-18.0200	-11.4730	8.0294	2.3060	-26.6282	-11.5798	-3.0449	-1.0454	11.0580	-1.9550	1.1272
192.0055	-4.3250	-4.5096	5.8231	16.1349	1.9829	-34.1918	1.0367	17.3537	-0.5420	-47.9136	-17.8721	-2.6051	-1.7503	4.6348	5.7583	6.0615
200.0057	1.4960	-7.5501	2.8752	23.9391	-10.8248	-41.9114	-2.3801	13.7139	-8.8324	-63.1934	-18.5438	-8.9624	-4.2938	-1.9796	11.4432	19.7667
208.0060	-7.0127	-0.7130	8.6143	25.1943	-4.8707	-22.9649	-17.7839	-4.5669	7.2903	-53.2944	-27.6506	-3.2728	-6.5579	24.9900	-1.2705	4.6446
216.0062	-10.8942	2.0805	2.7592	20.9715	5.3596	-14.4202	-13.5752	1.4392	7.1618	-52.5660	-25.9395	-0.7717	-4.9047	26.0172	-4.6638	-6.2428
224.0064	-7.5309	-1.8830	-13.1951	5.8584	-1.2528	-8.8204	-14.4958	-2.1831	-11.8521	-67.0507	-25.0680	-12.1878	-5.2244	-1.0277	-1.6259	-2.0338
232.0067	-8.1894	0.7354	-4.6720	5.8346	-0.0824	-5.8702	-14.0044	-3.1647	-4.3932	-53.8000	-18.3198	-6.4969	-2.6947	2.4167	-4.8760	-9.6772
240.0069	-0.5827	-4.1573	-9.3827	23.9433	-18.9608	-15.5061	-8.9976	2.5644	-14.1345	-52.5318	-22.5466	-9.7320	-5.5178	-5.5085	1.6615	7.6512
248.0071	0.3532	5.7732	-6.0763	18.3491	-19.9123	21.8511	-16.6738	-6.0186	-8.9996	-40.3749	-16.7019	-2.9203	-4.9778	7.2319	-0.3429	8.3518
256.0073	-2.3299	19.2204	8.0567	-1.1304	-0.6282	55.6939	-16.6061	0.2360	14.9570	-3.5602	4.1314	12.7768	3.2957	41.3490	-1.3265	-3.0853
264.0076	4.1203	16.0040	3.8895	33.4644	-6.9402	35.1964	-15.4124	-0.9836	6.8304	-7.5644	1.7669	14.3284	-3.4543	37.3003	6.0872	6.0294
272.0078	3.9152	22.6182	16.0266	58.4945	3.3370	37.9545	-9.5087	-4.0184	10.4032	-2.8904	7.5954	30.1122	-6.3260	33.6591	3.7347	-3.1089
280.0080	3.0463	22.2185	18.9971	30.8838	14.1560	49.7944	-0.4247	-1.8813	13.2900	15.5957	10.3275	30.8437	-2.6485	28.9328	7.1974	-3.2393
288.0083	2.3638	15.9623	8.6189	21.7158	6.3369	39.2198	-5.3731	-6.9816	10.5747	4.1644	3.3020	17.6908	-2.0336	31.7580	8.1416	-6.0314
296.0085	2.6737	14.7240	10.5545	8.7546	1.2520	34.0266	-0.8515	2.3794	18.5688	8.5743	14.4580	13.2912	5.6308	42.1349	6.8731	-11.0809
304.0087	9.7459	9.0760	1.8112	7.2826	-5.3999	34.3646	12.2737	-0.5564	0.4505	5.9341	13.5085	6.9293	1.5895	12.2562	12.2186	7.5517
312.0090	9.9248	15.4199	4.4879	19.5817	1.5227	49.2682	14.3373	-7.6591	-5.4485	2.7282	18.9747	16.2717	-1.8913	-3.1925	7.6310	3.3406
320.0092	8.9461	6.4873	-0.4928	-33.8213	-11.8999	50.0521	6.2390	-5.1869	-2.1017	30.8960	20.7275	-0.1848	8.0090	-6.4727	5.8269	4.2220
328.0094	8.4347	-10.9068	-20.3228	-58.9539	-32.2702	30.6009	4.6605	-7.4527	-15.6550	21.7047	-5.7001	-26.4653	6.2254	-20.1579	7.2776	20.8315
336.0096	7.5286	5.8941	4.5722	8.0143	-1.2926	29.9768	9.9471	-6.2027	-3.3861	16.1190	1.8488	8.8250	-4.9343	-1.5254	6.6688	21.8200
344.0099	10.9647	14.7002	21.2304	36.1314	15.3009	30.7940	5.1122	-12.5528	5.0325	54.9899	20.4813	32.5883	-8.7191	-0.6627	7.5341	15.9976
352.0101	5.2166	4.1228	2.3279	-18.9654	-0.0146	35.0191	4.4332	-0.2787	-1.5580	55.3813	9.3612	9.9037	2.6016	-12.0621	4.3030	4.3304
360.0103	1.1945	0.0466	5.6255	-45.5245	3.2791	26.2702	2.9683	12.0849	1.2567	39.9220	1.2847	2.5955	6.7801	-9.1891	8.0649	11.8956
368.0106	6.1798	-0.0333	18.3982	-3.3338	6.3391	-1.0320	-5.0601	-0.0105	0.1161	59.1077	8.9020	16.8200	-1.7410	-23.3999	7.9411	13.5417
376.0108	7.0835	8.6582	28.6779	7.8321	9.1047	8.6530	-5.8880	3.9606	13.1654	79.1049	28.1348	29.4971	2.9083	-6.5219	4.4952	0.2517
384.0110	6.1157	10.5266	33.9695	-8.1661	18.8267	14.6000	-7.3734	2.1821	22.0111	78.9145	29.1465	29.1166	4.6618	9.6083	10.0486	3.3380
392.0113	4.0488	9.2060	29.8194	2.7966	20.1573	8.9512	-4.6642	5.8996	10.7503	73.8424	23.6618	32.7134	2.8910	-15.1556	7.4882	-7.9783
400.0115	5.0315	13.8116	32.7469	-7.0316	21.3441	21.8785	-2.0859	16.4138	12.7188	77.7041	35.3677	36.5292	8.4203	-14.0137	8.8722	-10.4884
408.0117	6.6414	7.7119	28.8850	-12.7065	18.9645	12.4356	0.1629	7.6107	11.2713	69.1281	26.2096	26.7003	5.3906	-10.8843	13.8393	0.3580
416.0119	4.5189	11.3185	28.9397	7.6933	13.7890	20.6462	-2.3724	6.9700	6.0536	59.9703	17.2989	33.0162	1.7242	-18.0313	7.9604	-4.0149
424.0122	1.6442	18.8138	33.4737	7.0339	18.8525	39.0984	-15.4088	-1.8588	13.2876	68.8817	21.4424	39.8775	1.2216	-6.7097	1.4384	-10.2151
432.0124	-4.3981	8.9253	9.4348	-14.0677	13.1521	30.7534	-4.3529	5.9875	5.9049	58.9512	9.5493	21.4471	6.0216	-12.5971	-4.7037	-27.3729
440.0126	-2.3032	4.4035	-5.2839	-41.0594	2.6378	38.4927	2.6250	19.3842	-8.5010	37.9108	8.1703	7.0338	11.2173	-28.5350	0.6103	-19.0707
448.0129	0.6869	6.4503	5.9226	-28.8273	16.0934	30.9943	-7.5741	-2.8784	-6.7467	31.7211	10.3330	11.8774	1.6478	-28.2228	4.2264	-1.6887
456.0131	-3.5073	14.3685	10.2937	10.7159	28.7513	31.7705	2.1149	3.6529	2.2439	41.5979	12.9516	29.8417	-1.2894	-13.0830	-4.7159	-18.6443
464.0133	3.0930	25.1835	19.2957	19.7567	31.9509	46.0272	4.9130	17.1560	9.5616	51.6370	42.0099	42.5775	4.7195	1.1523	1.6783	-18.9402
472.0135	6.8833	20.5411	22.3309	26.5256	35.8393	12.8764	2.5382	13.5938	9.2133	35.8557	54.1780	37.6623	4.4693	-2.5752	7.4639	-17.8928
480.0138	2.5212	16.7007	10.2481	21.4435	29.2749	15.0836	2.9605	17.5947	3.7825	30.7571	38.5202	30.7776	4.5051	-5.1679	3.4020	-23.5480
488.0140	5.2981	20.0918	21.3721	12.3615	25.0944	31.0794	-1.8165	13.1955	7.0424	37.1533	38.6826	34.5373	5.0363	-3.3554	8.3291	-13.0438
496.0142	6.7231	17.0940	30.1998	24.3759	18.4758	5.5472	0.2249	22.1402	13.6834	26.3162	41.3048	33.6905	7.5918	5.8737	11.4267	-12.2989
504.0145	3.4547	8.7244	3.1879	0.4704	6.4539	12.0479	-0.8057	23.8882	7.5738	21.7477	21.2484	12.6095	8.3070	17.7456	10.0678	-7.9234
512.0147	0.1434	2.4433	-1.7681	-4.0850	10.0906	1.5174	5.7213	17.6037	0.2544	3.0153	6.3850	4.9622	4.3643	3.2882	8.3222	-6.1765
520.0149	2.1970	3.8002	16.1509	32.2516	9.4609	-26.9505	6.6729	21.3481	2.7945	-13.1385	12.7505	15.8479	2.0156	-3.2752	8.5258	-7.7308
528.0152	5.1467	2.0871	3.3695	17.1465	-0.0853	-14.8186	-6.3737	10.9232	1.6874	-2.1542	11.8354	5.1100	1.2591	9.7412	10.3473	2.6663
536.0154	0.7710	0.1378	-2.0947	5.3369	-2.8222	-13.6301	-10.1073	12.8589	1.3851	-6.1309	5.6154	-0.5445	3.1651	9.8592	4.5467	-2.5681
544.0156	0.0220	4.7725	9.9202	21.2079	-2.2719	-14.8745	-14.4607	15.2487	3.4600	-7.6540	8.7025	10.3175	2.7560	4.6630	1.9006	-7.6730
552.0158	0.4368	5.1502	1.6445	15.0667	1.5566	-1.2748	-10.4021	10.7886	-3.1853	-10.1908	4.2217	7.9849	0.4497	-0.5975	4.1757	-4.6431
560.0161	-2.5638	6.0416	-4.1726	21.9902	-3.0710	2.9915	-7.9629	18.2299	-2.5699	-20.8266	-4.3498	6.6095	0.8744	9.9965	1.0395	-8.3055
568.0163	0.4506	1.7351	-9.7396	25.9639	-15.8429	-4.2555	-3.9221	23.5980	0.4815	-14.0521	-7.9032	0.0686	1.9334	25.8184	4.2326	-0.6038
576.0165	1.8515	-4.4269	-15.7309	14.2119	-19.6328	-11.4894	4.7611	26.7774	-5.6158	-24.5784	-13.0026	-9.6986	2.4528	17.8933	8.1119	8.3387
584.0168	-5.0293	5.4921	0.6275	30.4123	-5.8732	-3.5846	-13.8558	13.3053	2.3763	-33.7556	-15.2819	5.4451	-2.3187	21.5878	-1.3704	-3.1430
592.0170	-7.9452	11.8260	5.2939	47.6589	11.5579	-4.2872	-8.0804	17.9089	13.4888	-27.9813	-7.9105	17.2182	-2.0461	40.8568	-2.2090	-17.9775
600.0172	-3.6207	3.9223	-10.3221	10.1793	1.5696	-5.3631	6.2510	30.3742	7.3524	-42.1795	-1.6325	-3.7253	7.2857	40.2173	8.0500	-12.6877
608.0175	-3.7742	-13.2027	-26.5181	-45.9694	-21.3693	-16.2135	-3.1030	15.3299	-5.5488	-57.2658	-15.2738	-37.7033	11.2284	16.1107	7.2287	-3.7533
616.0177	-3.3814	-22.6947	-31.6300	-28.3988	-29.2342	-45.2093	9.8737	22.1468	-17.9276	-71.1443	-26.8677	-42.7052	7.7206	-8.4364	5.7569	-0.5827
624.0179	0.0123	-6.2172	-10.7043	7.9731	-19.2165	-20.8995	2.9800	10.1726	-12.0177	-67.3161	-12.2978	-17.5211	1.4048	-3.8445	3.5286	2.1363
632.0181	-3.1899	-0.6231	-1.0626	-12.8199	-8.0861	-6.9291	-2.5600	-2.7120	3.4704	-51.6503	3.3410	-14.7554	5.9121	10.2715	-4.2312	-10.2037
640.0184	-0.4957	-13.0130	-16.4864	-15.2867	-25.5705	-37.0964	9.7942	11.0297	-4.0687	-68.0542	-0.0214	-33.0673	10.2151	6.4170	-0.5196	-9.5957
648.0186	2.3946	-13.2901	-18.1492	-4.6734	-36.3383	-23.9572	-6.2403	-15.3305	-14.8649	-73.7885	-17.8344	-34.9997	-0.9666	-5.1751	-0.0481	8.0521
656.0188	-3.1093	-11.6108	-9.9817	-10.8992	-22.3420	-20.9768	-1.2588	-12.5951	-5.9919	-60.0681	-21.6187	-27.9571	-0.9734	-0.0596	-5.1150	5.4848
664.0191	-1.4905	-11.8179	-12.6968	-7.8230	-26.3728	-30.8531	-0.3563	-0.3316	0.8318	-59.9380	-12.4878	-30.5800	3.8464	19.8908	-2.2861	3.1749
672.0193	-4.2264	-13.2551	-20.5125	-17.2933	-28.8795	-23.1993	-14.4355	-16.9417	-4.8937	-63.5465	-20.9275	-37.5389	-0.5138	12.5810	-9.8795	6.0797
680.0195	-6.9142	-14.6968	-17.3387	-9.3233	-22.5493	-42.7347	-4.5036	0.1541	-4.8501	-70.4811	-14.6948	-34.5647	0.9185	4.6536	-17.1029	7.5305
688.0197	0.8184	-13.8043	-15.5051	-8.9119	-28.8087	-41.2845	-8.1987	-11.6018	-3.6468	-72.3505	-1.1828	-38.7107	0.2933	11.9108	-11.1684	19.8609
696.0200	-0.9789	-16.6834	-20.5557	-42.2046	-24.5197	-20.9903	-4.3885	-22.5007	-14.2329	-69.2529	-10.2564	-45.0444	-0.5794	-14.5526	-11.7119	23.6450
704.0202	-2.5700	-5.2284	-4.2248	-36.0563	-9.3414	-1.1268	-1.6507	-11.8077	-10.3308	-46.4852	5.5331	-22.2028	1.8277	-26.3178	-16.5361	15.0574
712.0204	-0.4240	-0.4083	2.5406	-38.3550	-6.0318	11.0682	-17.9465	-38.9145	1.9609	-10.7298	19.8769	-16.9199	0.9538	-12.4116	-19.8382	4.5443
720.0207	-4.7310	-18.5142	-14.1209	-39.6070	-11.5305	-39.7633	-11.5148	-30.4749	-5.7425	-17.7965	2.9788	-34.8913	0.3635	-25.4733	-23.1558	-0.7897
728.0209	-2.0973	-8.0975	-0.0625	7.3021	1.1636	-40.8066	-6.8532	-16.0024	-5.5686	-15.2851	11.1301	-9.5077	-4.9485	-26.4805	-19.9106	3.7269
736.0211	0.6447	4.1191	4.7102	-8.4184	11.0113	11.0321	-9.6962	-31.2489	2.6746	26.4466	23.5995	3.2401	-3.6738	-14.3111	-16.9887	-1.6471
744.0214	-4.1217	-23.1415	-34.0818	-54.9238	-16.4068	-31.4503	-4.1384	-13.0116	-9.3127	25.5026	1.8874	-38.7979	5.3234	-22.9817	-21.2331	-5.5995
752.0216	-4.7063	-26.8119	-32.3305	-51.2752	-14.0584	-40.7754	2.7047	-2.8953	-16.0122	14.7025	-11.6022	-38.4442	1.2664	-34.0296	-18.0941	12.7760
760.0218	-1.7853	-1.2698	0.0603	-40.3774	20.7330	20.2354	2.4667	-13.8187	-1.7462	51.7470	8.8219	1.8452	-2.7725	-24.4904	-11.0486	16.0563
768.0220	-1.6725	-0.5157	-9.2407	-14.5349	14.2231	2.6457	-13.3393	-11.6132	6.5326	71.5235	19.3348	3.4190	-1.3518	1.0575	-15.9196	-2.7181
776.0223	-3.1217	-5.0399	-16.9217	6.1379	9.6818	-16.8018	-13.6216	-5.6728	1.0345	56.1144	5.5165	0.3423	-5.4610	1.7441	-15.5819	-1.2962
784.0225	-1.3395	-4.1183	-13.7931	-16.0726	19.4801	-0.0494	-0.8062	-1.2414	-4.0903	60.1816	6.9340	2.4141	-3.9685	-13.7113	-7.8911	7.9385
792.0227	0.2321	-16.3678	-31.4329	-33.0411	6.3795	-19.8940	1.2342	-3.0056	-9.4127	58.3523	2.1804	-18.4649	-1.9443	-14.4718	-6.8433	10.8460
800.0230	-2.7139	-11.3431	-22.8302	-17.6298	15.0588	-14.8390	-5.1663	-9.2000	-8.5106	39.4999	-9.2431	-10.4164	-8.4731	-10.9398	-6.7328	16.5587
808.0232	-5.0809	4.9996	-2.4504	-5.7656	31.5317	14.6939	-15.6509	-13.8378	3.3819	55.4633	3.9086	14.0041	-8.7985	-1.9496	-10.9535	5.8079
816.0234	-2.7963	-1.0791	-9.9074	-7.9913	13.8057	7.8915	-16.4545	-18.5906	0.3275	62.3084	1.1030	4.7667	-6.5877	-5.7426	-11.2175	-1.2595
824.0236	-1.0767	-5.7393	-18.6479	-8.9953	-1.0811	1.7643	-21.1619	-21.4599	-9.5136	41.0560	-5.6096	-6.1966	-6.9566	-15.1569	-9.6898	0.9411
832.0239	-4.9874	-7.6632	-24.9089	-20.2008	-2.3894	-0.9355	-16.6108	-9.5020	-8.6491	31.4335	-7.0801	-12.2974	-2.4397	-11.1861	-14.0727	-4.3553
840.0241	-4.6420	-14.0837	-19.5484	-13.4290	0.5745	-16.1699	3.7286	4.6054	-17.4975	-1.2873	-32.9879	-13.5367	-7.1115	-23.4672	0.3242	16.3178
848.0243	-1.9855	-9.0776	-14.5609	1.8117	6.7090	-10.0112	0.7950	0.4524	-22.6277	-21.2600	-34.6119	-7.0581	-12.6966	-26.6380	7.0848	27.2410
856.0246	-6.4016	-7.0064	-19.3366	-13.5336	5.5123	-0.9234	-3.4328	-4.2192	-12.2915	-0.0297	-20.0972	-10.1772	-6.2277	-15.1140	-8.7809	7.0150
864.0248	-4.1910	-5.0828	0.2318	4.2861	7.0393	-12.5559	-1.9726	-6.3784	-9.5467	-2.8292	-16.3758	0.5840	-8.2476	-25.3483	-6.7942	9.8436
872.0250	0.3316	-1.7502	4.4248	15.0079	0.4752	-12.7804	-7.3247	-5.6594	-11.5046	-6.9682	-3.7827	3.8598	-7.6278	-28.7616	-5.9810	13.5452
880.0253	-4.3065	-10.3697	-6.2713	-15.1336	-10.0215	-14.2754	2.3658	-0.2604	-8.5844	-3.0646	-14.0701	-12.4623	-1.4931	-23.5939	-12.6806	9.4352
888.0255	-1.5719	-9.2810	9.9249	8.8182	1.3394	-26.1496	16.8830	1.7153	-5.2308	-15.4850	-21.5924	-1.5763	-6.8520	-20.6887	0.0111	19.9547
896.0257	6.3913	1.1225	7.9924	26.1546	-1.2405	-3.1044	15.4668	5.3752	-5.4270	-13.9069	-3.3447	6.8418	-5.9919	-5.1748	8.6178	23.5288
904.0259	2.8578	1.8013	-8.6040	14.4246	-14.6950	17.6101	-1.8514	-0.8601	-7.5544	-16.2160	-15.2710	-3.1427	-5.6886	8.7319	2.5429	19.4563
912.0262	-3.3229	-2.1472	-14.7718	32.0371	-6.0842	2.0824	-5.5334	-8.1848	-6.2384	-24.1429	-39.1454	-4.2924	-14.0310	20.0403	0.4771	17.2834
920.0264	0.3459	2.2142	-3.2424	42.2138	1.5694	5.8937	-3.5016	-18.6774	1.0514	-15.4244	-31.2026	4.2233	-16.1061	28.4108	6.2514	18.2033
928.0266	5.4240	14.8700	28.5200	59.9640	6.9942	12.4622	-19.0156	-36.3454	13.1245	-25.0923	-10.0672	21.8700	-16.4053	34.0425	12.2422	13.9433
936.0269	2.8145	12.1072	25.6188	53.2292	1.5118	2.0142	-14.6404	-29.2633	16.9340	-51.7212	-12.3957	12.4298	-11.0200	45.3756	12.8246	3.8679
944.0271	-0.0692	4.7883	17.4015	30.7700	-10.5974	2.7286	-2.3052	-26.4994	13.0452	-70.0053	-25.7848	-2.9139	-6.7684	39.6726	10.7268	0.8321
952.0273	1.2777	15.5623	37.7619	46.3658	2.2992	15.6770	-0.8792	-28.5334	13.1869	-80.1109	-14.1758	15.5566	-9.0776	25.9109	11.2612	2.1591
960.0276	1.1192	22.3832	31.8173	6.7915	4.8540	59.8713	1.5334	-22.1040	14.5709	-71.8160	-5.9112	12.9705	-1.7089	34.2934	13.1197	5.3408
968.0278	-0.5062	20.3633	22.8386	-10.2219	-4.2320	67.3747	-2.9750	-31.7937	20.2398	-59.3885	-2.9418	3.0070	2.7013	46.2989	6.2366	-7.8524
976.0280	1.7070	12.5482	18.7680	39.1865	-3.6006	6.0188	6.9397	-23.3555	15.9237	-66.9701	11.6941	4.2168	-0.1375	33.3272	-0.5188	-20.9691
984.0282	4.2324	-2.5373	-6.7370	-2.3910	-16.8206	3.1456	24.0079	-16.3936	-5.4307	-71.8853	2.3979	-21.5143	2.9221	1.4656	2.2029	-5.7536
992.0285	4.3473	-3.4155	-12.6542	-33.4111	-18.2280	33.5378	31.6693	-25.4097	-11.2605	-61.7391	-4.7032	-27.7702	3.1258	-10.0934	1.8415	2.6203
1000.0287	6.9204	1.0911	-4.1981	1.4099	-5.7806	15.6787	31.1798	-22.8700	-4.3456	-51.0520	10.2877	-14.0345	-1.1717	0.4927	0.9274	5.3649
1008.0289	7.8551	-6.4427	-10.6013	-3.9046	-7.7305	-3.2605	27.5477	-28.1400	-4.2870	-27.2942	12.5968	-20.5384	-1.7395	-3.0542	-1.5859	5.5431
1016.0292	7.4904	-3.5864	-10.3963	-2.7688	-5.9179	9.6016	34.5018	-25.1424	-1.1752	0.0080	17.8769	-13.3134	0.2019	-3.2300	-5.7639	-3.0464
1024.0294	5.1488	6.7365	-0.1859	-27.6665	-1.8500	47.1597	12.9206	-34.2469	8.2839	11.2523	20.9080	-6.9597	2.5066	11.4316	-6.5426	-0.6653
1032.0296	-2.8541	-2.8572	1.4337	-53.3904	1.6279	23.9814	-1.9179	-44.6866	14.7985	31.8001	9.8969	-14.8795	4.0696	5.3006	-14.3133	-14.8629
1040.0298	1.0428	-8.2391	8.4069	5.3028	10.6775	-24.9553	20.2704	-29.8758	11.1188	52.6610	13.7708	2.2369	-2.2132	-13.3292	-11.4209	-20.5560
1048.0301	6.6100	2.9179	21.9975	3.3963	13.8828	14.5158	8.0398	-46.0292	8.4511	59.8935	16.4001	15.4774	-6.6833	-19.3426	-1.9156	-6.6381
1056.0303	-2.2583	-4.8185	13.7950	-41.1124	15.2452	10.7066	4.4107	-39.1350	12.4641	73.5769	7.5194	2.9025	1.2756	-20.8235	-8.5888	-20.9685
1064.0305	-1.7751	-11.7654	12.5696	-15.5036	18.9986	-32.6348	15.9723	-13.5745	12.0303	77.1870	8.4942	6.0015	1.3441	-21.6850	-5.3548	-19.5520
1072.0308	1.5975	1.3320	27.5965	-18.3638	22.2897	4.7286	-0.3559	-24.1013	14.1983	76.9035	14.9675	19.1778	-0.1776	-18.2238	1.3541	-10.8122
1080.0310	-0.5139	-0.1231	17.8018	-24.5570	20.7849	3.0213	6.1298	-7.2945	14.8939	90.2260	20.0241	17.4090	5.9620	-15.1319	-1.9931	-23.4191
1088.0312	3.8697	-8.3238	2.6433	-11.2326	9.2783	-13.0706	10.5288	-1.3444	1.5214	89.5968	9.5602	9.4949	1.4956	-24.7033	3.3311	-9.6029
1096.0315	1.8072	-8.4946	-4.9170	-49.5079	-2.2940	25.4391	4.6412	-7.9873	-7.6042	85.1144	-8.1844	-0.4055	2.5431	-35.8519	3.0091	0.7309
1104.0317	0.6109	-9.8199	-7.9688	-43.5805	-3.6506	12.2777	10.6473	4.3784	-1.7124	95.6551	1.4745	-0.5459	6.8427	-26.7768	-3.2889	-7.9109
1112.0319	5.1982	-9.5894	-7.3278	-16.4916	-4.9440	-1.9713	3.4668	-10.9123	-2.0314	96.9397	9.3890	1.4584	0.4990	-24.2562	-4.4944	-3.8890
1120.0321	0.5809	-10.9546	-23.7003	-47.3465	-14.0037	27.4877	4.5304	-6.5203	-14.3169	78.2279	-8.5389	-11.1450	2.0973	-34.7167	-8.9892	2.2796
1128.0324	-3.1317	-6.6277	-15.2070	-27.3081	-6.2958	24.0063	3.6410	-0.9471	-8.0519	68.6036	-15.2580	-1.5802	-1.0502	-22.5967	-11.1413	2.9971
1136.0326	-3.6450	1.5603	9.3341	6.5290	15.8732	16.2569	-2.4395	-21.7694	9.1127	85.7779	-8.7649	20.3260	-8.1905	-7.2602	-10.2344	-7.8953
1144.0328	-4.3986	0.4139	-8.8939	-18.1341	17.6705	30.6026	3.7425	-11.0282	2.2398	85.9607	-6.6150	11.8638	-2.4350	-8.9111	-6.3230	-16.2645
1152.0331	-4.0715	0.1614	-11.9748	-16.6694	17.6261	26.7233	7.2097	0.2863	-2.6640	63.9694	-9.3713	9.7859	-1.2337	-10.1281	-0.2247	-14.1358
1160.0333	-4.1433	2.6597	11.2166	4.9504	28.7297	11.3904	17.4112	2.8328	5.7929	61.3877	-8.3050	24.4189	-3.3407	-11.9435	2.8238	-14.1261
1168.0335	2.1637	3.6023	1.2571	3.6498	23.8137	11.9360	12.2133	5.1910	0.0975	58.7107	8.7420	19.3338	-1.0958	-10.6679	8.1198	-10.0443
1176.0338	4.0397	0.9324	-10.8061	-8.7951	13.9240	11.5479	6.1186	3.8499	-4.5459	51.5063	14.9658	7.6782	2.1918	-10.5190	7.7035	-11.8481
1184.0340	2.0866	3.6895	7.4040	1.4042	18.9004	8.3370	17.5611	11.0307	1.5625	46.6381	13.2807	18.4710	2.5334	-14.4017	5.9381	-11.4467
1192.0342	8.2792	21.3933	26.4133	44.3406	25.4341	21.9657	-3.5618	-1.3496	9.7130	32.4836	34.7192	39.8934	-2.3742	6.1927	11.5823	-11.1792
1200.0344	5.6526	23.9939	23.7595	47.0557	20.3610	21.9532	-16.2023	-2.0672	19.3320	34.8724	37.8084	39.1395	2.3062	28.9166	9.9713	-33.0797
1208.0347	1.0496	17.1215	25.5833	30.4389	17.4772	10.1901	-6.4551	14.7176	18.7177	29.1300	22.1687	34.6013	7.3520	20.5792	13.3873	-38.6929
1216.0349	4.7838	24.1835	39.9266	43.4773	24.0565	10.1224	-15.1609	13.1748	17.0218	3.1921	30.8381	43.8755	5.4583	16.2006	22.9626	-32.7139
1224.0351	1.4973	15.7142	29.0001	30.7323	12.9535	-7.8634	-10.4491	23.9199	17.1385	-6.2696	25.0699	29.3501	10.9986	19.9420	18.8090	-40.1161
1232.0354	-0.2473	-1.3545	9.9405	20.3729	-10.0578	-34.2848	-4.0786	29.8302	2.6013	-37.3851	-5.6108	3.7712	9.2829	7.8275	19.5269	-26.5742
1240.0356	0.8595	-7.9923	4.9228	17.5843	-12.8487	-46.4136	2.3750	30.1755	-8.3515	-74.7408	-21.5073	-7.6864	4.6792	-2.0204	26.3714	-6.2297
1248.0358	-0.9448	-14.8443	-1.8892	-12.3506	-13.2673	-48.6874	17.6472	41.5148	-8.8879	-73.5034	-23.6356	-19.6695	9.2188	-4.7981	23.7687	4.1495
1256.0360	1.7280	-12.2246	3.1381	2.7981	-25.1691	-49.1152	5.3798	31.3076	-9.0067	-79.2077	-17.7183	-18.5739	6.6668	-5.2237	17.5689	9.7508
1264.0363	-1.8388	-8.7359	9.7536	29.0672	-20.6501	-60.1336	6.0210	32.0949	-3.0502	-90.4162	-16.2206	-10.9529	4.4913	2.0080	8.8863	0.6503
1272.0365	-6.0965	-9.3381	4.8656	15.2559	-5.2273	-54.1615	21.3651	42.8615	-1.3818	-88.8805	-21.6542	-11.3443	5.2168	6.6427	8.7485	3.4601
1280.0367	-1.5994	-0.3278	10.9944	29.8892	-6.5255	-38.6261	1.9871	27.8130	0.3802	-86.9655	-9.8462	-3.2005	1.6903	14.5359	10.1260	7.1756
1288.0370	-5.3395	3.4664	12.8305	33.1021	-10.9802	-32.1391	-7.6261	22.3052	9.2732	-77.8790	-5.4419	-0.8580	4.0347	26.9384	-1.1869	-8.0735
1296.0372	-7.6624	-0.3966	-0.7247	8.1388	-13.1878	-16.0673	6.4930	31.6592	4.5408	-76.8571	-18.1175	-10.1487	7.2904	26.6249	1.1043	-6.6951
1304.0374	2.7903	-1.7878	-7.7019	25.3523	-24.6413	-28.4129	5.2678	37.8651	-6.4785	-86.0204	-4.5992	-13.1878	6.7990	20.2353	12.7453	5.2730
1312.0377	5.3611	-0.5549	-8.4951	27.5936	-21.9288	-32.8418	-0.9815	36.9122	-10.1416	-88.7810	7.1253	-13.0899	5.3547	14.3361	11.1898	14.3881
1320.0379	-0.6147	3.5990	-6.8306	17.5211	-6.3358	-6.2901	5.1993	34.0171	-7.0110	-77.1321	-8.4433	-5.8155	1.6219	18.6108	8.5716	17.3280
1328.0381	0.7563	4.2033	-1.8078	46.7791	-4.1758	-22.8889	11.4195	38.9687	1.9682	-60.2287	-4.2345	3.4208	0.9833	33.6645	10.1895	7.7581
1336.0383	2.1214	3.1901	-8.7727	20.1026	-7.8917	-8.5521	10.7078	36.9849	-2.5875	-59.4437	0.1061	-4.9458	4.5915	27.1989	11.3959	10.8284
1344.0386	-1.2448	0.2049	-19.3041	-2.2553	-16.9203	12.8483	9.8298	35.3842	-11.6356	-55.3136	-18.1263	-12.3544	4.3646	14.2636	7.5218	14.0304
1352.0388	1.6508	-3.3325	-8.3556	55.2197	-20.2088	-38.8824	4.2673	30.5459	-5.8125	-61.4471	-15.2426	-4.9107	-2.8402	21.6335	6.2598	11.1879
1360.0390	3.5345	0.8146	-2.3459	29.0944	-8.4180	-21.0376	6.9125	21.3365	-4.8414	-80.2252	-5.6928	-7.8132	-1.1807	20.9412	12.9593	19.5494
1368.0393	3.7818	-0.2104	-13.4241	-8.4967	-20.5312	11.3207	2.9133	18.2577	-10.4289	-58.8597	-8.7775	-16.6893	3.4718	12.9556	11.0442	21.4777
1376.0395	5.8618	-6.0307	-13.4032	25.5785	-35.3872	-23.2267	-30.4237	-14.2566	-10.0486	-50.1474	-12.9908	-20.4350	-6.7049	13.9630	3.1818	19.2034
1384.0397	-5.1792	-7.4803	-17.9379	-19.2666	-16.3643	-3.5778	-21.7460	-23.0907	-8.5678	-66.8435	-27.7999	-29.9178	-5.0671	9.1746	-4.1217	10.7570
1392.0400	-5.7901	-4.0304	-12.7790	-4.8744	-6.5013	-1.7419	0.3022	-1.2259	-5.6630	-46.4722	-20.7353	-15.6765	-2.9168	6.2627	-6.4239	7.4607
1400.0402	5.7044	8.0325	9.9432	59.2841	-4.2167	-17.0058	-27.3950	-26.4822	-0.7222	-37.8624	9.2914	7.7478	-13.3358	10.5247	-3.4604	12.7704
1408.0404	-3.8217	5.2993	-9.4983	-33.3915	-3.1538	28.0421	-15.7447	-14.2094	-3.2130	-45.5795	5.5580	-15.6942	3.2140	4.8340	-8.9802	-0.2261
1416.0406	-2.9477	-8.9762	-30.7932	-58.1440	-22.1547	20.5332	3.6532	11.2312	-13.5928	-39.3627	-14.9867	-35.0381	7.5953	0.7915	-3.0414	16.9030
1424.0409	7.4300	-5.4548	-14.7408	9.7368	-16.8683	-5.2530	-9.7764	-15.6963	-13.9032	-36.6338	-11.5888	-18.1278	-10.6723	4.1574	4.9638	40.4146
1432.0411	2.1415	1.1803	-9.4252	-11.6359	-1.4981	12.1350	-2.4741	-8.0808	-5.0941	-8.0163	11.1991	-8.8441	-2.1264	-1.5619	-8.9296	19.2247
1440.0413	5.1897	6.8464	1.9000	0.1484	-1.1773	15.0708	-26.8554	-29.2625	-1.3793	16.4686	25.4662	1.7430	-5.3158	-6.2381	-12.2981	13.5520
1448.0416	0.7559	10.2452	10.2204	18.4348	17.2015	7.7251	-33.5566	-46.5759	2.7995	5.5889	19.0739	10.6769	-11.8703	-4.7802	-12.7972	-0.7534
1456.0418	-6.6890	3.0365	-5.1942	-14.4810	16.0387	0.3927	-4.2243	2.9478	4.7502	14.2301	18.9819	1.5298	4.3070	-2.2281	-16.9568	-16.9571
1464.0420	0.1667	-0.8532	-10.1379	-38.6236	-0.4593	14.9824	-24.4518	-15.5016	0.8959	32.7398	12.8777	-9.8152	1.8349	0.8076	-7.7716	6.7824
1472.0422	-3.8048	-13.0466	-19.0730	-56.2535	1.4113	1.2206	-19.1772	-29.0169	-6.3910	34.0205	-10.2348	-22.9541	-3.2001	-16.5905	-9.7351	10.5986
1480.0425	-0.6905	-22.1859	-21.6475	-15.4646	-7.4206	-46.9069	-5.0329	-5.9349	-15.2616	35.3058	-10.3205	-20.5834	-6.2265	-34.3187	-12.2220	18.4370
1488.0427	4.3111	-7.7464	-6.3545	4.4860	-2.5259	-15.6961	-19.2483	-21.5868	-10.1835	40.7580	-0.3869	-3.0712	-11.8993	-22.5808	-8.4750	28.7786
1496.0429	-3.6183	-2.3777	-1.8164	-24.0214	10.4251	10.2738	1.5251	2.2723	1.0219	49.4878	-0.4930	3.1845	-1.2050	-11.5258	-11.1420	12.3399
1504.0432	0.3887	-2.4722	11.7658	0.9146	13.4893	-13.6314	3.5669	10.2115	7.5432	60.3361	6.3363	13.6266	-2.3900	-5.8563	-4.0277	16.8987
1512.0434	0.1808	4.6255	21.1820	2.0586	27.9453	1.0844	-1.6066	-2.7970	12.5256	67.2939	11.9560	23.9613	-4.4470	-3.3919	-1.3552	10.0089
1520.0436	-2.3833	-1.2580	5.9178	-16.9554	12.0791	1.6588	11.9321	22.9956	2.9142	51.8925	5.2147	11.5373	4.5128	-14.4216	-2.9875	2.3539
1528.0439	0.4339	-7.4998	-3.2136	-17.5708	-1.7521	-5.8577	7.7405	14.0506	-4.0336	31.4941	-6.4582	-2.3557	0.9133	-13.2070	0.7923	16.0439
1536.0441	-4.9919	-1.9224	3.1922	-20.5544	23.3478	1.8320	14.2183	6.6042	4.4041	40.6376	1.7385	7.2904	0.4351	-11.2266	-6.1550	0.5986
1544.0443	-2.2404	4.3113	14.7326	5.9937	21.4687	-0.0795	15.3643	10.2444	4.2575	45.4429	17.3586	21.5539	1.2193	-22.8902	-9.7622	-9.6046
1552.0445	-1.0259	4.4093	11.9816	-2.6899	11.1407	17.7973	14.6595	-4.0022	2.6724	38.6111	9.7033	15.2762	0.7619	-20.9464	-8.3685	-10.2394
1560.0448	-3.0332	5.8000	14.4686	-11.1535	15.1786	21.9021	15.2782	-5.1653	10.0161	45.4096	12.6895	16.0846	4.0353	-11.6948	-8.9604	-20.6666
1568.0450	2.0038	6.0505	20.9468	2.5211	3.5586	14.9619	5.9733	-16.3553	8.8629	38.6747	16.9525	16.3805	2.7365	-14.8803	-4.8681	-21.0538
1576.0452	-1.2534	-13.3989	-13.9512	-39.1884	-17.6270	4.6889	21.2133	-13.8385	-10.5025	15.0488	-8.0150	-19.7991	6.7629	-35.7745	-7.0279	-22.7894
1584.0455	-2.2028	-20.2345	-26.2141	-24.4442	-30.7235	-17.8397	11.5765	-7.6507	-20.6089	2.1826	-19.4709	-28.2933	2.4350	-42.5185	-12.8761	-12.0997
1592.0457	-5.6133	2.1136	7.2189	21.2523	-5.1197	9.4363	-2.8232	-17.9511	1.7424	12.9763	-15.6494	9.1639	-6.3820	-9.4352	-16.0361	-12.4651
1600.0459	-11.1459	8.5227	18.5604	6.6665	26.7915	23.2046	21.7253	-10.1018	19.4641	30.5497	-7.4390	22.1973	-0.1414	7.6909	-12.1275	-35.4121
1608.0462	-3.3709	5.8252	24.0236	12.4402	21.0000	2.3785	18.6550	-15.1462	18.7378	26.8708	9.0403	19.4340	1.6492	2.5576	-3.0453	-34.3999
1616.0464	-4.6738	6.4881	11.3810	9.3209	10.8817	19.9693	17.2929	-13.9203	14.2335	19.2985	-0.9316	13.1993	1.2122	9.5686	-6.2013	-31.6548
1624.0466	-7.8541	2.5703	-9.5867	6.0796	7.2628	27.4248	24.6538	-5.6594	4.5518	17.7916	-16.4735	5.5034	-0.0815	7.5670	-8.9572	-32.5664
1632.0468	-4.1476	15.6555	16.2388	39.7415	13.5708	33.4809	4.7745	-22.9792	17.8133	26.4612	-0.9061	27.2797	-4.6456	22.1655	-7.6420	-35.2059
1640.0471	-5.4512	17.0084	11.4504	29.4146	9.1495	38.3114	0.2944	-19.9137	26.5233	41.2056	9.3390	24.3326	2.2211	39.3158	-11.5781	-50.8929
1648.0473	-2.4805	-4.5174	-23.3315	-1.0743	-17.8451	13.1006	3.4050	-19.0370	-0.6188	20.4840	-9.0360	-11.5826	3.1194	6.8616	-7.7068	-40.2815
1656.0475	-5.7227	-1.0368	-4.6472	9.5910	-7.7052	14.4133	0.7885	-30.8747	1.8514	5.1068	-21.4594	-1.5583	-3.5453	-0.7058	-8.4801	-34.6033
1664.0478	-9.5788	2.8683	0.9789	16.7113	2.5227	10.1870	7.1164	-17.7351	16.0563	13.0683	-15.0949	6.1655	0.5639	22.4360	-11.1258	-46.6301
1672.0480	-2.2426	-10.6962	-19.3977	-0.6101	-22.3854	-5.1186	12.9638	-12.8383	-1.4753	-9.3007	-23.5411	-19.1031	2.3102	8.9319	0.2074	-28.1685
1680.0482	-2.9785	-5.5898	-6.9171	16.1709	-18.6370	2.4785	4.3382	-28.0695	0.0537	-15.0177	-30.7248	-9.4360	-4.5669	6.8735	-1.4284	-24.1456
1688.0484	-5.4108	3.0457	1.2190	29.2382	-9.2338	3.7306	-12.6031	-36.7974	10.1084	-3.3976	-11.4840	2.0068	-3.7253	15.8116	-11.3784	-43.1770
1696.0487	-4.0498	0.9712	0.1691	0.3865	-14.2743	8.2667	-9.2819	-32.7455	5.2634	-18.6868	-3.9138	-7.5177	2.8144	2.7032	-8.8759	-41.8925
1704.0489	-5.3021	1.7573	9.2482	14.9497	-3.0916	0.1091	-1.6899	-33.6059	8.7065	-25.1110	-10.3319	-0.3661	-1.3945	4.8624	-6.1658	-38.9982
1712.0491	-3.5481	5.1242	13.4857	22.2794	5.0520	0.8244	-4.5019	-41.2389	12.1116	-31.0865	-5.7409	3.1155	-3.9256	13.7280	-1.5633	-36.8466
1720.0494	-1.9452	8.6656	17.2357	1.5232	3.3865	19.7596	-5.0742	-42.2188	14.7201	-35.4099	0.7143	1.1932	0.8126	17.7850	2.8664	-35.6996
1728.0496	-0.7563	5.0982	8.0723	7.4007	-3.3833	14.5299	-3.6045	-45.0370	12.6001	-31.1657	-3.2317	-3.9542	0.0187	21.3118	3.6189	-39.6898
1736.0498	0.4128	4.7485	-0.9730	-14.8668	-7.0235	38.8664	5.3138	-45.8364	7.4126	-32.6902	-8.5170	-11.1493	1.9186	19.6487	7.6859	-34.4917
1744.0501	3.0902	9.5686	5.0751	5.0974	-4.8093	41.0325	3.4181	-44.9246	11.7643	-15.8932	-0.6819	-0.2189	-0.1111	27.0307	7.8535	-32.4437
1752.0503	7.6380	5.7605	-0.7726	23.8537	-13.3544	21.2622	-2.9212	-44.1595	4.6438	-19.1814	1.2403	-3.1665	-3.4077	22.1986	10.7765	-24.8923
1760.0505	4.6808	11.9051	3.6261	-44.9439	-11.0454	75.8410	0.6383	-35.5342	4.8005	-24.3054	1.7496	-8.3437	7.3979	16.2781	14.2467	-15.9655
1768.0507	3.6081	15.1844	10.9167	-29.9400	-4.5366	68.6871	-3.9893	-32.6188	16.1869	6.7564	11.9295	3.0889	7.7499	28.8848	8.6417	-23.6894
1776.0510	8.7162	5.5697	1.3063	25.9124	-11.1245	18.1997	-2.3111	-38.8170	4.1626	-7.2807	4.1684	0.3561	-4.3020	18.6364	10.3365	-16.4872
1784.0512	8.7608	12.1380	11.5041	26.5431	-4.9201	35.1122	-2.5916	-41.8607	3.1764	-19.9895	4.9847	7.9175	-6.4271	12.9967	10.8669	-8.5940
1792.0514	7.2206	10.3982	13.7951	13.4329	-0.9803	23.1844	-10.5396	-33.6853	13.4899	9.7582	16.1006	8.4603	-1.5154	23.8751	7.4337	-11.3160
1800.0517	4.9488	1.0489	6.9094	-30.7991	6.2635	15.6161	-3.5883	-24.6955	6.1539	7.0757	10.0321	-4.9846	2.4807	4.9622	12.5506	-1.9501
1808.0519	4.4071	6.8920	10.2302	-20.1687	18.5712	24.2630	6.6075	-7.6638	-0.4840	11.5080	16.8982	9.3190	2.3612	-13.0788	11.6723	-2.6363
1816.0521	7.6347	-0.9612	-17.6643	-12.0990	-3.4328	16.6710	11.8185	21.4944	-15.5883	29.7569	10.2954	0.3537	4.3411	-17.6825	11.8660	6.4449
1824.0524	5.4189	-5.0170	-28.6115	-54.5325	-8.5259	42.2502	5.5039	19.0489	-23.6260	38.0222	-7.1562	-11.5714	4.1887	-26.0385	12.4060	25.0360
1832.0526	3.2479	4.1197	-7.9943	-27.9517	16.8513	34.8186	-3.2294	10.0507	-10.0313	64.7512	9.8309	11.6032	-1.1299	-20.9746	3.9316	19.4925
1840.0528	3.3793	-1.4487	-14.4552	-38.4455	15.3218	17.4981	-7.6635	15.2737	-7.7706	71.9038	13.3810	3.3977	1.6153	-14.0352	4.9604	20.8023
1848.0530	0.6788	-5.0992	-16.7736	-55.4135	10.3883	17.1628	-16.6327	8.1209	-9.7100	65.8259	4.2089	-4.5217	2.2859	-19.2666	3.6205	18.2486
1856.0533	1.1283	-6.0758	-11.7969	-0.7200	8.9481	-25.1231	-12.8112	27.7267	-11.0792	65.2631	11.5103	8.6113	-0.1004	-26.5824	-1.8903	8.5584
1864.0535	1.9536	-8.4182	-12.7370	-24.1273	-2.2519	-22.7851	-11.0537	51.3120	-13.9557	50.2668	8.8322	0.9032	7.1231	-26.0472	4.8688	22.2517
1872.0537	3.5656	-3.7427	0.3980	-46.9116	-4.0056	5.6402	-9.3702	48.4808	-9.3637	54.4140	7.4931	4.2056	9.9579	-24.4418	10.6805	32.5915
1880.0540	8.4017	-5.6756	6.4723	-15.4415	1.2421	-19.5268	10.8487	61.2166	-7.6658	65.2851	15.9485	13.6959	8.5665	-25.8406	16.4270	34.0675
1888.0542	9.2257	-10.0506	3.6705	-18.5517	6.8282	-44.1025	20.2069	76.2095	-2.3010	53.2266	23.1774	7.0362	12.6504	-10.6841	22.7007	36.6745
1896.0544	9.8520	-10.7630	-4.4251	-19.7736	-0.9679	-39.7044	21.6266	79.5794	-4.1269	43.8565	21.0757	0.4817	13.0476	-2.7232	21.2441	43.3457
1904.0546	9.5376	-7.5457	-7.8872	-25.2766	-10.9409	-8.8147	20.4850	77.5781	-13.9507	50.5230	11.7799	2.8652	10.9882	-19.2247	15.5846	50.9317
1912.0549	8.0824	-0.1242	9.2661	-16.6582	-6.8187	-2.5941	12.8467	75.5134	-2.9383	66.2412	22.1029	16.8291	12.5021	-14.0770	9.7792	42.5328
1920.0551	9.7801	-1.4776	10.1135	-0.1028	-13.2252	-22.9215	13.9992	78.9329	6.0385	69.7705	33.4597	15.6076	15.3037	3.1544	6.8987	34.6818
1928.0553	6.4968	-3.9136	3.8537	-16.1487	-18.9847	-12.8714	17.7518	78.8722	3.2102	67.9264	24.6086	8.9938	17.3834	-2.3027	2.0552	30.4859
1936.0556	5.4625	2.7576	17.3566	5.2938	-9.0720	-9.5886	14.1210	77.0485	8.9155	78.0079	25.2244	25.4089	13.8941	0.4281	1.8677	26.2241
1944.0558	6.0040	5.6740	14.2122	16.7435	-0.3085	-12.0714	8.4434	70.7903	12.1597	80.3693	31.7077	28.4686	11.8479	12.4254	3.6353	19.2175
1952.0560	-0.7938	-7.7061	-10.3596	-20.2344	-9.3195	-18.0401	19.6936	79.9014	1.2836	68.5806	10.8336	4.8759	16.7248	-0.9887	-1.1768	11.6178
1960.0563	0.2483	-22.3268	-25.6835	-20.2856	-29.6974	-42.9107	25.5984	89.7828	-13.8300	48.1559	-16.4464	-13.2949	13.1228	-13.6030	3.3266	32.4540
1968.0565	3.0029	-14.8647	-16.3944	-4.9513	-21.8605	-38.3907	18.1984	81.4948	-12.4999	29.2680	-6.6367	-6.1463	8.7466	-8.6916	5.0693	42.5867
1976.0567	0.6257	-6.8415	-0.7473	2.1960	-11.5719	-32.0959	27.4589	89.2697	-8.4006	12.3085	4.5960	6.1455	12.0579	-15.5557	1.4408	31.7630
1984.0569	1.1819	-7.9160	-2.3653	11.8356	-20.3596	-34.5096	14.7763	74.8298	-13.4428	-10.4152	-7.6025	1.2979	7.1752	-16.3763	3.9723	33.5375
1992.0572	-0.6796	0.1521	-1.6177	11.2517	-8.7233	-18.8020	-1.6032	54.6659	-6.6716	-10.4276	3.1694	5.0537	5.3443	-2.7122	-0.8589	22.1136
2000.0574	3.2273	1.4518	1.7314	17.0602	-6.8014	-22.3716	7.3952	62.7751	-6.2148	-2.8425	16.5386	9.5726	7.5344	-5.4391	2.0225	23.9445
2008.0576	5.9813	-4.6527	-9.0807	21.9440	-19.3721	-31.5006	-6.5085	43.5274	-17.8227	-21.2103	4.4634	-3.1545	0.3660	-14.1407	3.4179	35.0612
2016.0579	-2.2399	-2.5618	-10.5033	21.6292	-12.0639	-27.7750	-15.5660	33.9560	-16.1433	-28.4212	-1.8995	-2.4614	-2.4561	-15.8270	-11.6048	24.6630
2024.0581	-2.1669	5.8386	9.4604	35.9890	-1.4040	-21.2261	-16.7103	31.9363	-2.4744	-14.1519	7.1489	14.0664	-3.5247	-2.2684	-12.7092	25.6485
2032.0583	1.5874	14.1599	16.1895	44.2164	6.7917	-10.1588	-24.4803	17.3461	11.1422	-3.2449	24.9292	21.0419	-3.2067	25.6705	-7.9584	18.2930
2040.0586	-1.4112	0.5868	-16.3601	17.4100	-7.3436	-22.2812	-17.7330	30.6776	-0.5394	-14.4527	10.2750	-5.2744	1.6293	24.2085	-8.7936	14.7809
2048.0588	-6.5979	-14.0568	-30.9103	5.2518	-21.1043	-40.3799	-23.3761	24.9063	-17.7089	-48.3099	-31.1659	-26.0272	-5.7448	3.7512	-9.3180	31.2077
2056.0590	-6.8168	6.6790	9.7135	44.5267	9.7864	-17.9081	-17.8091	16.7912	0.4404	-47.6271	-18.5753	12.1405	-11.5337	16.1045	-6.2672	27.3557
2064.0592	1.7134	20.3864	20.8512	49.4018	19.6476	10.7321	-10.1275	22.0081	13.5212	-24.9115	12.0650	28.1362	-5.5507	42.0742	7.0660	23.7053
2072.0595	2.0102	4.6561	-11.0133	18.1211	-9.3771	1.2829	-29.6984	2.4196	-2.1317	-45.1030	-9.2094	-7.8093	-6.5405	36.5983	6.5727	28.6124
2080.0597	-2.0516	0.2239	-6.0629	29.5266	-7.7552	-8.7241	-21.9563	-1.0901	-9.5207	-59.4900	-30.7580	-6.3384	-14.1186	15.3965	0.7614	38.2625
2088.0599	0.5507	10.0432	17.0355	46.1546	20.0847	-3.3755	-9.9560	-5.1665	1.8683	-46.5478	-13.6661	15.4466	-17.1596	20.2724	6.4994	40.6603
2096.0602	-2.9643	10.6539	12.2403	37.8531	26.0036	-12.0909	-19.7491	-18.6477	8.4878	-58.7877	-0.0673	8.2398	-13.1863	29.7964	-0.1996	14.9776
2104.0604	-8.4165	1.0235	-5.0533	9.4287	9.0760	-14.0994	-20.0412	-14.0700	-2.9855	-77.9202	-17.8307	-11.5451	-8.8186	12.9790	-6.7549	7.8419
2112.0606	-10.1273	-8.6978	-14.5739	-13.5507	-1.3402	-21.4622	-16.4074	-11.0302	-10.9405	-91.1950	-34.3615	-27.5181	-7.8433	2.2648	-5.9044	17.2510
2120.0608	-10.2196	-11.0734	-15.0050	-0.9292	-4.5928	-41.0137	-12.7767	-8.1137	-9.5972	-117.1784	-33.5428	-32.7612	-8.0178	9.2757	-7.2250	17.9330
2128.0611	-11.2564	-11.6276	-21.2970	-10.7495	-5.6550	-32.2151	-16.0438	-18.1820	-13.7465	-128.4946	-38.3607	-39.2338	-9.2527	6.2184	-8.3780	16.9727
2136.0613	-14.8867	-14.6679	-27.6712	-21.5207	-4.1386	-30.1170	-12.9207	-23.7458	-16.6501	-116.3255	-40.3814	-42.6400	-8.9497	-6.7811	-17.8349	7.4433
2144.0615	-11.2960	-11.4602	-20.8758	-10.4074	-6.1065	-28.1674	-1.1286	-10.3639	-15.6715	-114.0504	-30.1822	-35.6673	-7.2811	-7.3413	-17.2594	16.5833
2152.0618	-7.7707	-5.1079	-13.4460	-16.4938	0.0790	-14.3267	-9.4001	-18.4174	-10.4344	-120.5723	-20.6639	-32.7613	-7.2857	6.0272	-9.0127	24.1411
2160.0620	-7.3473	-6.4359	-16.5476	15.0889	-5.9998	-30.4966	-15.5803	-30.4235	-11.0027	-112.8585	-20.6437	-29.8454	-11.7201	4.9027	-15.3700	9.3166
2168.0622	-4.4422	-10.7077	-28.6247	2.6120	-24.5441	-13.8849	-7.3412	-24.6753	-24.3646	-111.1816	-32.1462	-38.3910	-10.6612	-10.9059	-12.9534	19.2122
2176.0625	-8.8604	-11.1461	-27.1102	-67.5759	-8.8621	11.8323	-0.7404	-15.7615	-19.5262	-116.7999	-33.0485	-48.8763	-1.3732	-7.6323	-5.3725	28.8947
2184.0627	-7.9159	-9.5032	-14.8009	-13.2263	0.8588	-22.8439	0.9686	-18.2860	-9.5571	-105.4799	-25.9601	-32.6133	-7.6087	3.3132	-7.6998	18.2078
2192.0629	-0.0747	-7.0998	-18.4529	30.1469	-18.2885	-20.7867	-4.8951	-23.7278	-19.6232	-106.8294	-30.4612	-26.3868	-14.3524	0.1826	-1.8437	22.5712
2200.0631	-3.1386	-6.6301	-20.7297	-39.1058	-10.3875	6.2566	-2.9837	-14.0998	-14.5890	-111.7421	-23.6907	-39.3477	-2.4704	7.0952	3.2206	27.7169
2208.0634	-2.9411	-9.5416	-16.9744	-24.7975	0.0912	-21.8300	4.8490	-15.0706	-6.2935	-98.9460	-10.8408	-36.6649	-2.6802	12.6179	-0.4347	19.8446
2216.0636	1.8547	-6.5713	-12.3046	29.4222	-7.5017	-35.7454	1.4778	-23.4051	-13.6656	-99.2165	-7.2732	-23.5203	-10.3940	-1.9564	-2.7339	12.7363
2224.0638	-1.2009	-1.3954	-7.8805	17.0166	12.9280	-32.7374	-0.1923	51.9400	-7.1298	-24.4122	-2.9641	4.1630	0.1418	8.6604	11.5513	23.7582
2232.0641	2.5896	-3.1168	-13.5554	4.1147	5.5043	-27.8936	1.3141	51.6027	-10.0671	-13.7754	7.2073	-1.6701	3.4282	3.7856	11.6820	26.6015
2240.0643	2.7653	-9.3374	-23.4552	-13.2793	-9.6224	-29.1905	-1.5433	46.6521	-13.5807	-21.4929	2.1422	-17.4180	4.8387	3.2819	7.2812	33.8811
2248.0645	-0.1192	-7.8386	-11.2824	-13.3258	-6.0474	-26.0432	-7.8637	36.7786	-13.0303	-28.5367	-7.2349	-12.7227	0.6462	-6.1073	3.7275	39.7550
2256.0648	-0.8017	-0.6381	0.7293	-12.1742	-3.2273	-10.7919	-16.9177	23.3963	2.0012	10.3212	8.0992	-1.2069	2.7983	5.9444	-5.5212	25.2650
2264.0650	-1.5116	-2.0618	-5.1908	-23.8691	-6.0394	-0.8517	-10.1439	29.3889	5.5553	40.9567	9.0587	-2.1281	5.9225	11.4471	-9.7987	24.1536
2272.0652	-0.9154	3.9620	10.4529	-7.5302	13.0108	7.3632	-8.4283	22.2002	6.8731	43.3980	2.4901	14.0404	-3.0350	8.4628	-3.9155	39.8047
2280.0654	1.9052	9.2928	15.6545	0.5038	18.3022	10.2430	-12.5701	11.7819	19.1041	69.7306	23.8372	21.3357	-0.6895	25.0191	-5.2578	24.8895
2288.0657	3.2839	1.3852	3.0819	-11.2257	3.3538	-2.2645	-13.1847	22.2657	10.7365	79.9318	25.0601	10.9905	4.2401	10.8798	-6.1464	20.6637
2296.0659	1.7973	-1.9463	-0.4486	-6.1241	1.0126	-7.2913	-23.0780	11.4650	5.9628	78.9385	10.9974	8.0398	-2.2580	5.6057	-8.7952	28.3815
2304.0661	-1.1168	-5.2236	-9.8547	-11.7666	1.0079	-12.2316	-18.4615	9.1771	14.3541	91.5364	12.0926	0.7393	0.0933	24.3148	-15.7054	18.2798
2312.0664	-0.6276	0.1027	4.1925	-0.2202	13.5901	-8.5942	-13.0134	18.9341	15.6329	90.3283	10.8369	15.2974	-2.0935	21.1226	-8.4960	26.0736
2320.0666	-2.4344	9.2373	18.6236	19.3572	26.5243	9.9819	-20.6917	5.8323	21.5750	92.0521	-0.9378	32.3304	-9.3237	30.7777	-3.3714	24.3240
2328.0668	-6.1821	4.0156	7.8640	9.9491	17.2828	4.7964	-13.8403	9.2588	25.2073	91.0288	-6.8673	21.7062	-3.6261	40.6647	-7.4474	4.9246
2336.0670	-2.7418	3.2422	10.0890	11.1146	15.5593	-3.5102	-11.2453	15.6453	22.8675	81.7195	-0.0671	20.6312	-2.1451	37.0477	-2.0596	11.2354
2344.0673	-5.2384	0.6591	3.7153	-1.6861	17.3036	5.1986	-12.7326	6.8529	19.2299	76.7230	-15.3404	14.4296	-5.2673	35.7507	-0.9810	15.3105
2352.0675	-10.0189	-1.2027	2.1311	-6.0523	14.0135	9.5805	-12.0795	2.3466	19.3696	69.8421	-30.6848	11.1177	-6.1379	35.2504	-5.6000	9.2111
2360.0677	-6.4066	3.0179	9.2387	15.8485	9.2396	4.8469	-22.1743	-3.9357	25.0399	74.1619	-20.1188	17.6223	-7.1453	46.0890	-5.0787	5.8096
2368.0680	-8.2910	-9.8822	-9.1122	-8.2292	-8.0103	-8.2979	-17.8005	-0.5050	15.5512	68.8225	-33.4018	-3.3843	-3.1319	33.2061	-7.4057	1.4395
2376.0682	-9.5261	-9.4625	-3.0863	-14.2309	-6.5928	-0.8618	-13.5373	-7.6038	13.6147	57.5070	-39.5636	-3.1884	-4.4789	22.9053	-8.1557	3.1061
2384.0684	-7.2923	8.4579	15.1097	14.2868	9.1627	23.8613	-19.2127	-17.8917	29.1599	73.2154	-14.2494	21.4365	-5.1835	44.8935	-9.7399	-11.6260
2392.0687	-6.2690	11.1766	10.7143	8.7585	4.5510	34.5738	-16.9881	-7.5846	28.4531	85.0682	-3.3901	23.4560	1.3586	43.3984	-9.6040	-25.3330
2400.0689	-2.4757	13.4027	15.1807	10.1129	4.3726	42.0602	-19.9805	-12.6644	26.4139	86.9114	-1.8082	27.0213	0.0750	40.1118	-1.8986	-20.8964
2408.0691	-5.3375	9.6990	15.0823	9.5508	5.5322	34.4905	-13.9608	-11.9871	24.1646	79.0418	-13.1887	25.1065	-0.6813	32.5911	-1.6683	-25.8473
2416.0693	-5.9778	0.8028	12.9292	-2.4797	-1.9094	13.6875	-12.4160	-12.9761	17.6841	57.6798	-21.2740	12.5256	0.2721	17.1340	-0.3701	-23.7203
2424.0696	-2.4786	2.3572	13.0535	0.4819	0.8849	7.5517	-22.3664	-27.8739	24.8049	52.7230	-8.8740	8.7863	-0.2901	36.2761	3.8501	-25.4478
2432.0698	-4.7482	-3.3091	-2.9810	-9.9362	-11.2988	6.9291	-18.2284	-19.2952	16.8949	44.0501	-18.5466	-3.0499	2.8119	30.8790	0.8250	-30.9916
2440.0700	-3.4301	-15.3767	-17.8540	-25.3947	-32.1315	-4.6019	-21.8503	-23.8131	-1.6584	23.3118	-36.1198	-23.2348	0.5140	4.3873	0.5997	-16.7325
2448.0703	-4.2408	-21.1464	-19.4310	-29.7812	-32.4749	-22.1732	-16.6497	-19.5800	-5.7505	9.8994	-39.3046	-29.8413	0.4930	-5.7293	-0.1027	-11.7451
2456.0705	-3.7730	-13.8415	-3.6393	-18.2861	-30.7631	-12.4134	-14.4104	-8.8644	-6.6439	2.3444	-34.9735	-15.8982	0.7424	-16.7716	-0.6144	-6.0766
2464.0707	-1.3828	-5.4926	0.8687	-8.7008	-26.4714	2.7792	-34.4474	-33.1018	0.5042	15.3359	-21.1971	-9.3120	-3.2032	-2.4965	-4.2431	-8.5937
2472.0709	-5.9791	-11.4122	-11.7924	-21.4864	-19.2597	-8.7250	-28.6705	-31.3189	1.3719	30.2147	-20.6675	-16.3859	-0.8395	-3.6891	-11.2392	-22.7395
2480.0712	-3.9749	-10.7765	-5.1014	-18.3317	-15.2064	-4.2690	-22.0328	-27.1305	-8.0521	27.7371	-25.8467	-9.2376	-4.0283	-27.0208	-5.5786	-11.6956
2488.0714	-2.3683	-3.9455	4.9650	-5.3805	-3.6270	3.7583	-12.6444	-23.8348	-1.6317	29.2639	-17.6156	2.5354	-4.6149	-17.6543	-1.7347	-10.7403
2496.0716	0.0314	6.1273	25.9060	15.5267	5.0976	10.0284	-2.5759	-17.9283	14.2713	43.8614	1.8717	21.3646	-1.8347	-0.8248	-1.6148	-16.3499
2504.0719	4.3750	16.0557	38.4425	35.4461	6.1388	25.1808	-18.5168	-41.3909	24.6049	55.8330	14.6143	33.0275	-5.1251	16.8261	0.1702	-22.4901
2512.0721	-3.2583	4.3660	10.3884	13.2221	-2.0599	11.9655	-1.0671	-11.2880	14.9486	39.3486	-3.7723	13.6880	2.6346	13.1378	-3.0810	-35.7602
2520.0723	-1.1216	4.1659	11.2441	12.9678	-6.2193	16.9667	6.3712	1.5805	4.5595	30.0433	-7.4359	15.3395	1.9478	-4.9654	-0.2545	-19.9522
2528.0726	2.1810	13.7023	20.9765	26.9623	4.2260	35.3890	-6.3746	-31.2687	13.6971	46.2680	7.2550	25.7291	-4.2657	7.5710	-2.9878	-23.0901
2536.0728	-5.0689	0.4586	0.0792	3.5414	-8.8017	20.4837	12.1075	-13.8186	7.0947	33.8462	-10.9162	5.1783	2.6025	-0.9857	-11.1252	-36.4286
2544.0730	-3.5381	-1.4339	2.7951	2.9414	-21.8858	24.6796	5.9317	-23.6733	-1.6312	18.5081	-21.1729	0.9146	-1.1610	-17.6860	-12.4989	-23.7598
2552.0732	-3.6148	6.4435	11.9628	12.9468	-3.9561	34.2023	5.7440	-28.0226	6.1041	32.2770	-10.2867	14.4550	-3.6726	-8.8548	-13.1814	-24.5492
2560.0735	-3.0635	3.9602	8.2458	6.4214	-3.7799	30.4105	14.2670	-6.2385	1.7397	34.3724	-12.9868	14.1523	-0.6793	-13.0497	-7.0560	-16.8907
2568.0737	-2.8487	4.9254	3.3698	6.4003	-12.6006	37.4238	2.6521	-13.1717	-0.7149	24.8215	-16.5579	9.6929	-1.5598	-9.0141	-8.0140	-16.9273
2576.0739	-5.3362	9.4932	0.4532	8.6244	-3.3067	45.8197	12.6953	4.0605	2.9640	33.6093	-9.2920	16.7289	2.1785	-0.7510	-10.6688	-25.0169
2584.0742	1.4625	10.4040	-0.7090	3.5047	-4.8980	54.4375	5.6304	-6.2915	-2.9310	49.7293	1.5203	17.1087	0.2238	-10.9276	-5.1733	-14.0830
2592.0744	-0.2000	1.8349	-16.3863	-11.4730	-18.6437	43.5664	-0.0443	-16.0674	-8.7416	41.4102	-2.8269	-1.3798	1.5404	-17.2437	-13.0568	-19.9827
2600.0746	-1.0131	4.7562	-9.0881	1.7838	-12.2821	40.6328	11.7669	8.2694	-6.5464	39.5022	-4.4823	8.9294	1.8175	-12.8573	-10.9286	-8.7452
2608.0749	5.5972	16.6232	9.7359	20.1918	14.5676	52.8826	9.5717	-6.1786	3.9239	62.2812	17.2940	30.2150	-4.3954	0.0709	-1.1027	2.1666
2616.0751	3.4874	10.4938	0.1146	7.7703	20.0299	35.9069	22.6715	-7.6535	6.0906	58.0226	25.8493	19.0912	0.0271	0.1247	-5.6795	-13.9096
2624.0753	7.2565	8.2770	4.4885	13.7734	3.7814	32.8609	18.6727	-13.6224	-0.6656	44.3840	20.6709	15.9197	-1.4850	-13.0830	-3.0118	-6.6897
2632.0755	9.6044	9.3201	11.1632	17.9664	-0.4614	33.6985	8.9996	-30.9242	1.3816	48.9414	24.0380	17.1376	-3.5908	-14.9768	-3.4390	-8.4392
2640.0758	5.9011	5.5897	8.8398	12.4895	3.8892	18.3138	12.8026	-28.0740	9.2356	45.2399	23.6465	10.9051	-1.7009	-0.9400	-7.9011	-12.0488
2648.0760	5.8925	6.8391	10.3984	17.6875	6.5292	23.8781	8.4203	-36.5210	11.9608	36.2960	11.7464	10.8080	-6.9842	13.7177	-3.1331	-0.4858
2656.0762	5.3670	-0.2936	-2.3697	6.3689	3.4237	17.7679	28.5537	-18.3949	1.1047	31.1026	5.5078	2.6440	-3.7499	-3.2350	-1.5787	0.5616
2664.0765	8.8494	-6.0100	-8.2211	-3.3050	-5.7016	8.9204	30.2726	-18.7951	-7.8958	26.6291	9.9891	-7.0818	-3.3031	-20.1896	-2.7060	11.6997
2672.0767	4.4098	-12.3979	-17.1614	-18.0146	-18.2098	5.3443	20.0996	-29.6472	-7.9309	9.3680	-7.8567	-23.4971	-4.5556	-12.1645	-9.3302	15.1208
2680.0769	-1.5362	-16.2626	-19.7126	-15.7913	-13.6947	-10.5495	32.7443	-5.9255	-8.4898	-1.7344	-18.5619	-23.9758	-2.9277	-13.3225	-13.2987	15.7251
2688.0771	4.0627	1.4488	7.2771	25.8569	17.3283	-4.0844	22.8560	-19.3560	3.1901	8.2423	9.8128	7.2953	-10.8458	-1.4175	-6.9871	19.5971
2696.0774	2.7207	5.5835	4.4060	15.6871	18.1413	7.2763	18.0772	-19.5526	9.4818	-2.0854	15.5860	4.4432	-5.7185	16.8716	-4.7199	6.2533
2704.0776	0.1081	-7.6020	-19.3470	-27.0643	-4.2411	5.1738	18.2518	-10.9710	-1.1935	-10.3086	-0.9382	-22.4991	1.6988	8.1601	-4.9221	4.5190
2712.0778	0.5360	-10.1519	-17.5682	-10.7776	7.9439	-11.5085	16.7538	-28.0100	-3.6416	-9.9112	-4.4454	-19.9353	-6.7784	-0.1038	-4.4089	6.7577
2720.0781	0.3842	-9.3448	-12.9447	13.0742	18.7334	-27.7710	27.2703	-20.8856	-5.4857	-33.4559	-6.3878	-14.1194	-10.8777	-1.7153	-1.1349	10.9173
2728.0783	1.7894	-14.1242	-26.2949	-21.8711	6.1842	-11.6744	23.1369	-28.8084	-15.2328	-47.4773	-13.9195	-32.1757	-8.5901	-9.6391	2.4591	19.2715
2736.0785	-0.2347	-14.1563	-24.5563	-31.4296	7.8032	-5.2177	26.7730	-30.9870	-17.2421	-54.4214	-18.0205	-32.9467	-7.5473	-18.6949	1.8185	14.1787
2744.0788	4.8271	1.4404	4.2027	17.6599	23.7054	-7.7211	23.5865	-27.4465	-4.9416	-47.7575	8.8787	-2.1502	-10.3551	-8.1239	4.9396	12.3611
2752.0790	8.3365	-4.5603	-12.8834	-3.2957	11.5456	-7.3191	18.7165	-36.7828	-6.9965	-40.0347	14.1471	-19.4467	-7.0709	-0.6671	6.5727	11.3361
2760.0792	4.4181	-25.0574	-42.7084	-46.3988	-17.2535	-17.2716	33.7371	-21.2497	-29.9603	-74.5828	-22.8749	-55.0710	-3.3339	-26.9352	6.4484	25.0987
2768.0794	5.9629	-19.0853	-30.3162	-36.6456	-12.6975	-7.1614	29.2845	-27.3068	-28.7728	-80.6073	-21.5193	-46.3022	-8.2050	-27.6311	6.0796	41.0069
2776.0797	2.7260	-19.7561	-31.9491	-45.6838	-5.5678	-9.5443	27.3314	-35.8869	-17.7537	-64.5813	-16.4898	-49.1086	-7.0101	-11.2093	-1.0167	32.7942
2784.0799	1.0557	-10.6251	-10.9663	-17.1685	-2.8201	-7.3168	15.1911	-39.8410	-13.4709	-68.2333	-13.4311	-30.3836	-10.6160	-17.0120	-7.3306	28.2601
2792.0801	2.7047	7.2066	9.7249	5.0266	11.5005	17.9142	-0.2178	-53.6354	-1.1032	-48.7550	12.4662	-4.9447	-11.2198	-7.2977	-10.6410	11.9245
2800.0804	-1.4105	-4.4872	-9.3510	-28.4640	9.0393	8.8317	15.7083	-37.7505	-5.5918	-47.0683	-0.6462	-22.5556	-4.6267	-10.1714	-8.0663	5.4908
2808.0806	1.4869	6.7879	13.0720	-2.8123	19.5788	18.0757	4.4637	-45.3804	-4.0766	-47.6595	8.9201	-1.2719	-10.5483	-18.2543	-6.1451	13.3194
2816.0808	1.1931	14.2114	12.0753	-3.9361	21.4923	27.5496	-4.0088	-48.5086	7.4593	-27.8136	36.6179	2.9666	-3.2848	-1.4732	-15.0149	-11.8703
2824.0811	-5.9181	-8.6139	-14.9981	-40.5599	-4.8473	-5.8668	5.8448	-28.1440	-3.7811	-53.5056	2.6899	-32.0940	3.8205	-10.5115	-16.9903	-14.1082
2832.0813	-4.8534	-4.5055	4.6971	-19.6330	-0.7300	-8.7120	-5.2627	-40.8763	-4.9856	-70.8745	-6.0096	-21.0138	-4.9206	-19.9162	-13.7757	1.0547
2840.0815	-3.0401	-2.2872	-1.8177	-28.2856	2.1511	0.4895	0.0529	-37.8865	-1.8498	-54.5937	10.4244	-21.8009	-0.4638	-12.6053	-15.5451	-5.1307
2848.0817	-3.3773	-6.2744	-5.8445	-38.1521	-1.3438	2.7185	7.0160	-31.6632	-5.9072	-55.4625	-1.7979	-26.2840	-0.2513	-16.3764	-11.0803	1.6829
2856.0820	-2.6803	-6.0188	2.4632	-19.4358	-1.3893	-5.7235	3.9376	-34.9955	-4.4525	-57.0631	-10.3109	-19.7549	-4.1737	-15.0936	-6.0465	2.1455
2864.0822	-4.5325	-16.9864	-17.1563	-25.9236	-21.6417	-23.5955	1.5371	-25.8438	-13.6804	-59.6593	-22.9009	-36.2773	-1.5942	-22.0548	-10.5172	-2.2743
2872.0824	-7.0783	-7.9136	-3.9466	-17.8122	-13.4636	-4.3605	-2.7495	-27.0298	-9.7444	-62.7126	-24.5021	-22.8050	-4.2995	-20.2800	-13.8831	1.3164
2880.0827	-4.6268	0.8356	11.7288	7.9466	0.3338	-6.2846	0.4617	-24.4524	2.3956	-59.4597	-9.8565	-6.5164	-5.2587	-1.5237	-9.2441	-0.5565
2888.0829	-2.6596	5.1740	16.0425	23.4557	-0.9090	-8.7772	-17.3230	-34.5088	3.8620	-55.2841	0.0873	-0.6525	-7.4222	0.2380	-11.1607	-5.1406
2896.0831	-7.3390	14.2377	22.5275	3.0783	6.5913	19.7370	-25.6751	-33.7307	12.4852	-43.8601	9.1501	6.8186	-1.2493	7.2420	-16.6937	-20.5606
2904.0833	-7.3458	-1.9291	0.0978	-22.7390	-5.1008	-6.8349	-7.3998	-6.7421	4.3020	-42.2879	-0.8945	-14.4612	6.4457	2.5385	-9.6830	-18.8894
2912.0836	-4.5521	-3.5678	1.3987	-7.8032	-2.2119	-16.3023	-10.3691	-7.5536	-7.6403	-44.0233	-5.8996	-9.5306	-0.4932	-19.9836	-5.7585	-5.2037
2920.0838	-5.1057	6.5143	11.4539	-8.1343	8.1271	5.8455	-12.2480	-8.1699	-3.4194	-38.2422	6.8520	3.3260	1.4526	-20.5486	-7.3953	-13.2200
2928.0840	-1.7874	3.1139	5.7033	-7.8727	1.6748	-1.2077	-9.7963	-4.5172	-5.9199	-30.1530	9.9778	-0.3922	3.4139	-21.4618	-2.6445	-15.0795
2936.0843	-2.2324	18.2362	21.6704	1.7940	15.3128	31.8820	-19.4878	-8.8487	6.1539	-3.8251	21.2159	21.9468	2.6292	-5.9592	-3.7436	-19.9164
2944.0845	-5.3643	19.8834	16.2774	-17.6057	13.9803	43.2071	-21.0358	-1.9483	16.5814	11.9112	27.6292	18.4489	10.4834	15.2275	-7.4148	-33.6393
2952.0847	-2.0818	4.0115	1.8586	-9.3574	1.4242	0.1370	-16.7824	1.1270	-0.6979	-6.9922	13.7595	1.9645	6.3167	-8.7323	-1.4071	-23.2355
2960.0850	-1.7775	7.4173	7.4003	7.1978	5.2465	2.5648	-17.0142	2.4911	-3.5018	-17.8110	7.9110	9.5843	1.8015	-11.4823	1.2655	-16.0216
2968.0852	-5.8442	10.3747	2.0153	-1.1707	6.7747	16.7405	-22.7465	-3.2430	4.0280	-4.2821	9.3262	8.9430	4.3824	3.9388	-5.7619	-31.6451
2976.0854	-6.6827	2.2212	-7.1666	-8.0196	4.7259	-0.1401	-19.2018	6.3334	-5.6269	-1.4765	1.0094	2.7549	4.9368	-14.0028	-3.1477	-32.4859
2984.0856	-4.5209	-8.5054	-17.6856	-18.2511	-15.0082	-17.7493	-11.6851	28.6457	-12.7634	-19.8794	-15.5826	-13.2772	8.1079	-11.3367	6.3526	-13.5170
2992.0859	-2.9147	-1.3926	-6.1940	-1.4770	-15.3504	-4.8438	-17.1280	15.0109	-6.5720	-18.0243	-11.3332	-4.2890	3.9750	-2.8219	2.2220	-8.6055
3000.0861	-2.5026	11.5634	11.2664	11.1383	3.0704	15.2398	-18.6360	13.0825	-0.6423	4.4351	8.2567	19.1368	3.3661	-8.8161	-1.1276	-16.2244
3008.0863	-2.5043	-2.2037	-11.6405	-12.0746	-11.3092	-7.2287	-9.8670	33.5197	-5.1109	2.8992	0.1952	-3.2501	10.3840	-1.5301	3.8608	-14.4071
3016.0866	-2.1526	-7.5140	-14.7063	-13.7231	-15.0080	-12.1352	-4.4629	31.8410	-14.3037	-8.1072	-13.3235	-8.6575	6.3318	-16.6585	5.3964	-1.6895
3024.0868	-0.8386	3.0591	4.0231	-8.0897	-4.9452	9.6042	-11.0763	26.1671	-12.6204	-4.4862	-5.7617	8.2560	3.5334	-25.0389	6.2008	5.5812
3032.0870	-2.3569	7.2277	7.1258	2.7066	3.9020	2.2965	-14.1055	26.5656	4.6508	4.0579	6.1123	12.5610	6.1137	9.3076	4.8599	-7.4422
3040.0873	-1.6242	15.7690	23.5714	31.0751	18.4260	-0.3500	-8.8626	30.7546	16.0229	12.0128	18.3615	31.6224	5.4678	21.9140	7.2391	-16.5840
3048.0875	3.9488	13.2950	26.0043	30.9355	4.1600	-4.0653	-12.2934	32.3287	7.0408	5.1701	18.9317	29.0126	6.3336	5.0145	14.6476	-8.8736
3056.0877	2.6989	11.8797	24.3510	25.7916	4.6756	-2.2755	-12.3440	28.5883	4.5628	-0.7260	12.2606	26.2528	5.0847	1.0126	14.8190	-7.9411
3064.0879	0.3564	22.9608	40.3989	31.0259	27.0434	17.5239	-10.0290	28.4824	15.4984	18.7144	21.2274	46.5145	4.8139	8.5243	14.9656	-15.9701
3072.0882	3.7299	12.2868	24.2080	17.5884	10.5216	-2.1919	-12.2170	30.4205	9.4931	23.2196	22.2666	29.1866	9.3134	5.0841	19.1740	-20.5459
3080.0884	3.0664	5.5830	12.8362	11.0114	-0.7592	-7.9705	-13.1030	32.1387	1.5364	10.1668	7.1382	17.4110	8.4069	0.8568	20.7056	-14.9998
3088.0886	-0.0192	16.6018	26.2810	15.4922	15.8769	18.3801	-11.1388	33.5033	13.0406	21.6323	7.1682	34.2508	7.0781	17.9593	20.5026	-14.6042
3096.0889	1.2279	8.1308	11.9544	13.3883	10.1596	-2.8910	-0.6696	45.5528	11.3807	28.7224	8.5913	23.7800	10.6548	22.2327	22.4232	-18.5275
3104.0891	3.5264	-0.0513	-0.2071	19.0331	-10.1164	-18.1586	-1.7001	52.3071	0.7958	21.6940	-0.9740	12.4430	9.5348	13.4240	21.2896	-7.7357
3112.0893	1.7894	10.5056	12.0016	28.2135	-4.9132	6.9987	-8.7599	41.1496	10.0964	32.4111	4.6851	25.2976	6.8538	24.2468	11.9241	-7.1214
3120.0895	-0.6958	17.3392	20.3942	27.0273	8.6452	19.2254	-13.1121	32.8697	15.6278	41.7670	14.1755	35.1830	6.7887	23.1454	6.9614	-17.8569
3128.0898	-0.8112	13.4458	18.1421	20.4814	2.0395	12.2340	-20.1217	25.3657	12.6714	40.8310	11.7201	29.1862	7.1860	14.7936	5.9360	-22.5857
3136.0900	-1.7456	4.0688	9.7545	14.0540	1.7343	-8.4483	-3.3146	26.0670	14.1132	32.5214	5.3376	16.1441	7.9397	20.1861	6.3176	-22.6069
3144.0902	-1.9538	-0.4491	8.8981	10.0970	9.5133	-19.2107	2.8875	28.0991	7.6883	17.2161	-5.1823	12.6901	4.2557	10.2030	12.8845	-10.1410
3152.0905	-0.2983	1.6417	10.2337	10.4761	7.1442	-13.4359	-6.1457	23.3301	4.3472	25.0073	0.5181	15.4297	3.2299	1.2364	10.6027	-7.5393
3160.0907	2.1723	-1.0742	1.5224	7.6160	6.6406	-17.9654	8.0392	27.4492	6.7430	36.6925	12.4775	9.8668	6.2487	8.5124	8.3116	-8.4071
3168.0909	2.5838	-10.6155	-10.4020	-7.9373	-1.7159	-22.0852	10.7258	20.0560	-3.2557	22.9726	-8.3031	-6.1389	2.4264	0.4880	12.9673	6.6609
3176.0912	-0.2822	-15.4974	-15.1778	-14.8837	-9.3528	-19.6156	9.0703	9.5814	-9.6782	19.1522	-24.9676	-13.2406	-1.1253	-12.4961	6.8418	9.6673
3184.0914	0.2670	-9.1140	-6.9661	-3.5556	0.9860	-15.0153	9.0874	2.0106	-0.7759	37.1658	-7.5103	-2.7897	-1.8179	-5.6312	-0.0816	3.7449
3192.0916	0.9890	-7.0880	-7.0722	-3.7964	0.3644	-9.3996	0.3247	-11.6775	2.4725	43.2025	-2.0949	-3.3181	-2.6921	0.2214	-2.6782	-0.8318
3200.0918	-0.9471	-9.8343	-11.7058	-1.9656	-4.8385	-12.1807	3.7786	-7.8953	-1.1608	30.3926	-13.3266	-7.7180	-3.5467	-1.3133	-3.8605	0.6125
3208.0921	-0.9980	-5.3639	-5.3741	4.5099	2.5622	-9.7444	-0.6023	-5.4560	1.5454	26.9719	-9.8485	-1.0035	-5.1646	3.9314	-2.7710	6.7343
3216.0923	-1.7732	-5.4274	-9.2678	-7.3210	-0.7261	-0.6312	-1.2473	-7.7332	1.0090	28.6600	-9.4767	-4.8529	-2.8488	3.2705	-4.6837	2.1804
3224.0925	-1.1853	1.2171	2.6140	10.8659	9.7823	5.2891	2.9806	-9.5391	8.6792	32.7681	-6.2744	8.4727	-4.9664	13.7020	-1.2096	-1.1491
3232.0928	-0.9404	13.3165	20.2071	28.2936	35.1928	10.0644	-7.3417	-21.0380	26.5188	53.5574	15.0431	28.6966	-6.4055	36.5090	0.8792	-14.6085
3240.0930	-3.2893	-1.6759	-6.8174	-8.1291	11.1654	1.9857	-7.3252	-20.2445	10.6208	41.7561	-0.7392	0.0493	-0.7047	15.6878	-2.2700	-23.4510
3248.0932	-2.6471	-11.9043	-16.4228	-11.3348	-12.0989	-2.7100	-5.0967	-19.9732	-9.1317	20.5673	-29.0323	-13.0166	-4.9684	-13.7607	-1.1138	-7.7537
3256.0935	-2.8975	-0.8510	-0.9367	3.2844	7.7956	8.0324	-3.7408	-18.0968	4.3926	44.3117	-10.6585	7.1621	-5.1392	0.1805	-3.7579	-12.2769
3264.0937	-3.5491	-7.2529	-18.8520	-18.6227	-9.5200	3.9271	-13.6158	-15.8988	2.9653	38.5021	-12.4519	-12.0121	0.6559	11.4120	-5.4759	-16.8019
3272.0939	-3.2779	-11.0065	-21.1194	-13.3415	-22.7310	1.4730	-25.5723	-32.0966	-4.5380	26.4606	-27.4065	-18.5722	-5.2971	1.2798	-8.2181	-9.0378
3280.0941	-5.0996	-1.5207	-4.4775	-8.2639	10.7985	15.8953	0.6459	-27.3273	0.6931	45.9283	-8.1817	3.9576	-5.4492	-14.2285	-12.8554	-16.7243
3288.0944	-3.5830	-5.2954	-11.6419	-22.4592	7.1863	15.4229	14.2724	-14.7056	-8.9972	15.5827	-13.0303	-5.9110	-2.2209	-23.7072	-4.1478	-10.0487
3296.0946	-2.6673	-0.2451	-3.7359	-3.7386	-2.4304	21.3625	3.6697	-19.4774	-7.5462	-5.9993	-18.9236	-1.7848	-4.6974	-14.7891	-2.4102	-7.7103
3304.0948	-5.6046	16.2781	15.9418	8.2672	20.2203	45.8344	3.8634	-20.4898	11.9916	19.4414	5.3964	22.9798	-1.9467	4.7015	-10.5812	-25.8163
3312.0951	-4.9112	17.9401	11.5528	0.3091	24.1776	48.7849	1.1587	-18.8112	18.3048	22.5761	13.4177	20.2864	1.3635	23.7557	-6.5358	-29.9901
3320.0953	-2.3557	13.8992	3.6508	3.0822	18.2413	39.2009	0.8076	-14.2715	12.0771	25.0475	12.9567	15.8978	1.1521	18.4230	-3.2817	-26.7481
3328.0955	-2.9447	7.5526	-2.7581	-1.9020	11.3539	29.0437	-0.3687	-14.3161	1.6053	17.0649	4.0558	8.3236	-0.6023	-1.0378	-5.4136	-21.5042
3336.0957	-4.6077	-0.8903	-11.8492	-11.9498	2.6644	14.9087	3.0018	-13.9578	-3.2742	-6.0632	-9.6500	-7.0253	-0.9021	-2.6201	-5.5424	-15.1366
3344.0960	-3.6620	2.6494	-5.2970	-4.7890	5.6204	19.0175	3.4345	-16.2228	-1.3372	-1.7170	-2.9888	-0.8240	-2.1934	-4.2541	-8.6251	-11.7899
3352.0962	-2.0702	12.4400	9.4004	11.3569	11.5244	30.4129	-10.4628	-27.3381	7.5130	8.4412	8.9569	13.1754	-5.0675	6.4089	-11.0041	-10.6907
3360.0964	-1.4102	16.3154	13.5395	12.5073	16.7452	31.2537	-9.8563	-24.6801	19.6584	20.7911	22.6986	17.2497	-1.0807	27.5975	-10.3746	-18.4667
3368.0967	-0.7540	4.3651	-3.8588	-5.7653	-1.3783	16.1449	-9.2808	-21.4003	9.8536	17.4990	13.5058	-2.1077	2.0413	16.7770	-9.8498	-18.2945
3376.0969	-1.7212	-14.6923	-28.0152	-21.6983	-28.1718	-8.3684	-3.7213	-15.6912	-8.9652	-9.3293	-18.7824	-30.9907	0.4199	-1.2186	-8.8455	-2.9189
3384.0971	-1.7563	-9.9027	-15.6195	-11.6952	-13.3222	-3.1880	5.9918	-15.9407	-6.8039	-5.4552	-14.9310	-18.6572	-3.4467	-7.5136	-10.3132	5.6747
3392.0974	0.2386	0.2293	1.5238	4.0429	-0.9896	3.4493	-4.8932	-26.9725	1.3577	6.9017	4.5717	-1.8970	-5.1158	-5.1874	-11.7980	-0.2641
3400.0976	2.6535	-10.7589	-15.5495	-12.3928	-21.9296	-16.2098	-2.5817	-15.0821	-3.9376	-4.4859	2.1477	-22.8098	1.7805	-2.0810	-6.9132	-1.1097
3408.0978	3.5113	-10.5174	-10.5818	-17.3843	-21.9589	-10.0731	-2.8436	-22.8450	-10.4653	-14.2759	-0.9600	-22.3713	-0.4897	-20.2174	-6.0309	4.5480
3416.0980	1.2359	0.5750	5.7743	5.0681	-6.7278	1.7741	-8.8521	-30.1299	-2.1920	-7.0069	5.2766	-2.2643	-3.9266	-15.5620	-9.6381	-6.0560
3424.0983	1.7278	-2.2737	-5.0947	0.8371	-7.9512	-8.2302	-1.9826	-8.8449	3.0072	0.9131	9.3494	-7.2331	2.5923	6.4169	-3.0835	-11.4724
3432.0985	1.9878	1.7155	3.3754	2.3633	0.4949	-2.6157	-9.8469	-19.0269	1.2114	-14.4573	7.8773	-2.4147	-1.0674	0.6167	1.5581	-7.8629
3440.0987	0.8481	9.0364	11.2760	15.3186	11.7488	4.0377	-3.9756	-14.6686	8.6561	-11.7777	17.6952	9.5095	0.2399	9.5572	0.3343	-18.7064
3448.0990	4.9729	0.6824	-10.2651	-1.1390	-2.3906	0.2329	7.3390	0.7526	4.7330	3.8327	18.7918	-5.8403	6.1765	18.9800	6.2582	-14.2728
3456.0992	5.0320	-4.1227	-14.6867	-8.1308	-13.1731	4.0678	4.9554	-9.9865	-6.0189	-12.9914	1.6064	-15.0005	1.6948	2.9790	5.7878	-2.3234
3464.0994	2.7183	-5.4781	-12.4154	-9.0720	-14.5162	-1.1870	12.7932	-0.0788	-6.5867	-15.0388	1.5546	-14.2880	4.0020	-5.4057	0.2117	-4.3661
3472.0997	5.3375	-10.8133	-17.7823	-16.7538	-22.3420	-11.8520	7.7842	3.8396	-10.7972	-6.8918	1.7023	-20.6926	5.2544	-10.4739	3.9597	1.9175
3480.0999	6.3309	-4.4550	-8.3063	-3.9168	-17.9712	-3.3274	4.1885	3.5640	-6.1809	-9.0426	2.7482	-10.8925	3.4182	-0.8128	7.9148	4.7535
3488.1001	7.2176	2.4068	0.6650	8.4316	-12.8198	5.4064	2.2705	8.7919	-1.7082	-0.3925	9.2600	1.4687	3.2947	4.9565	9.2690	4.7526
3496.1003	4.4277	0.1901	4.2560	12.7665	-16.3739	-3.0377	-13.5486	0.4248	-5.9732	-3.5724	-2.8928	2.0958	-1.0132	-8.0176	5.7025	5.2626
3504.1006	1.1097	1.2899	8.5583	8.5160	-11.8858	-7.1868	-10.2599	6.3297	4.5151	0.3320	2.8826	3.2748	3.1501	5.4065	0.7246	-2.9881
3512.1008	5.5172	-3.4422	4.3956	0.2613	-12.5766	-13.0608	-2.7819	2.3731	1.7572	-1.1478	4.2776	-4.6059	2.3366	4.6192	7.7900	8.6927
3520.1010	5.5011	-14.3580	-4.3701	-0.8744	-22.9895	-30.3447	3.8494	1.5706	-12.8922	-25.0182	-18.5693	-17.5740	-2.5097	-16.4438	10.6588	22.1937
3528.1013	4.3042	-17.6887	-12.2136	-16.1582	-37.2009	-31.7427	4.9195	14.9273	-13.5221	-23.8162	-14.2054	-26.9132	4.3543	-16.2634	3.1582	21.0308
3536.1015	5.8961	-16.5182	-10.6588	-12.1323	-40.5340	-27.0660	-4.5120	7.4519	-20.5946	-27.9679	-16.0394	-25.5734	0.0063	-29.1492	1.5212	31.8316
3544.1017	2.1181	-14.8656	-5.8992	3.7761	-23.0427	-32.4433	14.1832	21.3366	-16.5474	-32.6161	-24.4926	-15.7808	-2.8343	-22.2486	3.0425	33.7163
3552.1019	3.6718	-15.2413	-10.1491	-11.2190	-24.5545	-27.9021	19.6654	29.6794	-7.3578	-21.3069	-17.2311	-21.0054	3.1768	1.6542	7.5670	34.3559
3560.1022	6.7081	-8.8500	-1.4363	4.6438	-29.2080	-12.9712	-0.8326	6.9055	-12.3327	-22.7772	-17.3767	-12.8725	-4.2453	-9.5085	5.9035	40.6043
3568.1024	2.3908	2.7220	10.5452	26.6508	-6.5029	-3.3627	4.9598	9.7517	0.6914	1.9748	0.5085	9.5027	-4.3488	-0.4482	-5.9519	22.3332
3576.1026	2.5756	-3.6378	0.1844	3.9363	-10.4425	-9.0759	12.2870	14.6881	2.8000	2.0457	0.3722	-4.0882	1.1239	9.3549	-1.9907	20.2360
3584.1029	5.7578	-9.2681	-0.2148	1.7803	-23.7103	-13.3070	10.5855	6.4299	-11.6346	-28.5261	-16.0719	-13.1582	-3.1803	-13.0267	5.5548	34.9373
3592.1031	6.8723	-1.8426	11.2280	6.4082	-9.2871	-7.9611	10.1063	2.3987	-2.2771	-4.1175	7.7106	0.1553	-1.3745	-10.8289	1.3495	25.5494
3600.1033	7.2471	-12.8939	-3.4665	-12.5381	-21.7526	-26.1922	8.5946	7.0471	-7.9368	-13.8136	-1.9993	-18.8114	1.3947	-10.8339	5.9879	29.7258
3608.1036	4.7477	-29.1008	-22.4570	-19.0508	-42.1357	-51.5460	18.4795	21.9639	-28.6932	-59.8854	-38.0791	-42.2074	-1.9268	-31.4387	8.2891	50.8196
3616.1038	2.3446	-17.4579	-5.2314	-2.0200	-15.3558	-38.0104	16.4739	11.9384	-19.7565	-42.4409	-25.4034	-20.3437	-8.0418	-30.1537	0.0517	51.9630
3624.1040	2.2041	4.2333	21.9151	24.2441	11.4460	-6.0044	2.5229	-3.9478	0.5024	-10.6452	-1.1105	13.6064	-10.7161	-8.5097	-2.2273	35.4029
3632.1042	3.7148	2.1771	13.4753	15.1012	0.5197	-6.1320	4.8268	6.6076	2.7314	-3.3420	4.3491	7.2227	-3.1958	1.9490	1.2693	24.0138
3640.1045	3.4511	-12.5561	-3.2245	-7.9630	-11.0177	-29.4862	7.5446	10.5761	-10.1226	-14.1630	-9.6372	-13.8980	-1.9902	-16.4237	4.1410	30.5730
3648.1047	1.0314	-12.6383	-1.1607	-3.7842	-11.4107	-28.2680	3.7578	6.0987	-13.4540	-17.3030	-18.4114	-11.7514	-5.1071	-26.1433	0.2008	30.4415
3656.1049	2.0385	-15.5490	-9.1188	-15.0693	-24.6540	-23.5973	5.9983	9.5580	-12.7643	-7.3402	-16.7887	-19.8749	-0.9681	-20.6854	-3.0374	30.4490
3664.1052	2.9115	-17.2546	-7.3420	-11.9044	-27.4201	-27.7741	5.1014	9.0412	-14.8679	-13.9106	-23.0007	-21.3293	-3.8701	-22.2672	-1.8088	42.8821
3672.1054	1.8469	-1.4443	11.4168	15.6345	-7.4382	-12.3450	-9.5845	-2.0962	0.1115	6.8297	-3.7884	3.9144	-7.1650	-5.0664	-7.4520	30.6181
3680.1056	0.0672	-1.0610	4.6165	3.6653	-1.7795	-14.5105	-21.8258	-6.1070	5.1400	22.0465	7.3424	1.0285	-3.7742	4.2896	-10.3852	16.5336
3688.1059	-1.9906	-4.5000	3.1605	2.3642	-1.8329	-21.7002	-17.2184	0.5856	-1.7987	-4.8731	-7.4268	-3.4053	-5.7099	-4.0515	-6.8615	24.4613
3696.1061	1.9630	0.5445	10.9862	12.7313	-4.1151	-12.2627	-10.5458	2.5896	0.5785	0.3204	3.1738	4.6360	-3.9201	-3.4266	-4.2111	22.3622
3704.1063	4.5083	-14.4738	-7.4936	-12.7971	-20.9777	-35.4918	-2.4115	13.8384	-11.2704	-1.4677	-1.7626	-17.1364	1.9898	-20.0675	1.4178	23.6514
3712.1065	2.6387	-14.6752	-4.8813	-5.0499	-8.2866	-41.5694	7.8114	23.6051	-11.6000	-17.0371	-13.3166	-13.5320	-1.8779	-15.5754	7.5050	35.2310
3720.1068	6.1475	0.7116	11.1672	16.7170	13.8037	-19.3805	2.5991	15.1673	2.1746	6.4821	7.4948	9.8356	-5.2986	7.1114	11.7610	35.2913
3728.1070	9.0978	-7.4529	0.0798	1.4692	-1.9393	-29.7925	-2.3065	12.7199	-8.4109	7.1770	8.2732	-3.7082	-2.4201	-11.4659	12.9204	33.5585
3736.1072	8.9796	-4.9981	2.6471	2.6482	-5.1914	-22.2521	-5.0799	4.8693	-5.7942	6.3243	11.3004	-3.1738	-2.3344	-8.8413	8.5833	30.1396
3744.1075	6.7899	7.5045	10.7754	6.2960	13.5273	-5.2626	-23.7247	-9.8529	6.9112	27.4193	35.3827	10.7410	-2.4179	5.9728	-0.8445	15.2632
3752.1077	1.8882	2.5011	1.6646	-1.4470	20.9595	-19.8236	-21.4549	-3.1845	-2.5599	15.7685	31.0411	5.7698	-2.1685	-14.9377	-5.5559	6.9114
3760.1079	3.8995	-1.0848	-2.9651	0.1216	25.9002	-22.5363	5.5886	17.9391	-4.2418	16.8523	22.0906	6.0105	-1.0643	-9.3340	6.9399	15.8608
3768.1081	9.4472	-2.9273	-8.3017	-10.3431	20.9506	-20.8259	7.3238	29.0081	-5.9505	28.5159	27.9197	2.1324	1.8897	-3.2637	17.0040	29.3928
3776.1084	10.9040	-3.4817	-8.3295	-8.8983	14.7756	-17.7273	-2.2263	19.1070	-20.5130	11.8140	23.2840	0.4300	-3.1937	-31.9017	14.4662	40.0286
3784.1086	10.3921	-1.7187	-6.2423	-3.9155	15.5822	-8.2941	2.3963	21.0357	-23.4854	12.5378	16.4063	5.3352	-5.3615	-37.8308	14.5482	43.6626
3792.1088	8.7528	-0.9707	-5.3958	-10.3336	12.1127	-10.0283	2.2451	32.3564	-11.0454	20.1137	21.7545	3.4017	0.5714	-12.3752	12.2986	40.8198
3800.1091	8.4329	6.4566	9.0019	3.2809	20.1641	-4.6793	3.8472	28.6445	2.3482	13.9951	27.9501	12.9933	0.1659	9.2369	12.7074	38.9467
3808.1093	8.8377	-3.2515	1.0860	-11.1608	10.0739	-18.5542	8.9332	35.5085	-8.6490	6.7108	16.4685	1.6783	2.0454	-10.9513	17.4426	41.1013
3816.1095	7.2778	-14.4653	-4.7486	-21.2957	-7.3327	-35.1667	4.4141	24.5248	-21.5544	-9.3974	-0.6111	-13.6009	-0.6876	-39.7434	10.9022	45.9783
3824.1098	4.3371	5.3691	27.5776	22.3961	19.4161	-4.7644	10.8588	11.6293	-2.5466	-2.5557	0.0201	21.9852	-9.0875	-17.9744	8.6211	39.7898
3832.1100	3.9416	8.6898	24.5962	22.4791	18.0951	4.0407	11.0602	34.7326	4.4439	23.6799	1.3547	29.5212	-2.1969	1.9053	16.0404	27.6949
3840.1102	8.2457	19.5676	12.4219	28.5294	-11.7169	55.5159	-14.1743	14.3800	-1.2078	40.7571	11.2183	29.5122	-2.6276	6.5752	2.1405	24.0163
3848.1104	3.3755	27.5693	28.1462	25.0981	2.8113	52.3713	-18.2956	21.4610	16.8845	45.7679	32.8304	40.8830	6.5351	21.8919	-2.2979	-5.4567
3856.1107	3.5766	23.6596	21.3101	14.7718	2.4793	45.6024	-26.1423	18.4019	13.8397	44.0044	29.1189	33.6905	6.2943	21.7096	2.0839	-4.2233
3864.1109	0.4405	18.8951	10.9684	12.5985	3.5556	44.2173	-10.0188	26.4470	5.6658	47.4731	17.9295	31.8570	7.6794	5.1868	1.9714	-19.8207
3872.1111	3.9059	11.8064	9.8425	5.0822	-12.0265	34.5761	-2.6239	37.4225	-5.3144	27.9758	7.4613	23.0123	9.4130	-12.3208	10.7253	-6.8242
3880.1114	4.1322	15.2941	18.3399	7.0514	-11.5432	41.5540	-22.8383	9.5750	-1.8684	27.1295	8.1409	24.6457	4.0060	-11.0457	6.6993	-4.9036
3888.1116	-2.4102	30.2652	32.8347	19.8076	14.4721	55.6925	-14.3071	28.8580	21.8031	64.3625	35.0200	51.2217	12.4530	15.0057	-3.6836	-38.3008
3896.1118	4.4351	24.1719	18.8395	16.1838	-1.2788	52.5377	-4.7069	48.5345	8.7077	57.6549	29.5640	41.7310	14.7646	9.5184	10.5144	-22.1027
3904.1120	5.0388	6.3980	-11.7051	-22.0063	-31.6275	48.6854	-2.4107	46.9196	-16.6019	20.4504	-0.7201	5.3406	14.7213	-15.1773	13.5504	-2.8304
3912.1123	-0.2082	7.1248	-4.4449	-27.7483	-31.1507	48.9643	1.5899	61.2540	-12.0822	24.4867	-2.5869	9.0485	17.0297	-17.3956	1.9717	2.9365
3920.1125	4.0414	21.6051	22.2101	14.6985	-19.7753	62.8196	-6.9612	49.7712	-4.9302	48.3335	11.6816	39.6286	9.4946	-19.0766	0.9715	5.8772
3928.1127	2.5711	33.3436	30.7112	19.0448	-4.0698	83.4988	0.5031	61.2186	5.3975	54.1676	27.2854	54.9992	14.6406	-3.6403	2.4594	-9.5043
3936.1130	-1.5534	34.3491	29.0002	-13.7813	-1.4899	91.8085	-0.5583	75.9201	12.8309	48.9869	32.6638	48.5738	23.8901	10.4125	1.6980	-13.3650
3944.1132	-3.1747	25.1909	18.2260	-31.7944	-14.2795	80.1099	-9.6792	69.1957	1.6411	42.8772	24.0339	33.8642	24.3589	-12.1725	-3.1987	-15.5380
3952.1134	-4.2862	14.0798	8.6640	-5.3437	-5.5921	33.4546	12.3126	84.0028	-6.7974	25.6418	14.6330	29.1503	18.5465	-23.4602	-3.4506	-7.9267
3960.1137	-0.7813	10.7487	9.1373	22.9894	10.2127	4.1122	30.2052	85.5492	-4.8640	15.1904	16.5158	31.3950	12.0664	-13.6662	4.8097	2.6022
3968.1139	0.6707	4.3785	-5.3000	-22.7419	-0.3737	17.5360	30.7171	87.2096	-11.3127	20.2802	15.7032	13.4465	18.8371	-20.1477	8.8558	7.5711
3976.1141	-3.1338	-6.1823	-21.0867	-63.7865	-4.7994	21.4294	33.5869	89.4551	-26.4806	2.2691	-7.7018	-6.5610	17.9462	-41.3434	8.9815	26.5385
3984.1143	-5.8640	-1.1625	-12.4193	-43.5972	18.6640	15.4039	40.0276	85.3574	-21.6586	-13.9331	-7.7735	4.1054	12.2458	-34.8113	10.1548	24.5450
3992.1146	-3.5456	-0.2363	-5.7668	-29.6541	31.4508	-8.4692	46.4222	89.5337	-6.6514	-6.9939	12.1360	7.9647	14.2187	-9.4719	12.8200	21.6184
4000.1148	1.2449	-4.4386	-2.2654	-11.6964	27.6421	-22.6687	39.8588	62.5750	-9.9767	-6.7909	6.6173	5.8115	4.8579	-16.6532	15.4311	31.4806
4008.1150	1.6340	8.5284	8.5884	5.8175	36.4909	5.9840	23.8894	39.0962	-5.9803	8.6559	15.8393	23.4812	0.0193	-16.2532	11.1687	18.4607
4016.1153	-3.1143	6.7849	2.3608	-10.0038	40.9897	-0.4825	22.4448	38.6704	4.1430	22.4452	26.4088	17.3122	5.7799	-2.6614	0.7145	1.1390
4024.1155	-2.1198	-6.7827	-7.3505	-11.6519	23.6047	-28.5889	30.5056	33.7019	-3.4886	6.4748	12.1993	-0.3730	5.7228	-14.6175	2.3774	-1.8049
4032.1157	2.9893	-10.5817	-10.1245	-11.5321	7.3430	-33.3349	25.4393	34.4817	-9.5604	-6.5059	6.4385	-8.4660	4.9661	-15.0241	10.3902	13.8827
4040.1160	-0.4203	-17.5496	-15.3945	-29.9131	-0.4705	-40.6771	17.1636	21.9431	-8.9172	-11.3169	-3.7224	-22.6982	3.8387	-14.5327	2.1158	19.3197
4048.1162	-1.8870	-10.0733	0.4222	-14.6427	5.9198	-31.7549	14.2793	4.6798	3.1515	0.7932	4.5374	-9.9835	2.2776	-7.3183	-5.5585	4.6872
4056.1164	1.1167	-8.5582	3.0930	-9.8590	9.1845	-38.8401	18.9858	5.1807	12.7979	5.9036	20.0204	-9.4473	5.1905	11.0557	-3.1265	1.4463
4064.1166	1.4161	-28.7570	-26.3256	-37.6804	-20.6606	-56.7161	27.5749	11.1152	-13.0034	-20.1497	-8.8846	-41.6745	6.4302	-21.6076	-0.4287	10.4038
4072.1169	3.7002	-22.2017	-21.9578	-18.7967	-25.2068	-35.5105	21.2495	9.0692	-22.1290	-19.3945	-15.5717	-30.1799	0.0237	-34.8153	-0.5896	23.2363
4080.1171	0.8320	-10.8785	-5.4005	-2.1424	-2.0201	-29.3581	16.0879	-1.1803	-0.4092	-3.0644	0.4116	-13.0724	-1.8008	-3.8078	-6.4247	13.8492
4088.1173	-0.8455	-22.2403	-17.0026	-26.3140	-14.6943	-44.0562	13.3191	-2.2051	-5.6860	-8.3096	-13.5203	-30.8056	1.7588	-10.9629	-3.1332	7.6702
4096.1176	-0.0958	-24.3593	-21.2795	-17.8730	-18.8755	-54.2672	8.0111	-2.3775	-8.5244	-14.5953	-15.6445	-34.0238	-0.4805	-9.8706	-3.6679	12.5562
4104.1178	-6.7513	-19.1465	-16.9641	-4.2822	-5.3378	-54.8937	6.6106	-7.3352	1.0763	-19.8628	-15.2984	-26.2919	-1.4016	3.0894	-12.0576	-7.7976
4112.1180	-5.9974	-19.8365	-17.2558	-16.7003	-4.5797	-44.4662	-3.9925	-11.1774	-9.0169	-20.0756	-27.5336	-25.9467	-4.6084	-13.7700	-3.6821	1.9888
4120.1182	-4.0336	-27.4929	-25.8563	-26.9375	-8.7611	-59.8639	0.5677	-15.8090	-13.0423	-26.1278	-25.7000	-39.2430	-4.8096	-18.6996	-4.5371	9.7811
4128.1185	-4.8102	-32.9584	-33.6217	-30.5001	-28.0270	-66.0967	-0.0098	-19.8231	-16.5479	-38.2135	-31.3817	-51.1212	-1.5237	-23.3120	-9.2660	-2.5069
4136.1187	-2.0019	-24.1463	-13.5883	-6.1400	-19.0620	-53.3561	-13.1217	-29.3238	-19.9677	-39.1822	-37.6720	-31.4469	-12.0035	-34.3684	-3.3243	18.4260
4144.1189	-5.2286	-11.5303	8.9079	17.1175	6.6541	-50.3369	1.5458	-30.2076	2.2452	-30.0220	-13.5969	-9.1212	-9.0748	-14.0551	-10.2372	-7.3401
4152.1192	-2.3215	-6.5752	7.6701	8.7930	-1.2300	-35.6912	-2.8692	-30.2350	12.4164	-4.6882	6.9667	-7.2577	1.2001	3.2208	-7.6304	-34.7010
4160.1194	1.3072	-9.6494	8.8097	11.2452	-0.2515	-37.5939	-7.4514	-40.1783	4.3031	-5.9551	-4.7884	-8.2869	-7.0605	-7.2698	-0.2358	-10.3046
4168.1196	-0.7210	-7.2381	17.2251	20.1479	2.9526	-36.6614	5.4718	-43.3339	10.5948	-26.1682	-7.0819	-5.7978	-6.6169	-0.2840	-1.6136	-18.8918
4176.1199	3.4497	-4.6760	12.8031	13.7913	4.8037	-28.1586	-1.0811	-45.8403	11.2621	-15.7845	3.7056	-5.9976	-4.6335	8.1752	6.5956	-20.7338
4184.1201	1.1280	-13.5249	8.3148	7.1353	11.9225	-49.1331	7.8878	-40.8951	2.8717	-22.4554	-9.2717	-11.7774	-7.5920	-10.7737	8.6712	-13.6905
4192.1203	0.4860	-12.4212	12.1860	5.6590	-4.0967	-46.4869	0.3496	-38.7965	9.4572	-29.2132	-10.3912	-14.5364	-2.1317	2.2899	7.9532	-24.1203
4200.1205	3.6109	-11.9104	-0.0266	4.8935	-8.6804	-42.8875	-6.9663	-33.6920	11.2541	-17.6346	-3.3260	-19.5061	-1.6464	23.2615	9.2539	-13.2009
4208.1208	0.3244	-17.6775	-6.2725	9.0870	-11.0848	-47.8447	10.7832	-18.8251	-1.5211	-28.1270	-23.0108	-21.1857	-4.7221	0.0619	5.5829	-4.0336
4216.1210	1.7787	-6.8103	11.3283	28.1634	-11.0051	-29.7274	-8.4456	-32.8488	4.0138	-15.3567	-16.7172	-3.8466	-8.2877	1.6056	3.3464	-6.7112
4224.1212	-1.1552	-0.3621	12.5427	26.9163	8.1948	-30.5343	-10.5550	-27.3039	18.1387	1.5123	6.2035	3.3850	-3.7859	23.5529	-2.6388	-21.4296
4232.1215	-3.2521	-4.0943	-0.1108	-0.1332	-8.3613	-18.0316	-2.7337	-3.6174	10.5260	-12.2198	-4.6528	-8.0316	5.7797	19.0512	1.5322	-27.2412
4240.1217	0.1493	-6.5954	-7.6172	8.7534	-24.2849	-16.4497	-15.6828	-11.1532	0.6144	-15.2564	-15.1737	-13.0333	0.7004	13.0175	3.3828	-14.8858
4248.1219	-3.2099	-11.2199	-8.9928	16.8777	-18.6416	-43.5052	-6.1322	-4.0483	1.8086	-18.1880	-8.4776	-15.1662	0.8953	6.1839	-8.5710	-18.2043
4256.1222	-0.5370	-6.2854	-0.7846	-0.3907	-21.9190	-19.3266	-5.6812	-2.3940	3.9897	-14.5164	-3.0277	-12.4293	4.5218	7.0320	-4.2888	-9.5763
4264.1224	2.4260	0.4588	4.1772	27.5252	-9.0487	-8.6751	-1.3820	-15.1954	5.4857	-4.4456	-0.2750	1.1007	-3.6817	12.0834	-2.1976	-5.5380
4272.1226	1.4732	0.3702	10.0714	37.9454	-6.3332	-24.7695	1.1374	-12.2087	7.0617	-10.5344	7.2850	4.8632	-1.5485	4.9221	-4.3689	-19.7076
4280.1228	4.6821	1.1478	9.1318	-3.1546	-12.1291	-6.0997	-9.3570	-13.3376	10.8989	-7.3018	16.1143	-4.9806	6.2288	15.9296	4.9905	-13.6556
4288.1231	2.7989	-1.5412	-8.1695	6.9681	-13.2132	-9.3569	-8.0654	-14.2440	6.5246	-6.3745	9.8454	-10.5555	2.9568	21.6624	-0.6426	-16.9024
4296.1233	0.2026	-7.2918	-11.8870	28.5858	-26.3945	-32.2247	-25.1558	-22.3875	-7.3194	-24.8719	-6.9022	-13.6372	-3.5503	-4.6897	-7.5163	-21.7208
4304.1235	0.1611	1.5261	8.4012	26.5080	-9.0251	-14.2451	-30.6115	-33.9064	-0.3420	-26.6299	-5.7525	0.1453	-6.9017	-2.0508	-0.9423	-15.7099
4312.1238	2.0694	22.8284	30.8947	48.7357	16.6149	17.2235	-38.0017	-41.9273	24.4771	4.9911	24.4408	29.7979	-6.3039	36.6682	0.7622	-28.8940
4320.1240	2.6542	16.6790	18.2392	42.7683	6.2008	-2.1810	-51.7756	-42.2763	24.9972	13.6145	29.8209	18.5602	-2.1281	43.8858	0.6689	-41.8795
4328.1242	-2.4364	7.1591	1.3994	21.7423	-2.4520	-0.8072	-39.5233	-35.0488	12.4630	-12.4411	0.3017	2.0339	-1.4408	31.5312	2.8895	-42.4334
4336.1244	-2.9373	30.9951	28.0511	21.0296	14.3973	61.0106	-64.1879	-56.0233	25.4018	6.1858	13.5958	30.3793	-3.4434	43.9671	2.7588	-47.1000
4344.1247	-3.7599	29.8172	27.1068	18.5322	28.9821	38.0834	-67.5206	-50.1992	32.4128	28.0722	34.6479	33.1589	1.2883	47.2213	1.6217	-64.8915
4352.1249	-2.9916	8.4397	-5.8602	35.1158	12.3384	-12.5450	-33.7018	-20.5244	9.4581	-4.9716	9.3932	9.7127	0.6153	27.9870	8.2975	-62.3801
4360.1251	3.0375	9.9575	-4.6026	11.9259	-3.8852	25.9398	-37.4621	-30.9100	-4.8890	-20.1275	-4.8844	3.5960	-3.0291	10.3610	17.4404	-29.1828
4368.1254	1.7362	12.4065	6.5237	-21.5947	-2.1799	43.8145	-35.3966	-26.7260	2.3002	-4.1286	4.4064	4.7297	3.7815	7.2905	13.5760	-24.4378
4376.1256	1.3342	17.3883	12.6143	19.9379	3.2636	22.2640	-37.5476	-18.3795	14.1151	12.1276	21.4250	19.1489	3.7660	25.5029	5.9812	-40.5614
4384.1258	0.9263	13.1126	6.9728	11.6706	9.8495	12.9515	-36.5542	-17.7022	7.8512	14.7334	20.6252	15.4278	2.1370	12.5271	6.2511	-35.6150
4392.1261	-1.4773	-0.1899	-6.5862	-33.3478	-5.1444	15.1860	-25.9435	-5.2847	-9.4499	9.6653	-1.6506	-4.0847	5.6506	-20.7538	6.1047	-19.8035
4400.1263	1.0697	8.2589	2.5172	-10.0883	-9.6212	22.6926	-37.9206	-8.8022	-1.0370	22.1766	13.0577	6.6195	3.6173	-5.1459	-2.2296	-12.8901
4408.1265	-3.6687	15.2424	9.8606	-4.7956	11.4208	23.5784	-31.2770	0.8625	10.7223	23.9464	25.5529	17.2865	5.3642	9.9776	-9.0194	-19.5988
4416.1267	-8.1184	14.5610	9.3285	-17.8515	17.4095	33.6118	-26.8116	9.6862	9.1636	31.8245	11.2828	19.9820	5.8950	4.7080	-7.3794	-20.3702
4424.1270	-3.7446	13.0412	8.9316	1.7928	18.5153	20.2712	-23.8482	10.6565	5.4175	49.3852	18.3986	25.4519	2.4931	-3.9189	-6.0760	-15.8224
4432.1272	-1.6944	6.7901	-0.7733	9.4089	5.8981	7.1140	-16.6709	18.4941	-10.6115	33.0277	13.2706	18.6183	1.7922	-29.8517	-6.4462	-13.3707
4440.1274	-2.1094	10.9161	-1.7750	-10.6192	-5.7985	39.0770	-25.8987	12.5709	-3.6588	43.8105	9.4450	14.8989	4.6212	-10.0666	-8.8739	-7.8573
4448.1277	-0.7370	9.5038	-2.1897	-28.0534	0.8654	36.8350	-8.1374	28.8043	11.2405	67.3407	23.3009	11.9411	11.6687	17.7897	-6.8206	-0.3312
4456.1279	4.0983	1.0389	-2.4291	-16.6142	-8.8175	13.9064	-2.5786	34.0004	-8.8908	44.9129	11.0423	7.8469	6.2825	-19.5440	1.4771	18.6631
4464.1281	4.0052	3.2591	7.6131	-10.0156	-3.9420	14.6963	-11.8565	13.4358	-8.6749	41.6329	11.3626	11.9949	0.1082	-28.6887	-3.5317	23.9227
4472.1284	0.1296	4.7403	3.8104	-21.4339	6.2480	16.0664	-7.2772	21.8987	-1.1932	51.2550	21.1299	11.7707	4.6025	-17.1100	-10.1023	15.6561
4480.1286	0.0407	8.1750	2.5567	-9.4469	1.4382	27.8296	-18.9303	27.2383	-13.7846	43.5847	9.0244	18.7565	0.1174	-33.3691	-7.7916	22.9533
4488.1288	-4.4067	15.6022	13.6014	8.9775	21.2699	29.4150	-7.9424	29.6374	5.4289	53.9162	14.8974	32.8959	0.2030	-3.5586	-11.8004	9.2775
4496.1290	-3.8049	11.5810	3.2169	1.4440	15.3288	26.2480	10.0001	41.6357	12.1894	57.0600	15.9320	23.8814	7.2281	18.4021	-7.4175	-0.8220
4504.1293	2.9983	-1.1436	-11.2512	-17.8662	-17.1775	26.0549	8.5322	41.1601	-12.8391	38.2849	-7.0975	2.8672	5.1147	-13.9954	2.8656	26.9538
4512.1295	-1.3761	-0.7941	-3.9157	-5.9175	-9.8836	17.9779	4.2302	28.2270	-6.9758	34.1357	-15.0876	6.4465	-0.2014	-9.8715	-4.2281	24.1939
4520.1297	-6.1136	10.2089	5.1799	21.3434	4.3301	30.0540	-5.4920	15.6314	4.6563	45.5569	-11.9548	24.5877	-3.3557	6.2868	-10.6933	-1.7057
4528.1300	-4.3857	2.4902	-5.9591	-0.9971	-2.0887	25.5023	4.9216	26.3615	-0.4749	45.8421	-17.1164	12.2454	1.3231	3.3082	-2.3098	1.6791
4536.1302	-5.9644	-18.3965	-36.4229	-24.8013	-18.0755	-10.6787	13.0545	35.7927	-10.3001	17.3865	-43.5976	-22.7455	2.2777	10.6749	4.0343	14.2197
4544.1304	-6.7982	-20.2837	-30.5463	3.3854	-19.4082	-24.9458	19.2767	38.3740	-20.7635	-19.1739	-63.8214	-19.2547	-6.1704	-5.8691	6.0649	27.6778
4552.1306	-1.4586	-0.4572	16.9498	23.8782	7.3147	-5.2087	29.3500	39.2281	-5.1636	-13.7162	-30.6270	16.9488	-5.7723	-9.7914	11.5113	34.7613
4560.1309	1.1838	3.5680	7.7913	10.0437	7.9149	8.6404	23.0756	34.9917	4.9453	11.8661	-8.1613	13.8545	1.0951	15.5272	11.7885	20.0512
4568.1311	-4.4575	-18.1719	-29.0343	-5.7641	-16.9136	-19.7856	46.1642	64.2964	-14.5338	-6.5575	-44.1774	-15.5723	4.9467	-0.1556	9.3834	18.1709
4576.1313	-5.2925	-22.9074	-17.0846	-10.4449	-18.5998	-32.3437	66.2945	83.2746	-16.7395	-29.3011	-55.7767	-16.6957	5.5437	-12.5025	11.8890	39.9155
4584.1316	0.0987	-12.7539	-6.9433	-7.6271	-14.8402	-11.9376	58.7256	70.2806	-6.0519	-15.4352	-30.7493	-9.0449	5.4174	5.5290	9.3334	49.2555
4592.1318	1.6657	-10.4837	-1.3873	-2.0331	-9.7479	-8.5990	64.8410	68.3937	-4.8066	-6.4881	-24.7227	-2.7598	4.5329	1.4283	9.2241	49.7643
4600.1320	3.7139	-12.9144	-7.2853	-3.1230	-9.2596	-8.8216	67.8653	64.8173	-10.5285	-10.0210	-28.9639	-6.5292	2.1964	-3.0509	14.4214	54.6969
4608.1323	2.9567	-19.7254	-29.9470	0.3823	-21.8880	-17.0617	71.0705	63.4417	-15.9929	-23.2276	-38.0202	-22.9466	1.0187	6.9072	9.5659	53.7145
4616.1325	1.0216	-9.6183	-2.6080	16.5744	-6.4457	-7.3104	69.4932	53.2724	-4.3025	-33.3942	-38.2042	-4.7537	-3.2409	13.7932	10.2377	55.3536
4624.1327	6.2613	2.0696	7.7771	21.2916	-4.8604	19.6486	46.4727	34.9019	1.5728	-15.8901	-21.8773	6.9329	-4.9752	24.8558	14.0447	56.8707
4632.1329	2.5139	-1.2255	-7.1269	30.7828	-23.5343	6.4723	21.3953	27.3583	1.7641	-15.4582	-24.4282	-3.3063	-4.7066	35.1674	-0.1840	41.3242
4640.1332	-2.9580	14.7130	32.6113	50.2323	17.5158	10.3822	25.8282	25.5744	20.5770	-27.0793	-12.4642	28.5069	-6.6893	41.0417	2.1865	28.5716
4648.1334	6.4618	21.2256	31.2103	34.5598	33.0817	27.2345	43.7682	39.5198	23.5486	-9.6098	20.8934	34.1017	2.0272	50.1662	20.9282	26.2902
4656.1336	6.9914	5.8927	-6.4492	6.3228	-3.9273	14.3451	30.7288	39.9859	8.3920	-10.5101	15.8605	0.2109	8.6643	41.9989	12.3376	18.5268
4664.1339	5.0911	6.8961	1.8300	9.1200	7.3330	16.9727	39.6863	38.7968	-1.0778	-24.2513	9.4866	7.1314	3.4412	12.6468	9.6391	27.7432
4672.1341	13.5698	6.1721	-6.3121	13.7480	10.5871	22.2329	51.3533	41.7134	-10.6020	-11.1167	17.0022	8.0253	0.2809	5.2936	20.8023	45.4977
4680.1343	10.0801	4.2494	-21.2045	1.5258	-9.5896	36.8357	26.2356	21.1319	-13.6505	0.4368	9.4780	-3.8552	-0.4299	5.7962	5.3672	35.9740
4688.1346	9.4851	9.7511	-12.8084	-1.6671	-1.6659	49.1382	34.7333	23.1817	-11.5298	13.6010	26.0871	5.2159	1.6964	-6.3841	-4.6787	34.0625
4696.1348	15.5280	4.6249	-17.7270	-7.9537	-6.4745	33.3232	32.5870	18.2846	-9.6372	20.3274	39.0916	-5.1379	2.0938	2.3110	-1.6563	48.5326
4704.1350	13.0998	7.8996	-13.0989	10.3382	-11.7893	40.7881	15.6692	-0.8204	-10.9139	11.5359	25.4383	-1.0497	-5.9140	1.4205	-8.8849	50.6759
4712.1352	18.3451	19.6556	10.2949	61.0756	4.9664	38.5926	18.1645	1.3437	-7.1019	34.4809	42.9267	30.9526	-12.3902	-5.7744	-5.4851	51.0986
4720.1355	17.8740	19.1159	13.3006	10.5148	13.3309	45.0581	-2.2565	-13.4968	9.5024	54.7157	56.2351	20.6313	-4.7190	19.7092	0.9544	46.3513
4728.1357	2.5875	-18.1611	-18.0924	2.6020	-6.3757	-35.3960	2.7017	-37.3049	-13.8201	28.2447	-5.5524	-17.2157	-9.1635	-36.0475	-9.8813	-6.3346
4736.1359	-3.3519	-4.7397	1.9765	14.8337	-2.8392	-11.2538	-26.0113	-61.9322	11.3311	14.5742	-14.4507	-8.1167	-14.6429	15.4375	-17.5942	-2.0506
4744.1362	-2.8430	23.6465	20.9796	20.8353	24.6757	51.3001	-36.1423	-77.6944	35.7178	45.6306	26.7842	21.1648	-12.0810	53.0376	-25.7578	-17.3943
4752.1364	-2.1070	14.0262	15.0342	17.7865	20.7971	23.0313	-23.7879	-64.4731	25.6970	55.1244	31.5936	16.7404	-7.6452	22.1060	-26.2353	-29.8810
4760.1366	-5.5782	1.2971	6.3919	-12.9381	30.4804	7.0244	-10.0960	-63.0637	14.4631	39.0585	9.9473	2.0641	-9.4458	-0.7920	-18.8692	-20.5716
4768.1368	-5.9348	-1.9326	-5.7237	-14.4544	21.3058	14.0197	-8.2470	-59.3990	5.9553	20.7571	-9.8743	-6.5317	-12.3190	1.8269	-14.4790	-9.1767
4776.1371	-2.4344	1.7948	8.4177	31.0363	4.2403	-10.1550	-36.3991	-75.8735	14.7076	20.9714	2.0288	1.4031	-16.1164	13.6608	-22.3355	-16.8931
4784.1373	-2.9690	6.0854	1.7062	11.5415	21.3463	11.3725	-21.3731	-70.6095	14.9314	20.5716	11.8667	1.3367	-13.3856	18.1053	-20.3716	-16.1658
4792.1375	-4.0669	0.5848	-18.7314	-17.7647	7.5854	38.0376	-14.9262	-61.3448	-5.0775	6.9658	-14.9927	-12.6220	-13.3850	-1.2700	-15.0555	-2.0939
4800.1378	-7.0216	11.1531	7.7838	18.9207	30.2730	23.2316	-33.5206	-79.7441	16.1906	18.4145	0.0261	9.6851	-19.7716	20.4507	-23.1817	-12.1183
4808.1380	-9.9651	22.8550	16.8908	25.0737	66.5262	34.1006	-11.9329	-64.5774	38.2455	33.8582	21.0342	27.8082	-14.7493	57.8313	-18.8567	-29.0774
4816.1382	-4.7720	7.4005	-3.3382	1.6009	29.4621	26.7908	-9.5177	-49.8820	14.1326	26.3663	-1.5411	5.8612	-9.9244	26.2527	-6.1225	-21.0885
4824.1385	-0.6011	-0.5473	-3.0502	0.2782	26.1995	-0.4825	-5.2886	-41.8154	4.2167	9.0528	-1.7846	-1.5234	-11.3439	7.4167	0.7630	-1.5018
4832.1387	-0.0284	6.7222	5.2253	16.6265	40.4228	4.4169	5.4981	-30.2548	10.6958	3.6467	5.3726	10.5011	-12.2493	21.7781	4.2352	4.4966
4840.1389	0.6453	0.6419	2.2830	23.3944	25.5887	-10.7280	-6.1857	-32.6201	3.8380	8.9334	-4.3432	6.3621	-14.5800	8.8540	2.4601	7.0436
4848.1391	-1.5548	-0.9299	-7.7375	-8.8355	28.2331	2.6149	-4.4453	-26.3794	2.8987	-0.7638	-8.1514	-5.1230	-11.6719	17.1042	3.2406	19.4561
4856.1394	-3.9810	9.0612	-2.1661	-16.2741	22.8253	38.9435	-15.1838	-29.4356	11.4478	3.5387	-8.6142	0.8283	-8.9470	35.7694	-1.3807	15.7718
4864.1396	-3.7682	9.6687	10.2943	20.7492	28.1004	14.6758	-13.7795	-22.9988	13.9261	12.8196	-8.6722	15.5458	-13.7319	30.8297	-2.6978	15.4325
4872.1398	-0.5785	18.5686	16.9762	33.6695	40.1402	31.8072	-8.2510	-15.0578	9.8921	6.7719	-1.7765	29.4067	-16.2734	26.4530	4.5786	25.1727
4880.1401	1.4167	25.5224	22.2255	19.4864	11.1695	61.9014	-27.2515	-14.0010	12.9241	24.5418	12.3352	31.0752	-5.9390	25.2138	-3.2881	11.1787
4888.1403	0.2341	8.7228	14.9766	7.1981	-16.1454	15.4355	-18.6785	10.7664	20.9962	20.8479	4.7218	8.9010	4.3884	42.7120	-4.4593	10.8159
4896.1405	1.7603	8.1591	12.7228	8.7334	-8.3624	18.5427	-16.1603	4.0230	15.6481	-0.0099	-7.7600	6.4839	-1.7850	44.4816	6.2059	25.2230
4904.1408	3.5986	16.8305	8.8719	3.3693	-5.8980	56.7164	-13.2930	5.8607	6.1779	12.9422	0.8306	15.7692	-0.8376	27.1407	4.9010	22.0823
4912.1410	0.8927	5.3223	-0.0340	-4.1718	-22.0801	28.7509	-0.7355	28.6841	5.5858	-0.1606	-10.6292	0.8767	5.3558	30.1683	3.2795	21.7307
4920.1412	-0.7263	9.4013	17.8022	10.7793	-0.6898	18.1741	-16.7009	9.5519	1.3755	-9.6074	-10.6341	15.0421	-3.8416	4.6772	3.9436	21.8399
4928.1414	1.8392	21.1624	19.5583	1.7344	25.6440	49.6116	-4.5861	26.4692	-1.8171	13.7156	12.8635	33.2567	-0.4428	-5.3560	10.7769	20.8530
4936.1417	3.4093	3.8218	-4.6926	-25.1356	-1.0314	23.8939	6.7884	47.6174	-4.6676	-10.2269	-6.3703	0.8465	7.5834	16.0934	23.0895	30.6587
4944.1419	2.7037	-9.5175	-6.0644	-20.6781	-6.0301	-19.0768	-6.1414	28.3384	-15.3991	-35.2099	-22.8402	-13.1586	-0.9961	-8.1246	21.7696	41.2915
4952.1421	1.8921	3.8249	2.0312	-7.0834	17.9152	7.0633	4.4988	38.3061	-13.3838	-10.9478	-4.2507	10.8437	-1.5859	-14.4496	16.7582	35.6750
4960.1424	0.0935	9.6427	2.6201	-10.5322	27.1497	25.4865	0.6595	36.8308	-12.1320	-1.4938	-3.1167	18.4916	-1.0860	-12.6985	18.3857	25.5913
4968.1426	-2.8068	1.1455	-3.6430	-23.5305	36.8419	2.5471	2.5265	30.1047	-14.2426	-13.6767	-10.2155	7.0257	-3.5558	-17.5552	18.5205	28.4563
4976.1428	-3.8783	-0.0799	-2.8617	-18.9036	29.9117	-10.2075	12.7031	40.6242	3.8748	-18.7643	-5.7443	1.1843	3.0546	22.2742	17.2446	20.9683
4984.1430	-2.9340	2.4771	4.9302	-19.4428	23.4128	-3.6044	-4.6821	29.3224	-2.9073	-17.6060	-3.7946	5.8707	1.8911	-1.0227	15.1573	16.9172
4992.1433	-3.2149	6.1805	-2.5313	-26.3207	28.4051	27.1003	3.4548	37.8814	-25.4402	-9.7105	-7.9796	14.4042	-1.0629	-45.9959	11.9959	23.4013
5000.1435	-2.3306	10.4941	2.7931	6.8576	24.4674	19.5753	8.0533	51.2920	-13.5858	-2.6432	-4.5817	24.5009	0.0146	-17.6924	12.5396	17.4789
5008.1437	-4.8030	7.5554	10.8850	6.7839	38.1557	-16.0457	-6.8489	47.2307	-2.0554	-4.6099	5.8962	22.8176	-0.5197	-4.8276	9.9678	18.1181
5016.1440	-11.2042	6.7127	-5.3055	-27.9837	40.5070	6.5601	4.3462	62.0691	-4.2885	-8.4456	-0.4680	12.7949	5.8466	-1.2581	4.0264	14.4641
5024.1442	-6.5534	9.8485	-6.6829	-18.5679	21.4484	32.5838	-5.2197	55.1347	-18.6576	-4.2590	-11.7515	17.5288	2.3045	-21.8530	8.8983	18.6282
5032.1444	-4.5436	12.4418	-0.2636	-14.5070	36.3459	37.6085	-11.9660	46.0644	-33.7955	10.4702	-7.0855	30.1906	-5.6367	-64.5522	7.8002	30.0873
5040.1447	-10.0839	13.8156	-0.7580	-13.3435	47.5759	32.6852	9.3206	66.9801	-21.0118	16.5930	-0.8327	33.9239	0.9021	-44.5121	1.4618	14.7871
5048.1449	-4.5574	6.5959	-1.3575	-24.3603	31.4085	19.9542	7.8783	60.6957	-21.9649	-0.5282	-4.4656	19.0190	2.1793	-39.5316	11.2721	28.1884
5056.1451	-3.4247	4.3253	-10.6353	-50.4927	27.0599	44.2672	16.3029	52.8136	-32.4146	-7.0258	-12.4627	8.6135	0.6276	-53.7891	10.5434	44.5065
5064.1453	-3.2950	12.2325	-4.3819	-1.5034	14.9956	51.0493	15.1744	47.4348	-26.2672	12.5511	-7.6651	25.2664	-2.0496	-46.2448	-2.9107	24.4863
5072.1456	1.8131	13.6272	2.8715	20.7950	4.6036	45.5661	-5.4393	26.1525	-39.1339	21.7364	1.4438	32.7502	-8.7907	-83.2005	-9.5036	25.2194
5080.1458	-4.0276	14.8111	-1.2830	-14.6273	19.1227	65.7773	9.0622	40.1372	-40.0647	21.7846	0.3957	31.1236	-2.9584	-90.2547	-11.5934	21.7362
5088.1460	-0.8108	18.9947	11.5722	2.7568	7.4237	60.3587	4.9030	43.9912	-19.7306	29.0189	8.4982	36.3398	2.9109	-49.9485	-4.6692	10.6948
5096.1463	5.3562	14.9301	8.9830	-6.3996	-24.8394	64.8943	-2.9352	30.7654	-23.3101	25.6467	11.1161	23.1309	7.3359	-54.8987	-3.8511	7.9246
5104.1465	0.8516	2.1870	-8.8571	-21.2080	-28.9511	46.5421	15.2599	41.1592	-31.4855	18.8581	-6.5703	7.5844	9.8742	-66.8138	-4.9615	-1.3650
5112.1467	2.9478	-5.2190	-7.6572	4.4852	-23.7130	4.5020	7.1782	31.6501	-28.9044	20.9307	-12.0330	6.3594	2.4679	-59.3795	1.6233	2.8108
5120.1470	3.3503	6.7422	-3.8737	-15.8199	-29.4861	55.4374	8.3260	29.4949	-20.7017	19.6881	-3.0625	9.0982	9.1862	-39.9638	0.0514	-0.7779
5128.1472	6.4478	14.4691	-3.4276	-19.3184	-39.9179	88.1610	9.5253	33.2727	-18.5030	22.6991	2.0404	12.7147	13.6296	-28.0477	3.5466	-2.6244
5136.1474	9.5361	-2.0102	-12.9719	-1.9291	-43.0998	32.0873	1.4124	20.3324	-35.2287	28.0145	-4.9071	2.8299	4.6442	-64.5833	4.0587	2.0761
5144.1476	2.6591	-14.6387	-25.4688	-28.6922	-44.8941	13.8653	13.2309	20.6863	-43.4023	18.2932	-18.2312	-13.9163	7.9293	-89.3706	-4.0080	-12.5986
5152.1479	8.1341	-10.9356	-21.6398	-28.4345	-69.4800	30.7009	3.9049	10.7684	-37.0313	13.0401	-12.3057	-18.7562	11.8692	-70.1280	-1.9618	-12.2043
5160.1481	12.2978	-9.6424	-19.1291	0.8680	-82.2732	15.8169	6.9739	21.6423	-26.3492	12.8573	-3.4388	-16.9573	13.7823	-40.2339	-1.3105	-9.5019
5168.1483	7.1638	-12.1462	-15.9494	4.0200	-54.4234	-5.8312	23.6160	33.3346	-18.0457	0.7342	-12.5087	-13.9032	11.7608	-24.3398	6.3385	-9.0374
5176.1486	11.1146	-1.4773	-4.3369	-9.2344	-34.2474	34.2789	11.9452	7.5830	-27.5321	14.9413	-4.9873	1.4793	5.4283	-53.8917	14.8205	-3.6628
5184.1488	11.1693	11.2575	-0.4580	-0.5793	-40.6950	67.0562	3.9883	13.3066	-22.4017	44.5204	14.0382	17.3935	11.8304	-50.2900	5.9296	-26.4677
5192.1490	8.2499	-0.0882	-6.6691	18.6918	-51.6982	10.6643	-6.1693	12.8713	-6.9082	36.4767	9.3831	2.8404	13.5543	-13.4083	3.0453	-41.4950
5200.1492	10.3202	-13.4351	-13.5497	-4.6385	-54.7938	-12.4162	1.7161	7.5755	-22.5425	23.8922	2.2130	-12.8674	13.4226	-49.9959	9.4733	-36.8372
5208.1495	9.9750	-7.6072	-11.5464	-20.5822	-40.5214	12.1907	17.8531	28.2756	-24.8710	19.2132	2.5090	-5.4963	17.0234	-51.5651	19.3207	-29.8847
5216.1497	9.3551	4.9685	4.2700	11.8678	-16.5035	17.2240	4.7732	14.2034	-4.5278	19.0925	6.7064	12.2655	8.6869	-6.2704	23.5186	-24.5311
5224.1499	10.6566	11.7913	16.2687	20.9353	-2.1672	24.2114	6.1016	9.1831	-7.4070	48.2004	28.2598	31.0756	8.8268	-36.6674	18.2254	-41.0849
5232.1502	10.5791	-7.3696	-11.0603	-8.0157	-19.4351	-11.9942	5.8202	19.0323	-16.9997	43.7016	18.2027	1.1323	14.3300	-41.2155	22.0720	-41.8802
5240.1504	7.4105	-24.4824	-35.7353	-16.3045	-47.6157	-34.7384	-1.1932	9.4259	-22.0962	14.7777	-20.4648	-31.1002	9.6204	-22.6521	20.1541	-26.9542
5248.1506	7.4348	-12.0295	-8.3453	3.2528	-31.0702	-16.0770	4.9439	1.0972	-20.1656	35.3497	-2.7472	-2.8731	6.8860	-52.1577	10.7348	-35.9775
5256.1509	7.0243	-11.6299	-0.0567	7.3420	-8.2530	-46.2282	-2.4700	-11.6754	-1.5156	42.0568	19.5790	-1.5867	7.1051	-26.1353	10.7226	-45.8360
5264.1511	3.0398	-16.2263	-15.6595	10.4194	-23.9272	-47.3784	-4.4889	-2.6677	1.1808	32.2217	-3.5535	-13.1070	7.2911	2.0087	9.5116	-44.6301
5272.1513	9.6905	-7.8504	4.6921	10.5677	-34.3497	-35.4776	-15.7220	36.1149	-11.4292	-55.2644	-14.9030	-12.4955	1.2517	5.8724	24.4988	49.2194
5280.1515	12.2762	-11.1047	-4.9037	15.9613	-34.2418	-45.7026	8.8916	55.9173	-20.1240	-63.0152	-5.8346	-15.0891	4.9402	-7.5989	25.9494	46.8807
5288.1518	10.4068	-18.0160	-18.3569	-62.9487	-48.6043	-11.5638	14.6418	57.2445	-29.1249	-74.8995	-15.3571	-41.1066	15.5975	-22.9397	28.0780	55.7098
5296.1520	10.8012	-22.1237	-8.0538	-23.8790	-34.3180	-47.7479	24.8178	46.7414	-20.1796	-71.7819	-22.3866	-33.8374	5.4522	-11.0939	29.5265	61.8015
5304.1522	17.1643	-11.4713	-5.6736	24.1883	-28.9599	-44.7677	25.9538	43.5892	-16.4316	-75.2758	-2.9413	-19.7877	-0.1668	8.5002	29.8723	64.9271
5312.1525	12.5459	-14.3985	-20.0241	-57.8375	-30.5906	6.6024	12.8451	23.2916	-30.1616	-52.0258	-11.7492	-36.0414	4.0005	-26.4158	23.2390	66.7461
5320.1527	4.5774	-20.5461	-10.6579	-37.7984	-16.7912	-27.9188	21.5010	22.0599	-19.2959	-42.2631	-27.1026	-30.1398	-0.6610	-22.0301	15.3289	55.6242
5328.1529	9.6302	-5.2870	7.3753	0.4743	-20.2112	-12.8501	15.3837	10.5827	3.1932	-35.2123	-2.5202	-13.3400	0.7674	20.9470	13.9947	42.4326
5336.1532	10.4700	-5.3205	-0.8210	-52.3314	-19.2775	25.1717	17.3549	3.1713	-6.2267	-9.1374	4.3037	-19.7496	6.5272	-5.9182	13.6670	40.6877
5344.1534	8.9307	-18.6356	-8.5662	-0.0337	-15.6485	-42.5801	26.9078	15.0650	-13.8561	-22.8407	-13.2353	-20.5318	-2.9832	-14.2474	14.6536	40.2483
5352.1536	11.3750	-18.8708	-9.5195	25.5131	-24.2521	-49.5779	20.8716	7.5087	-10.9320	-21.3790	-19.5770	-19.6237	-8.0051	1.6367	15.8993	44.4486
5360.1538	7.2826	-16.0545	-6.6180	-54.4962	-4.6715	6.6608	33.9777	5.0027	-9.7040	16.5129	-17.8213	-20.8706	-0.6767	-16.4161	15.5805	52.3871
5368.1541	5.4189	-14.7824	4.3527	-47.9232	15.3543	-12.2201	28.5781	-2.6057	1.4209	33.2003	-6.2488	-12.0688	-1.7534	-10.5924	14.7736	41.0933
5376.1543	5.9718	-17.3537	1.9640	-12.7637	10.1722	-38.5190	20.0305	-5.5227	-0.2330	48.5242	-4.1062	-6.6556	-5.9511	-15.6562	8.3069	29.8218
5384.1545	3.2103	-22.0931	-0.8686	-27.9529	9.2191	-32.2621	36.5674	4.0189	-7.6403	59.1457	-15.7646	-7.9735	-4.7945	-38.0387	5.0034	32.1556
5392.1548	2.6847	-22.6518	1.3809	-47.2581	9.8079	-26.2882	28.7654	-4.1359	-2.3077	69.1721	-15.6664	-11.3260	-2.6706	-31.7191	7.1348	30.1647
5400.1550	-0.5380	-21.9109	-2.5675	-51.7610	17.1563	-24.6126	30.0796	3.0340	1.7066	85.0894	-12.4531	-9.4453	-1.6353	-25.0330	0.5512	29.1197
5408.1552	-3.4922	-17.5887	10.7462	-22.2211	32.0723	-35.6507	36.7395	0.2755	10.3843	88.7888	-9.7384	5.3309	-5.9530	-20.8548	-5.6421	20.6938
5416.1554	-3.0070	-11.6860	21.7439	-7.7202	34.9020	-34.8749	15.8235	-17.9537	14.8350	104.9075	0.8420	16.8083	-7.8104	-24.7927	-8.6633	3.4727
5424.1557	-5.6071	-16.0389	1.3178	-33.2097	23.2178	-25.3849	17.7780	-3.8514	2.6607	94.6032	-3.5694	2.5215	-2.3277	-36.7283	-13.7749	2.1770
5432.1559	-6.2410	-24.9234	-9.6113	-40.5285	17.1969	-36.2326	33.1272	2.2013	-7.7419	58.7823	-23.4675	-12.8503	-4.4822	-43.3756	-9.0627	17.0665
5440.1561	-7.7135	-17.5983	8.1821	-25.3140	34.1058	-30.9001	31.1975	-4.8248	0.9885	67.4868	-21.7214	3.7759	-9.1793	-38.6431	-9.4934	18.4567
5448.1564	-11.6850	-4.1404	15.7055	-18.7931	34.8314	-4.0318	24.1216	-7.5959	18.9917	70.5325	-5.7692	13.4555	-3.4326	-6.8997	-21.4005	-3.7367
5456.1566	-9.8015	-1.0601	12.9273	-10.1812	28.0179	2.8295	21.0082	-12.8484	17.3149	53.8854	-2.4903	11.6468	-3.4761	-1.8529	-21.0724	-7.4968
5464.1568	-10.3087	7.9964	22.9156	4.4809	55.0908	11.3753	20.0919	-10.4732	13.6437	67.1164	7.8629	33.0113	-8.6295	-19.4261	-20.2130	-6.9310
5472.1571	-13.0132	10.1992	10.2187	-17.2997	50.5694	30.6248	13.7670	-14.2832	15.8508	75.0457	15.9867	26.0829	-1.2397	-11.6692	-25.5761	-31.1242
5480.1573	-11.2642	-9.6308	-22.3621	-47.9978	15.1782	17.8048	23.4810	-9.3961	-6.6206	47.4511	-10.7201	-10.2564	2.0311	-31.7540	-21.3655	-22.8018
5488.1575	-13.1748	-13.6617	-16.9757	-22.9787	17.0065	-7.7668	29.8986	-2.3772	-14.1842	11.5464	-27.7211	-9.3681	-5.7854	-44.0783	-22.1145	-4.9642
5496.1577	-14.1305	0.9937	1.6055	10.5200	24.8593	-3.0830	14.5277	-13.9245	5.5494	12.0455	-4.0389	8.4846	-6.0359	-14.8045	-32.4208	-21.9741
5504.1580	-12.2961	3.2653	-2.6759	5.7210	19.8544	14.6557	20.8031	-12.5951	4.9304	28.5346	2.1419	9.6400	-3.2228	-15.3538	-34.3331	-26.1231
5512.1582	-13.5050	0.3929	-2.2651	-0.8336	14.0064	17.5295	26.1663	-12.4446	3.9043	10.1402	-14.9442	3.9518	-3.3610	-12.4033	-28.5262	-22.7883
5520.1584	-9.8725	3.2464	3.3856	11.3774	11.3631	9.1331	21.1037	-16.1022	9.1041	-11.3984	-5.0425	3.2738	-2.5986	2.7658	-23.0025	-22.7060
5528.1587	-9.6844	3.1472	-4.5382	9.5533	22.9639	10.3820	26.2066	-17.7079	-0.6751	-11.1394	1.1518	3.7183	-5.3034	-16.0094	-25.4712	-21.5162
5536.1589	-15.5942	-1.6343	-13.7682	-9.2578	23.7318	12.5799	20.2769	-30.6546	-5.3290	-13.7356	-12.7012	-5.1653	-5.7606	-27.4325	-30.5038	-36.5748
5544.1591	-8.9528	-5.5565	-10.2439	-5.9737	6.2077	-2.6971	25.7397	-24.4079	-8.4525	-36.1781	-7.1025	-12.5936	-1.4194	-30.8408	-20.9382	-32.2796
5552.1593	-4.2355	-9.3823	-7.2086	0.3051	-6.0080	-10.9445	26.8355	-32.9899	-14.7247	-56.0515	-12.5503	-18.6456	-4.3673	-40.2747	-15.5239	-20.5486
5560.1596	-9.3540	-9.1698	-11.3007	1.6074	-4.2545	-3.2773	15.3750	-53.3466	-8.3346	-42.7053	-24.8141	-19.6358	-8.4331	-27.0319	-23.0176	-33.0680
5568.1598	-4.9410	0.0733	-1.9389	14.2419	5.6938	2.4872	25.3990	-38.7748	4.4614	-41.3467	-1.8859	-8.5034	-3.6799	0.3157	-15.4246	-32.5873
5576.1600	-4.3382	4.3591	15.0962	17.1745	8.1658	-3.8659	8.4505	-57.6364	17.1533	-64.9913	3.4994	-7.8076	-4.1587	19.6268	-10.9341	-35.5923
5584.1603	-9.5071	0.5516	14.3448	29.2276	7.6377	-19.5770	-6.9787	-81.0493	16.1272	-66.0178	-8.6050	-9.5917	-10.0810	10.1483	-20.5546	-52.9759
5592.1605	-4.0092	0.4345	4.9527	32.5516	11.1488	-13.9865	23.0316	-53.0391	3.4495	-61.7991	1.1804	-5.6616	-6.4560	-7.7131	-11.7664	-47.3536
5600.1607	-2.0490	0.3963	3.8938	13.6043	14.8999	1.1425	34.8925	-45.4313	3.4427	-69.1843	-5.7179	-9.2522	-4.8416	1.1374	0.7968	-33.0326
5608.1610	-3.2226	-1.3911	1.3735	24.7598	13.7369	-2.6521	30.8299	-55.4115	1.7642	-75.9680	-18.3441	-11.1656	-11.0137	3.9751	-1.0338	-27.2606
5616.1612	-0.8954	-1.0725	-0.2597	36.1100	5.8499	-9.1233	24.6157	-54.7742	-2.4838	-82.6073	-12.7732	-11.4921	-11.0680	-1.1802	-1.9795	-28.5585
5624.1614	-0.7019	1.9535	19.8476	40.8255	13.4979	-23.7622	11.3724	-57.4116	11.0865	-81.9840	-6.2764	-3.3175	-10.2181	13.1495	3.9847	-29.2004
5632.1616	3.4198	8.0369	36.4165	47.1642	27.2001	-25.0399	6.8419	-65.3129	20.9993	-74.1848	9.9394	7.6843	-10.6959	22.9531	12.5836	-28.0946
5640.1619	2.5383	9.5401	25.8450	27.5521	23.0887	-6.5978	-0.2749	-74.2048	18.8156	-78.1157	13.1496	-0.3412	-7.1782	25.0508	10.9545	-39.9313
5648.1621	-2.0408	2.9052	18.9323	27.1994	14.8218	-24.2152	-2.1000	-67.3677	18.1333	-98.5279	-3.9642	-10.6653	-6.9547	31.5237	8.7501	-40.8479
5656.1623	1.4180	-1.2694	17.0713	24.9344	4.1959	-32.5378	-3.1594	-67.2608	15.6564	-100.2153	-4.0016	-17.2407	-6.4676	30.0228	11.7806	-32.1261
5664.1626	1.3369	4.3534	13.5786	13.7718	2.8383	-4.0667	-10.0398	-72.0825	11.5258	-91.0419	0.6485	-14.8840	-6.1869	23.4117	6.4948	-30.8472
5672.1628	0.0681	9.3181	21.1663	28.4099	18.6136	-7.5015	-10.8642	-63.3560	10.5262	-102.3220	1.8464	-3.9685	-10.6285	21.3753	7.4077	-19.1994
5680.1630	-1.5683	11.1524	25.1392	16.7489	28.6907	-10.8160	-16.5699	-64.6359	17.2909	-102.2952	12.1580	-3.6896	-7.5655	28.3464	7.3394	-25.5814
5688.1633	-5.2983	19.1609	26.8718	21.1006	32.3616	7.3023	-14.2906	-55.0733	23.7693	-95.3599	19.4890	5.4530	-3.6791	38.5853	-0.7183	-38.9056
5696.1635	-0.2528	16.5244	20.6044	32.6447	25.6497	4.9009	-3.9786	-41.0278	13.7525	-90.0336	16.2629	6.2366	-6.0414	29.4132	5.0281	-21.0008
5704.1637	1.5222	10.2707	2.8408	4.4447	12.8228	23.4431	-3.5491	-44.9022	3.1571	-74.1438	4.3111	-7.2722	-5.6361	20.3291	7.4027	-11.2761
5712.1639	-0.7835	22.0414	9.2681	24.3540	17.7120	49.8269	-5.3272	-43.5738	10.0396	-72.6392	5.1957	7.0510	-8.4373	37.5807	0.3682	-10.1894
5720.1642	2.0187	19.6931	15.3797	25.9051	24.3321	31.7215	-4.3439	-47.2641	14.2441	-57.5122	19.2834	8.3197	-9.1936	34.9580	-1.0980	-3.4617
5728.1644	0.5259	14.4964	7.8313	-2.5011	26.1932	36.2275	-2.7980	-55.8004	11.9874	-34.2569	20.7492	0.5333	-7.0761	22.0287	-5.9774	-8.2490
5736.1646	-1.8529	29.4191	19.6548	39.9024	40.2579	51.3222	-12.5302	-64.0519	20.4472	-39.7260	25.8000	22.3870	-14.0641	39.9984	-12.3440	-16.4424
5744.1649	-2.6248	18.5267	13.9345	26.5835	42.5943	18.4454	-16.5502	-67.5238	15.8554	-40.7292	24.6568	10.7794	-13.7936	25.2233	-10.9811	-18.9882
5752.1651	-2.9505	2.4922	-8.3711	-44.2836	27.8322	28.0976	-5.3517	-53.1602	-2.5142	-37.6105	3.9152	-16.8928	-5.9032	-3.5024	-1.4410	-3.6026
5760.1653	1.0375	12.5078	-3.8234	-31.2980	29.6828	59.5152	-7.1279	-48.6509	0.3955	-13.6008	5.7996	-1.6820	-8.3332	10.5692	4.8053	7.5416
5768.1655	3.8026	14.2814	8.7598	14.6597	37.0221	28.9397	-15.9608	-52.5698	4.8890	20.4005	20.5164	17.5124	-13.8387	3.4330	0.6177	-2.3189
5776.1658	2.4675	19.4508	18.1020	10.3603	35.3471	34.4256	-25.4248	-49.0944	7.1345	10.8490	30.3258	21.6415	-10.3169	-0.5006	-4.5009	-5.0567
5784.1660	0.3085	23.2139	12.2206	-32.9262	28.4552	66.1611	-27.2243	-36.8999	15.6221	22.3136	39.6754	14.0546	1.9561	18.8978	-6.7914	-10.1892
5792.1662	2.9498	5.2877	-5.3687	-33.7556	3.0267	33.3293	-20.9304	-19.1172	0.9689	52.2083	22.3552	1.6296	4.0256	-6.1121	-2.8425	-10.1675
5800.1665	5.3697	2.6834	3.1066	5.5922	-6.3091	8.6550	-25.0389	-15.6030	-3.9632	48.6399	10.7502	9.8764	-2.9722	-15.9679	-0.5118	-1.4483
5808.1667	2.3240	10.1624	10.5606	1.4805	9.5417	19.9266	-15.9910	-2.6369	10.9826	64.2666	24.5607	20.3829	2.4992	5.6356	-3.2147	-10.0717
5816.1669	3.7852	2.2990	-6.5094	-22.4475	0.5992	24.7323	-3.0914	14.5311	-0.6714	83.0452	17.4944	11.1115	7.6177	-10.3947	2.6997	-9.2638
5824.1672	5.3561	-6.1811	-15.8632	-40.7468	-12.1500	25.3068	-2.6955	12.5396	-12.6351	82.3489	0.7012	-0.8091	6.5749	-27.6545	8.1926	1.6318
5832.1674	4.6043	-11.2665	-16.1103	-44.9464	-13.9500	12.3368	4.6356	24.9165	-10.7258	89.8943	-4.7348	-3.1178	8.8327	-25.8415	10.6971	4.2833
5840.1676	7.2603	-14.0393	-17.6674	-29.2675	-22.0645	-3.6717	4.6089	37.3436	-13.9803	91.7894	-5.5502	-2.0798	8.8117	-27.2217	14.3285	8.5995
5848.1678	5.5353	-14.0461	-16.8590	-38.2575	-20.0974	-0.4839	0.5762	29.6204	-12.5604	91.5577	-5.3385	-4.3636	8.4893	-28.4258	10.1929	8.0263
5856.1681	5.0035	-15.1591	-15.0181	-39.2364	-19.7016	-1.2860	2.6248	23.9550	-12.3831	93.5858	-7.1847	-4.6812	7.6024	-32.9248	8.3007	6.2699
5864.1683	10.5641	-16.5138	-14.1475	-22.8824	-24.1667	-15.9750	0.9482	23.0706	-15.1914	94.3964	0.5306	-3.5144	6.3552	-36.0035	14.3202	8.3875
5872.1685	10.6935	-17.5129	-16.5437	-40.5640	-24.0682	-9.3177	-2.9650	18.2929	-17.4891	90.4974	-0.4665	-9.0038	7.3342	-39.3496	16.7853	11.1499
5880.1688	7.4064	-15.6897	-14.0227	-51.4653	-26.9205	7.8883	-0.5469	12.2738	-17.4403	82.2978	-7.9396	-10.0037	8.4483	-43.9322	12.3301	5.0448
5888.1690	9.9696	-13.3303	-6.4110	-31.2357	-27.4858	-0.6042	10.9842	20.9407	-11.2493	89.8757	3.4520	-1.4395	11.4046	-38.3820	13.7523	-5.1037
5896.1692	13.2957	-14.8239	-13.8258	-16.4199	-39.3325	-6.1006	7.8217	30.5905	-17.7102	78.2015	-3.4096	-4.2203	9.9723	-33.5541	20.7149	3.5937
5904.1695	9.7552	-13.7071	-24.5604	-17.0624	-49.4130	5.8259	0.4852	30.6938	-23.8777	54.8026	-13.8815	-11.1806	8.9255	-31.8092	13.1889	4.5068
5912.1697	4.9594	-4.3252	-15.9163	-23.1960	-33.9150	23.5439	2.8016	34.8281	-8.5140	72.0925	1.4761	0.1073	13.7919	-13.9417	4.1258	-9.4322
5920.1699	2.8097	-0.2282	-8.4830	-20.3775	-24.9514	25.1876	2.0486	43.4019	-2.0585	67.1728	0.4223	7.0653	14.6833	-2.0041	7.7576	-9.8442
5928.1701	5.2560	-7.7818	-11.1616	-8.3309	-29.3217	-3.9876	16.2906	56.7788	-17.3580	25.9228	-6.3481	0.2306	13.0691	-27.1161	14.7940	-0.4619
5936.1704	12.0935	-5.5938	-11.0235	-1.8171	-33.6014	8.2386	19.0401	51.7050	-29.9892	16.6617	-3.4653	2.2963	9.2333	-46.0174	21.9319	14.0567
5944.1706	10.5785	-0.3331	-14.5593	-6.3337	-41.9798	33.3722	2.6174	38.3846	-28.7211	17.2065	-6.5011	1.0276	8.2675	-36.5635	15.6032	11.4111
5952.1708	2.6535	-10.1887	-17.0379	-8.7398	-39.7764	-7.5611	5.7764	39.7830	-20.4336	2.7603	-11.2263	-10.8440	10.7159	-29.9434	3.8475	-3.8286
5960.1711	0.1132	-7.2407	-5.6885	-0.3817	-17.2390	-16.8377	11.1139	34.7141	-9.1272	-2.5372	-9.1317	-3.2924	7.3954	-15.0627	5.7395	-3.7378
5968.1713	3.3505	8.9650	6.0139	8.0072	0.2674	14.1991	12.5311	38.5978	-3.9122	2.0534	16.4112	16.2202	9.2305	-8.0529	9.0936	-6.4155
5976.1715	3.8251	3.0674	-6.7109	3.3807	-12.3062	9.6457	9.2979	32.2189	-16.5394	-8.2787	10.5297	4.9655	8.2561	-26.9661	5.6115	-8.6053
5984.1717	-3.6229	-6.0131	-20.8724	-3.3382	-23.0644	9.1062	4.9685	13.5451	-23.2884	-27.4933	-26.6691	-11.1938	1.2566	-29.6803	-2.3820	-8.9901
5992.1720	-2.3636	3.7251	-0.6295	8.4519	-10.5944	6.7505	10.4878	31.6293	-8.7771	-20.2036	-0.4116	6.2590	7.5894	-16.4666	-1.6411	-14.4445
6000.1722	3.1988	7.5314	9.1579	17.9798	-8.6327	-0.5313	6.9635	39.0850	-2.0663	-17.6076	14.8354	12.8110	9.9098	-2.9332	8.4532	-8.7675
6008.1724	-2.8755	12.1893	4.1497	26.9305	-3.5549	21.9908	1.9345	26.0864	-3.9365	-30.0814	-6.4220	16.0722	3.1963	3.3027	3.9908	-15.2696
6016.1727	-5.5915	26.5856	21.2107	45.8638	12.3830	26.6828	-15.2960	26.0297	5.8703	-13.0665	26.4451	38.9633	6.0267	0.2826	-10.1996	-38.4655
6024.1729	-6.8668	19.4145	12.6402	32.5939	1.4456	0.4591	-30.5970	25.3584	10.5851	-14.5900	34.6193	23.6147	11.5309	10.6612	-15.8662	-47.1187
6032.1731	-9.0663	8.1382	-0.4729	18.0104	-4.9434	-11.3263	-10.5869	33.7140	2.7721	-41.6747	10.9993	6.3196	12.0224	6.7484	-10.0920	-41.1791
6040.1734	-5.4783	12.1992	14.6272	26.8374	10.6990	-12.3317	-1.5916	37.3675	2.9379	-37.5851	19.2799	19.7771	9.6016	-3.5054	-1.6581	-31.2501
6048.1736	-6.7290	5.8713	1.6004	17.2799	3.3759	-18.1105	-3.0633	37.4178	5.2180	-39.8275	6.9860	6.0214	8.9838	16.2181	-1.4334	-22.1347
6056.1738	-6.8226	-3.8731	-14.3652	11.7665	-15.1377	-28.7158	2.9365	44.6699	-4.5130	-51.1698	-7.8064	-9.9192	9.1923	10.0699	-3.6970	-13.6476
6064.1740	-6.2084	-10.5179	-13.1716	16.4428	-20.8395	-49.5819	-1.4230	38.7843	-11.4999	-53.0060	-13.2573	-13.7314	5.7227	-10.0023	-6.0634	-8.6021
6072.1743	-10.3686	-7.1104	-11.5026	25.7081	-13.8433	-45.1493	-3.3597	33.4482	-2.0451	-63.8034	-22.4663	-11.8854	2.4752	15.0679	-8.4188	-9.2510
6080.1745	-10.4609	6.9833	-1.0936	26.5234	1.4991	-12.0635	-1.6599	35.1559	9.2244	-56.4391	-7.8810	3.4515	4.7429	35.2185	-6.8983	-13.5779
6088.1747	-9.8503	-2.6197	-10.5397	5.6979	-5.8303	-25.8432	6.9973	41.0708	2.7187	-57.7785	-10.6992	-10.0374	8.9669	21.8547	-4.4274	-14.3784
6096.1750	-6.3314	-9.1493	-11.8628	31.8129	-15.9068	-54.3163	10.2154	42.4144	-3.6774	-76.9685	-19.6332	-14.4275	3.6416	17.4125	-0.5049	-2.3515
6104.1752	-1.7572	-0.5288	-0.3876	43.6192	-7.1455	-40.2183	8.1592	39.1072	4.9647	-62.9467	-7.4636	-1.8094	1.4358	34.3343	5.1292	8.4311
6112.1754	-1.2406	-8.9547	-15.3106	-5.5510	-12.2604	-31.5589	16.7208	42.3689	5.4790	-55.1559	-11.5294	-22.3803	8.2088	43.3792	11.0782	17.2572
6120.1757	0.2348	-6.2009	-9.5616	13.5366	-9.3529	-30.9837	8.1065	27.9369	2.1981	-55.3111	-13.5130	-15.4079	0.4075	35.4461	8.9851	24.9253
6128.1759	-0.9669	-0.5274	0.7873	49.8284	-2.6196	-36.2957	2.6554	19.3720	7.6706	-35.8923	-8.3300	1.6033	-5.3608	35.1409	-0.4560	14.9238
6136.1761	-0.0989	-8.9105	-9.6639	25.8986	-18.8630	-45.7981	9.4188	23.7860	7.1449	-37.8582	-4.3461	-15.9801	2.5879	34.7372	-2.6918	9.4635
6144.1763	1.6847	-8.7945	-7.3997	14.6563	-22.8520	-35.6713	6.9507	12.2195	3.3390	-47.1121	-4.7151	-20.2953	1.2145	25.7840	-2.9153	18.5600
6152.1766	-0.5892	-13.3632	-14.2754	7.5388	-27.3275	-35.6052	8.3430	14.9009	1.6173	-47.6718	-21.1554	-26.8678	-0.3720	30.1202	-2.6399	26.4018
6160.1768	0.5268	-12.2493	-18.6889	-5.4581	-33.0596	-23.7043	-0.2010	16.1922	0.3832	-41.7742	-18.7176	-30.2084	1.5470	33.4177	-2.2459	32.1527
6168.1770	-0.0043	-10.3954	-18.2034	-3.6563	-28.1126	-13.5767	-4.5371	1.0132	-3.3474	-27.0147	-17.5771	-25.7846	-3.2565	19.2176	-9.5656	32.3167
6176.1773	-0.6965	-20.9774	-22.8559	-1.7393	-37.5514	-43.2677	-4.0270	-8.2145	-9.6885	-42.7378	-25.6293	-38.6857	-5.6748	3.4679	-14.4024	31.9860
6184.1775	1.0097	-5.4985	6.4603	12.8170	-19.1958	-33.1019	-11.1012	-12.8159	3.8189	-51.7402	1.4684	-17.2124	-4.5007	11.1230	-13.6373	27.9958
6192.1777	1.7646	9.1589	19.6762	31.4138	5.1731	-7.1257	4.0706	0.3846	24.1422	-21.9959	14.8275	7.5823	-2.6966	50.2064	-5.4535	21.6555
6200.1779	4.4834	-3.4659	-9.7510	12.6533	-15.2741	-10.8132	10.6591	8.6711	11.3033	-19.2572	-1.8761	-14.8249	-0.4324	50.4153	2.3089	27.4740
6208.1782	3.8979	-4.3073	-12.1318	-11.0469	-19.1388	7.6383	0.0721	-4.7215	-10.8177	-32.5911	-7.2230	-18.9336	-3.6235	-0.6133	-3.1539	34.9326
6216.1784	3.6077	2.4274	0.9625	8.0803	-10.7684	12.5477	-6.6585	-17.2656	-4.5074	-27.2198	-3.4550	-6.1808	-8.2310	3.2458	-6.1105	32.1377
6224.1786	2.7156	2.6363	-2.3565	9.3507	-19.6439	8.6410	-15.1539	-23.4851	5.3458	-24.7895	3.2470	-11.8235	-4.6001	25.1484	-11.7897	18.8275
6232.1789	0.9012	10.9338	8.8823	-7.6634	-12.7048	41.3401	-13.1758	-22.3691	3.6940	-11.8423	10.2700	0.1723	-1.5599	4.9757	-16.3317	14.5533
6240.1791	6.3857	25.4880	24.9441	9.2455	0.9721	67.6244	-23.4547	-24.9893	17.7633	18.8820	25.1952	22.7377	-3.2628	33.7670	-4.4295	19.3917
6248.1793	1.9766	24.1548	10.0087	2.9580	4.5286	66.0107	-33.3822	-23.4906	25.1352	32.7289	21.3424	16.9402	-1.5261	60.8968	-6.3360	6.8990
6256.1796	-2.7023	18.1836	8.3311	3.6656	6.8691	58.1233	-24.4070	-20.7406	7.3826	22.9699	2.4962	18.0329	-5.9403	15.5834	-11.6327	4.6175
6264.1798	8.0456	29.2025	37.8297	42.1911	13.1379	54.6798	-30.8353	-27.5790	9.9017	19.9880	24.7949	41.2417	-10.7486	8.9359	1.1822	16.6982
6272.1800	7.7985	24.4348	35.5375	28.2067	12.7368	32.7630	-37.1594	-27.1703	21.2874	25.3297	35.9870	31.3021	-4.7931	29.3398	1.8847	8.7131
6280.1802	-0.5709	14.3118	23.4670	-16.4121	13.1233	33.0442	-38.6293	-32.0498	13.3649	24.8550	16.6394	15.3121	-1.8068	6.4276	-3.6746	-2.4070
6288.1805	-2.1487	28.4954	33.6367	-35.1153	27.1249	83.6872	-43.9515	-33.5372	14.4872	39.2317	22.6449	32.0014	0.9690	0.6418	-0.2330	-10.6925
6296.1807	-1.2036	20.2293	19.4649	-26.3872	16.9776	55.2461	-44.2042	-30.8211	19.0371	51.7816	25.3019	21.2486	3.8200	18.0258	-0.9376	-23.8729
6304.1809	0.3141	-5.0693	-5.9577	-13.7459	-4.6684	-17.9651	-38.9983	-29.6621	4.8004	24.5847	6.7287	-9.6942	0.3780	5.9348	0.2757	-20.4062
6312.1812	-2.7520	-4.5777	-3.3240	-22.7113	7.7419	-4.9528	-22.9665	-3.4940	-11.0741	3.4101	-15.6027	-2.5242	-2.8924	-21.8315	9.0851	3.0697
6320.1814	-3.2946	1.2423	9.5687	-21.7722	24.1989	4.4216	-18.2307	15.2209	-5.1858	28.6925	-13.9006	14.8241	-2.8686	-18.0657	14.7290	14.6514
6328.1816	-0.6722	-1.2583	6.0558	-31.8948	21.4893	-8.4743	-17.0277	28.4128	2.7746	55.6587	5.9200	11.8948	5.4405	-5.9875	15.4639	7.6772
6336.1819	-2.1889	-4.4597	-3.5731	-52.1258	12.3944	9.5536	-9.0041	45.5479	-11.5096	56.6324	-10.6427	7.9669	7.6628	-28.1627	17.6488	15.5328
6344.1821	-2.7131	-5.1238	2.8160	-42.6648	14.4406	3.0608	-14.8442	40.9853	-11.0459	55.8814	-20.1563	11.4237	2.3269	-28.5108	18.4078	26.3443
6352.1823	-4.2880	-2.4303	11.7250	-29.7691	26.9371	-18.8574	-17.3908	46.1307	4.0475	61.7748	-2.3098	17.9369	4.8471	-8.0004	14.4157	17.0073
6360.1825	-4.8838	-4.7346	6.5093	-24.5190	21.1450	-19.9354	-20.7918	44.1846	-4.3347	72.4200	-7.5476	18.8741	3.2087	-26.3445	10.6440	10.2101
6368.1828	-5.7797	-13.6989	-10.9533	-65.4800	4.6304	-6.7601	-21.9839	41.3792	-15.3004	81.4718	-19.7165	-0.0003	6.9055	-42.8590	8.3178	14.1327
6376.1830	-10.1060	-17.1708	-15.1818	-84.8494	2.6374	-4.0492	-13.7422	61.1004	-20.0980	69.3243	-32.4525	-5.6488	10.0358	-49.7028	7.1333	23.3176
6384.1832	-6.6382	-7.4869	7.0499	-10.6776	12.7241	-26.5716	-16.9800	62.2260	-19.2877	62.4796	-22.9225	23.1891	-0.5151	-56.1143	5.8605	24.5062
6392.1835	-2.7958	0.9709	11.2155	-4.4941	18.3859	-19.8902	-13.2088	73.1293	-8.6072	73.6185	7.0687	31.1788	5.7978	-35.9989	5.6813	19.4622
6400.1837	-3.7175	2.7394	-0.5866	-45.8295	11.8720	15.7259	-13.0962	83.2102	-15.1243	61.5114	1.6378	20.3692	11.9701	-34.7648	9.8458	28.7410
6408.1839	-3.0253	11.5489	8.2518	-22.2088	13.2027	30.8754	-24.3795	68.5092	-18.2204	52.1827	2.7700	32.5361	6.0451	-42.5509	6.6817	25.5310
6416.1841	-6.4397	20.8056	18.4436	-16.1640	21.9288	43.7714	-22.6005	68.7261	-2.6336	63.7434	17.8907	43.9433	10.4152	-23.5557	-2.1717	6.7331
6424.1844	-5.4948	19.3597	11.4223	-22.7201	10.8638	56.0885	-23.4718	65.4753	-10.0494	54.9841	7.4577	37.8204	10.0906	-29.0578	0.7107	8.6677
6432.1846	-1.2805	12.8133	-5.3004	-17.2964	-5.4364	47.1791	-22.7194	64.1853	-25.0233	44.3776	5.0105	25.8307	8.3343	-44.3204	0.8599	13.8100
6440.1848	-3.3528	12.4220	-4.0574	-15.8073	-0.3912	38.2582	-18.2825	63.4603	-18.8746	35.9915	9.0061	23.6094	8.8824	-34.7012	-3.9085	11.6402
6448.1851	1.6182	17.7543	4.5299	-11.8541	-0.0972	49.0368	-27.6692	45.9885	-17.0881	19.3339	14.3053	25.0932	5.6863	-27.1297	4.0247	20.5977
6456.1853	4.5620	20.1809	-2.4065	-7.7492	-9.3101	56.3468	-41.5373	34.8760	-18.1108	27.5012	25.5675	22.3217	5.2961	-22.6010	-1.3127	18.6014
6464.1855	-0.9222	25.9841	15.9711	21.7456	4.3384	48.8734	-42.9131	18.8007	-5.2606	34.6909	27.2892	38.6049	0.4030	-18.8254	-13.9393	-0.2700
6472.1858	3.4380	24.2151	25.3195	21.9229	4.3255	41.4376	-29.0522	16.2023	-3.2498	22.6860	30.1112	37.9340	2.3682	-20.9050	-2.5890	-1.7666
6480.1860	6.3256	9.9027	-3.4998	0.5177	-19.1343	26.8511	-25.8540	23.7546	-16.1830	16.5406	20.7321	10.9635	6.0042	-24.1708	0.7697	5.2417
6488.1862	3.2057	11.0918	1.2371	20.9326	-17.2048	20.5086	-33.0587	14.1766	-12.9512	4.4788	8.0568	14.7187	-0.1050	-15.9754	-2.0735	4.1318
6496.1864	5.5589	12.8894	10.1422	16.9901	-14.0133	15.2641	-32.1261	17.9257	-2.1172	-4.4901	15.3472	14.7216	3.9017	5.5574	8.1990	5.0450
6504.1867	5.8962	3.7263	-3.2724	12.7182	-19.2019	-6.5939	-26.7285	17.1258	-5.7035	-5.7859	14.8760	1.3218	4.6912	3.1549	6.1610	2.0747
6512.1869	7.3787	7.0991	5.6583	32.1264	-17.4562	1.1370	-19.2121	6.1853	-11.0240	-17.6499	9.7020	9.6304	-1.2225	-12.3955	6.1636	4.0894
6520.1871	10.0168	7.6025	6.4733	25.7049	-23.9851	6.1875	-21.0226	4.2685	-7.6137	-22.6297	11.7669	5.5104	1.1210	-0.8180	11.5048	7.0037
6528.1874	8.3115	4.0753	-1.3971	27.7133	-22.7772	-5.8829	-23.5790	-9.6244	-1.0614	-17.2381	13.8835	-2.0746	0.3053	13.8937	5.6930	-4.5980
6536.1876	7.9048	6.6615	1.3940	29.1982	-22.3404	10.4887	-22.1695	-24.1164	-2.7813	-17.7618	7.9875	0.6583	-3.0864	7.6231	3.5933	-6.6248
6544.1878	5.3008	1.9603	1.7851	33.0011	-23.7778	-2.8206	-26.3567	-32.7553	-6.5688	-26.8233	-4.0071	-2.9966	-7.5016	-3.1236	-0.4852	-4.8482
6552.1881	4.8565	7.0175	16.8662	49.5258	-4.5730	-19.2959	-27.1328	-43.6197	8.5535	-31.5450	14.6483	5.4917	-9.1319	13.7792	-3.7057	-11.2630
6560.1883	5.6200	10.4484	14.3276	35.6828	-2.3251	-7.3006	-28.2709	-47.6594	17.6249	-29.1324	26.9291	1.5738	-4.5587	35.2689	-3.0823	-16.6953
6568.1885	1.9634	-6.4422	-11.2647	26.1566	-16.6343	-30.9281	-14.6603	-40.6390	2.4735	-41.8252	-1.2151	-20.1539	-5.0276	18.8282	-3.6660	-21.3096
6576.1887	6.6011	-3.2231	3.0371	41.6558	-8.7953	-32.5910	-2.5379	-39.4655	4.0821	-47.0434	2.5449	-9.9013	-7.5906	16.6315	6.3069	-12.0186
6584.1890	9.4874	6.5425	17.5097	46.3328	1.8536	-15.9919	-11.8608	-56.4129	17.4783	-32.3322	19.0238	1.1565	-9.1871	35.8411	7.2563	-10.3561
6592.1892	4.9329	-11.4022	-9.8870	19.5787	-11.5872	-37.2351	3.6652	-56.6985	8.7152	-42.9586	-1.5597	-27.7936	-6.2198	28.0562	2.4388	-19.6395
6600.1894	5.6904	-25.1496	-24.6906	-2.3512	-28.3154	-53.8616	16.4359	-52.6772	-0.3907	-63.7263	-15.8429	-51.2753	-3.9448	19.5588	4.7578	-9.0090
6608.1897	3.5793	-26.3940	-19.1476	12.2706	-21.1709	-66.5129	8.6113	-69.7543	-1.3553	-64.5980	-21.5011	-48.0240	-12.3330	9.9877	-2.7204	-4.1537
6616.1899	1.8848	-28.8246	-22.0466	-2.4910	-19.6513	-59.8252	15.5127	-71.8550	-4.2788	-68.2340	-29.3825	-52.5706	-11.8887	3.1908	-1.8222	-4.5102
6624.1901	2.9246	-28.7091	-23.7810	-21.1726	-29.6840	-50.6738	10.7224	-75.8817	3.9945	-73.4603	-25.5528	-62.7764	-7.2232	25.4252	-1.4880	-0.7616
6632.1903	0.4209	-25.8264	-14.8026	7.9219	-14.9074	-68.1173	8.7659	-89.2733	12.4795	-64.7446	-16.5842	-52.0224	-13.0571	29.1329	-12.5297	-10.4797
6640.1906	3.6483	-17.4717	-6.0269	23.3140	-1.6226	-51.5750	14.3223	-87.6933	8.0230	-49.6646	-7.1639	-33.3754	-15.5378	13.3336	-7.1222	-13.3251
6648.1908	5.4244	-13.2129	-5.2797	23.8968	-10.2635	-37.1715	-2.4422	-96.3119	10.4450	-38.1634	-3.9011	-31.1157	-14.9696	21.3269	-6.8324	-17.3919
6656.1910	2.7364	-17.8766	-1.5007	19.7761	-12.4763	-56.1420	-2.6877	-100.3141	20.0491	-33.3067	-2.0671	-36.3763	-12.5076	29.6580	-13.5217	-24.9901
6664.1913	5.5799	-21.1747	2.7540	10.3316	-3.6093	-63.5694	20.1472	-80.1618	17.5824	-36.3755	-1.9049	-35.3908	-10.2064	22.4511	-1.5612	-9.6241
6672.1915	7.8876	-22.1178	-3.5213	7.2210	-0.6285	-54.3701	32.1220	-70.1850	11.5876	-35.0602	-9.9457	-35.4832	-11.6073	21.8319	8.0059	3.0006
6680.1917	9.1050	-16.2694	-1.2403	10.7408	-4.9687	-30.4459	32.1236	-72.4278	11.6732	-19.4385	-7.3047	-27.7456	-11.0320	20.4851	6.0378	-1.3456
6688.1920	9.4443	-11.9278	4.3329	32.8837	3.1231	-34.4818	31.8863	-65.3701	9.8839	-9.5960	-0.9876	-13.9013	-13.1228	11.6744	5.3196	-6.1111
6696.1922	5.0406	-13.4806	-3.2737	10.4209	15.2825	-38.1612	30.7321	-57.7048	15.8894	-9.6688	1.4646	-20.4575	-8.9843	26.9218	5.4482	-10.4240
6704.1924	3.3243	-7.1459	0.8851	-10.3925	14.5102	-11.4760	27.9447	-54.4955	19.4313	-7.8504	8.4623	-18.3072	-3.4418	29.1018	1.8326	-13.3309
6712.1926	8.4604	-7.3929	8.3457	39.5924	9.2649	-33.3863	34.2081	-38.6759	2.6388	-9.1726	5.2927	-1.3429	-10.2438	-6.8022	6.1243	-6.7217
6720.1929	12.4413	-16.0944	-3.8747	22.1202	-6.7330	-46.7011	30.5948	-28.7314	0.2686	-13.6006	0.8938	-18.5322	-6.5498	5.0754	15.5696	8.4750
6728.1931	7.2427	-15.7947	-15.3046	-35.3835	-16.1701	-7.5974	23.7636	-41.0709	8.1224	-18.5880	-3.4843	-39.4009	-0.0785	27.8772	4.9530	14.6898
6736.1933	1.7076	-13.4920	-15.7712	-26.3898	-0.6947	5.2030	36.4327	-39.6380	-1.8588	-12.5592	-15.6640	-27.9986	-6.7621	0.5570	-4.1452	14.4059
6744.1936	3.3088	-9.7613	-10.7923	1.2472	5.9930	-8.5018	30.4086	-26.7522	-0.3009	-5.6306	-9.5517	-15.3106	-8.8340	6.1525	0.1528	15.5539
6752.1938	1.3720	-6.7269	-12.3302	11.5927	4.5086	-15.8316	19.9449	-26.8901	6.7762	-21.6584	-2.3065	-17.3739	-7.7660	26.5812	-5.8403	9.8540
6760.1940	-1.4488	-6.1621	-15.4447	-26.6505	16.0454	14.9127	36.5084	-25.7819	3.0502	-25.3835	-11.8228	-21.2404	-5.1506	17.9044	-0.5145	13.0762
6768.1943	4.5208	-1.3069	-1.7752	-26.3864	19.8943	30.6795	37.3379	-29.8678	4.0668	-9.6292	-8.1951	-10.0206	-6.2203	14.0322	12.8036	21.4846
6776.1945	7.8238	0.2540	1.9773	19.6341	16.2954	7.4112	26.9013	-42.4706	0.6151	-8.1277	2.5031	-0.9917	-12.9639	3.4714	5.8519	12.7857
6784.1947	1.6339	3.5931	-4.8049	-29.7110	24.4498	43.2385	29.8863	-39.8330	4.6537	-7.4474	2.2255	-8.3481	-5.4135	10.9334	1.9571	7.2399
6792.1949	-1.7950	2.1339	-7.0882	-66.3233	21.2732	57.8476	27.2102	-28.8153	7.5966	-6.5234	-5.9904	-15.9191	1.0835	18.4900	4.9775	11.3623
6800.1952	3.0093	-9.0004	-19.3304	-17.3120	4.4042	9.3112	24.7234	-23.0541	-14.6156	-11.4033	-13.2475	-17.6257	-7.4309	-17.0767	3.3172	14.4570
6808.1954	7.5821	1.4471	-5.8171	21.5319	18.7114	12.4680	21.9041	-28.3947	-10.8292	-3.6037	0.2443	3.1279	-14.5886	-11.2208	6.4784	20.4355
6816.1956	5.6909	9.6728	10.6996	10.3549	34.3978	21.6113	7.7601	-39.2714	8.5781	10.8452	16.1004	11.6074	-12.2797	13.3589	4.7207	16.1419
6824.1959	1.8022	-6.8000	-14.3355	-46.3466	9.6687	16.1125	6.2514	-24.7228	-7.1789	16.2482	1.2110	-16.4761	-1.9094	-14.7995	0.9167	11.0369
6832.1961	1.1798	-0.2956	-6.5185	-31.8399	13.2464	30.8396	14.4940	0.4169	-5.8916	22.8845	-7.2643	-0.6689	-1.7606	-8.3481	7.3897	19.2326
6840.1963	0.4724	17.4643	21.0054	2.0046	49.3154	35.6953	10.7305	10.3030	16.6354	47.6300	15.6529	34.1835	-3.6752	22.2283	11.5027	14.8012
6848.1965	-1.7577	7.0919	6.1599	-45.4549	39.0375	26.7335	2.3764	22.3895	8.3082	59.9785	16.8052	16.7606	6.4980	2.2142	11.4039	5.7117
6856.1968	-2.8188	-6.2358	-2.4243	-29.8206	15.2410	-13.6713	-2.6137	31.9274	-3.3338	37.0513	-4.8885	3.6474	4.6060	-12.9467	10.3903	8.4870
6864.1970	-2.4834	-4.0140	3.7877	-6.0012	21.7285	-25.8660	2.8996	36.4999	0.9453	26.7545	-3.2191	10.4434	1.9427	-3.5251	11.7588	10.2396
6872.1972	-1.7432	-1.2839	3.8994	-44.3476	24.2524	3.6716	4.3181	41.6345	1.6726	41.6633	0.5911	9.1128	8.5278	-4.4581	18.6633	12.9527
6880.1975	-3.6576	-2.6423	4.2519	-29.6505	23.3288	-12.8749	-10.8202	40.9211	0.3476	50.9223	-1.7806	13.2131	6.0182	-10.0805	14.7792	6.0347
6888.1977	-5.8008	2.9053	6.0487	-18.6819	32.9960	-10.1712	-13.7424	41.3270	3.5707	57.3073	8.4290	22.0608	6.2100	-8.3772	8.9689	-6.8573
6896.1979	-4.3189	2.5113	9.3616	-31.7666	34.0251	0.1324	-4.5245	40.6639	5.5554	58.1934	4.5665	20.6028	7.5347	-5.3709	15.9226	-1.2970
6904.1982	-2.6791	-10.9035	-6.4705	-21.2145	16.9239	-32.0804	-1.6376	41.1330	-6.3594	45.8567	-10.5461	4.5488	3.7433	-16.4921	15.6855	6.2381
6912.1984	-4.0813	-7.9332	-13.2300	-25.7182	1.3533	-9.0987	-3.0355	39.6907	-11.3206	38.1020	-11.9610	0.6973	6.0742	-21.5983	5.5215	1.1245
6920.1986	-5.6049	-1.7779	4.5043	-32.1702	-0.7119	6.3819	-3.2738	39.1654	-2.4676	38.0233	-7.0877	8.2348	9.5822	-19.8109	0.5209	0.1826
6928.1988	-0.4852	-10.1379	-7.2721	-21.9285	-10.7679	-20.8738	0.4700	49.6487	-15.5846	31.1710	-4.0458	-0.5606	8.1447	-35.8324	3.1074	13.1496
6936.1991	0.3688	-10.5982	-23.3018	-9.1292	-26.7499	-10.0323	-5.1470	45.7152	-24.0539	25.8847	-14.5945	-6.5485	4.4408	-32.3374	-0.9325	16.0542
