Time	Fz	Fpz	C3	C4	T5	T4	O1	O2	F7	F8	F3	F4	T3	T6	P3	P4
0.0000	-10.2524	-11.7241	-21.5064	-41.6610	-1.9853	-28.5583	7.7357	42.4369	-12.2085	-10.6205	5.6874	-19.0157	14.1547	-16.8945	-15.0677	-12.5223
8.0004	1.0143	7.1664	7.4145	3.6554	4.6037	14.4346	-4.6779	-9.3920	10.6821	19.4171	13.6594	7.6956	0.9085	20.8666	-3.0905	-5.0740
16.0008	-2.1282	1.8496	-0.4239	-57.8012	-3.6287	38.0612	-2.5997	-9.1600	-17.3471	5.9672	10.1967	-9.6206	9.2473	0.3300	-3.8888	-5.0105
24.0011	1.9832	-3.3533	-4.4312	-21.1604	-1.8697	8.4998	0.2702	-12.8007	-20.2366	11.1568	5.0463	-6.7547	0.5136	-4.8821	0.6397	1.5696
32.0015	2.3092	0.8592	0.9264	21.0127	15.1652	-19.7237	0.8180	-4.1829	-4.4411	16.0889	19.0809	7.4700	-3.1509	5.7219	-1.4220	-4.4253
40.0019	3.4912	-8.3630	-11.6959	-37.9323	-2.7981	-4.5512	7.2783	6.5755	-23.6598	1.5754	10.5645	-16.0720	5.8414	-5.0598	6.2463	10.6491
48.0023	7.2266	-19.8077	-25.0048	-40.3927	-16.6439	-22.5888	11.5333	4.4809	-29.9593	8.6756	0.3994	-30.7102	2.9153	-7.7228	8.4964	27.0336
56.0026	7.7983	-16.4490	-15.7252	-26.9962	-7.2625	-25.2409	11.7787	1.4260	-27.0773	12.3231	4.8004	-21.4109	-0.6582	-10.5133	7.6579	31.1879
64.0030	9.4839	-14.5751	-9.4559	-47.9940	-6.4722	-2.2797	12.2692	-7.7793	-32.3877	19.9649	3.5480	-20.3084	-0.9605	-21.4844	10.7227	40.8057
72.0034	6.1191	-11.1691	-7.4412	-35.8095	2.5991	-13.1527	8.3244	-7.6494	-21.7337	36.5037	21.4305	-13.8446	0.6740	-12.0056	-3.1548	25.4377
80.0038	3.0222	-9.9775	-6.5743	-33.5184	7.6923	-21.8576	7.6870	-1.7413	-24.4012	26.9052	29.5792	-12.6759	2.9155	-11.2600	-9.3841	16.8634
88.0041	3.0752	-14.6673	-6.4522	-33.0611	4.8026	-29.0511	9.0719	-6.2563	-25.8916	21.8562	15.9768	-16.0380	-0.6611	-22.3172	-6.6848	23.7357
96.0045	-0.0844	-3.9212	11.0719	-15.4443	19.0666	-23.2129	3.2264	-9.7958	-7.8321	37.1328	31.2583	2.3930	-0.3286	-10.9186	-15.9560	9.4834
104.0049	1.2278	3.6376	13.7099	-31.8938	19.1389	9.1546	0.6430	-13.4193	-15.1536	42.0420	41.7322	6.0350	3.9742	-2.7112	-13.4675	4.3659
112.0053	3.3315	-3.8416	0.0900	-40.8357	0.1684	12.1827	2.6790	-11.0869	-32.9582	43.4770	26.0765	-4.8862	4.9475	-8.8059	-6.6180	5.1102
120.0056	2.9553	1.3354	14.5652	3.6937	7.9220	-3.7125	2.3525	-4.0223	-30.2073	57.6589	30.0284	15.6533	0.4113	-1.3387	-9.2066	0.1345
128.0060	5.2011	3.3239	18.8521	19.1581	21.1063	-10.8077	7.1220	2.8981	-34.3861	61.9526	33.4027	24.6119	-3.3981	5.4010	-1.9424	10.8087
136.0064	5.8192	-3.8071	4.4917	-10.0052	15.0952	-3.1454	13.0979	10.4127	-51.1990	54.9339	19.5911	10.8742	-1.8093	-1.6837	6.7649	23.2922
144.0068	5.8757	8.1978	19.5294	10.4898	26.8314	14.8648	8.7629	3.6577	-42.7121	66.4759	31.0916	30.0816	-4.7034	3.8219	2.4752	19.0892
152.0071	5.0299	13.1314	23.5709	20.7071	33.2797	13.4935	5.7297	4.9894	-28.7387	74.0510	42.2390	37.0607	-2.8735	13.7609	-0.7767	7.5740
160.0075	1.0393	0.8269	2.6925	-22.6909	12.8965	21.1627	9.8498	16.0243	-51.7925	58.7354	14.5327	13.5527	2.4739	3.3023	2.8973	10.6577
168.0079	0.4266	12.1051	21.6738	9.0380	22.8106	37.2453	5.4312	5.5839	-48.3583	58.7453	12.5088	35.1725	-4.8225	2.7041	0.9899	9.9847
176.0083	3.6147	28.7094	49.2751	58.7075	44.0457	26.7400	-2.0641	0.2071	-6.5325	75.9934	48.5261	64.2433	-5.0759	23.3547	-2.0853	-9.6866
184.0086	4.9411	15.7798	25.9142	19.0190	26.6978	16.5011	2.3630	10.8913	-16.2189	65.0637	43.3743	37.4236	3.8366	19.8784	5.5560	-11.9199
192.0090	3.7852	-3.3256	1.3833	-11.2326	4.3581	-1.2823	10.2660	19.8330	-45.9705	31.6139	10.4443	7.8558	4.0741	-5.7751	12.5137	2.3159
200.0094	2.6515	-7.2361	4.8652	-4.0300	7.6036	-19.2073	13.7572	24.7313	-44.5465	26.0901	3.2868	8.4146	0.8029	-17.1848	11.2607	11.8916
208.0098	0.1321	0.7580	6.5979	3.7150	29.9951	-3.0636	12.6569	18.8487	-43.3655	29.7414	6.0569	19.9655	-4.7349	-13.8266	9.0016	13.2783
216.0101	-3.5949	10.9447	15.3699	21.6889	42.4224	6.2234	7.1434	17.1453	-28.3113	19.6812	9.8914	32.0003	-5.6298	5.4749	5.9509	1.2082
224.0105	-0.3630	13.8008	30.4048	23.4392	28.5902	1.8608	6.5760	29.8535	-15.0174	26.2432	24.6297	35.5040	3.1153	25.7342	7.8579	-0.9909
232.0109	9.1955	11.8609	29.3968	19.0820	12.4527	4.5392	13.1696	40.8077	-32.2677	24.4046	35.2060	31.8391	6.5816	15.8573	19.1113	15.6939
240.0113	12.8345	11.1437	24.7195	25.4681	6.8894	5.3267	13.5120	36.9533	-26.3472	13.5698	31.3656	28.6541	3.9839	1.7023	23.0313	21.6621
248.0116	10.9218	15.4402	31.7520	22.6528	9.6168	15.2033	7.4038	25.4491	-2.4364	24.9255	33.5563	32.1254	4.8176	8.9863	17.7420	12.8514
256.0120	10.5965	17.6257	31.3700	19.7605	11.4490	18.8239	6.0633	25.9694	1.5228	27.0803	40.6335	32.6017	6.9618	14.4080	15.8283	8.1613
264.0124	6.3005	12.0944	7.5430	10.6190	8.6852	22.1916	4.2342	22.4131	9.2857	25.2021	21.0029	19.4670	4.5301	9.9680	11.6125	3.1644
272.0128	-0.3250	12.2248	-3.9904	5.1872	12.6732	38.3573	-0.8871	11.7051	12.8869	26.7647	0.3947	16.7655	0.9764	11.7203	6.9743	-8.8182
280.0131	0.1657	12.5491	8.0359	20.6186	12.6360	19.0560	0.8912	19.6007	-2.9851	13.5153	9.7674	22.1547	2.4763	21.1330	8.2047	-10.6461
288.0135	4.7640	5.7943	9.3059	16.2719	7.0344	-3.5379	7.9716	29.1276	-18.0232	4.0935	17.1620	14.9372	4.2837	18.5036	14.2363	4.9340
296.0139	9.5678	6.3124	5.1100	3.8202	3.6004	12.9450	10.4863	27.4766	-8.4266	3.7771	14.1468	10.8021	3.4183	8.0914	21.6569	21.3700
304.0143	6.7576	6.4919	-5.7540	7.0456	-5.5200	22.5311	4.4217	21.1456	22.8844	12.6034	0.7087	5.8215	2.1165	9.0816	12.8286	15.2495
312.0146	1.2402	14.4718	18.0441	31.6304	12.5484	19.1096	-18.9546	-51.9844	-1.0112	34.5007	29.8019	21.8757	-3.5825	17.9294	-9.0680	-47.4749
320.0150	0.2765	8.4717	7.1854	-7.8044	12.0968	28.0792	-13.6135	-41.8107	-3.0165	42.2253	21.4213	10.6710	1.1865	7.3138	-3.1056	-40.7770
328.0154	2.0383	2.5957	-2.1878	-4.8822	6.3511	10.7411	-9.7781	-33.2584	-9.0264	44.5174	23.8001	3.8504	1.6348	5.4534	-3.9766	-35.0120
336.0158	1.0989	2.7815	3.8727	-5.1662	13.3682	7.3735	-6.9740	-26.7502	-14.9739	64.6400	29.0539	11.0970	1.7872	3.5311	-6.6973	-32.1544
344.0161	-1.5175	8.3715	9.9317	-29.1214	21.0552	36.0792	-6.1008	-21.5685	-17.9346	75.5936	29.5928	16.8001	5.0160	8.5269	-6.1060	-28.5144
352.0165	-0.0162	9.0984	11.6596	0.9572	18.7740	19.7783	-8.5225	-23.9810	-14.8312	80.7355	35.4127	22.6428	2.6250	12.3529	-9.1498	-37.3284
360.0169	1.9598	6.8159	10.8223	4.9483	20.8040	7.1101	-4.4823	-15.2239	-16.7000	82.5450	39.6294	23.3576	2.8945	3.4399	-6.1719	-33.3349
368.0173	4.4547	-3.9997	1.1229	-18.1071	10.2252	0.3171	4.1073	-4.5442	-34.2536	80.5089	25.0384	9.8524	3.7500	-8.9653	3.4572	-13.8542
376.0176	3.8565	-9.4281	1.4250	-17.5066	5.8596	-8.5683	8.4754	0.9052	-46.8753	77.7504	11.7282	7.5927	0.9140	-15.9516	4.7492	-0.9464
384.0180	-0.0732	2.8427	20.5375	-22.1822	26.7786	13.4417	5.2787	-2.2472	-36.2605	85.4505	26.1348	23.8036	1.6212	-3.8220	-2.3229	-2.0444
392.0184	0.4392	8.5095	25.5824	-13.1834	30.7812	20.0534	2.4517	-1.3282	-26.0325	110.2997	38.2494	33.6887	3.8007	10.7384	-4.2571	-12.4259
400.0188	4.0617	-1.1769	6.0373	-10.8170	13.4975	6.2495	9.8707	17.8256	-40.7922	106.5595	25.1957	22.2541	4.3918	-0.4883	4.0524	-3.0393
408.0191	6.2480	-5.3331	0.7831	-12.3991	7.5763	2.5011	15.0967	24.1299	-56.4811	89.4792	17.1266	16.2103	2.2661	-9.5174	9.1303	13.1317
416.0195	5.7371	0.3829	14.5684	-2.7882	13.2429	9.6870	14.9141	25.6786	-55.7065	97.0658	21.1881	28.2503	0.8555	-4.0727	6.6834	18.1789
424.0199	4.0838	2.8656	14.2835	-13.3723	15.0633	19.6495	14.3140	29.7271	-46.1088	104.1198	25.0254	28.3211	3.4930	1.8493	2.3206	19.3022
432.0203	2.6655	2.5276	6.2634	-14.8566	12.7037	22.5258	11.5508	27.4906	-39.4106	113.6376	24.9969	25.3284	4.5578	6.8581	-2.1050	10.6614
440.0206	3.1134	-0.7154	3.9715	-7.4821	9.5161	16.5071	15.6499	35.5202	-53.7324	106.2110	13.5356	25.8288	2.0414	-3.6275	2.9547	16.9744
448.0210	7.2992	-2.7454	5.4084	0.3392	8.2198	6.5534	18.8924	35.7094	-60.9416	95.0676	14.1798	24.6981	-0.0492	-7.3306	10.8441	26.2167
456.0214	9.1334	1.1298	5.2039	1.0935	9.5806	15.1778	17.3353	36.7562	-51.8958	114.7562	25.3555	29.2451	2.6560	0.9699	11.0981	19.6954
464.0218	6.9581	-7.4698	-4.1570	-23.3488	0.9348	9.6897	22.0850	45.7418	-62.4055	94.2688	9.4671	14.6213	4.4692	-16.2735	12.6193	29.3720
472.0221	6.5937	-9.0842	6.3240	-4.3295	1.0130	-13.7692	20.3190	36.3941	-57.2763	63.0168	5.8954	13.5637	0.0721	-18.3207	10.8897	33.0044
480.0225	6.3194	11.0451	31.1553	26.3908	21.4819	5.1669	10.2095	24.2727	-23.3828	75.8875	35.2302	40.1294	-0.3909	6.9591	2.3477	17.1268
488.0229	2.6051	12.2567	28.2286	4.4401	23.9883	9.0885	4.6270	16.8190	-4.4099	60.9229	42.0435	31.5354	5.0911	4.3409	-4.1644	1.0500
496.0233	-0.8646	0.4519	14.4316	-9.1620	10.2125	-19.9284	3.9841	20.9562	3.2192	36.0505	30.1176	11.0653	9.7203	-7.9447	-6.6545	-11.9100
504.0236	0.0669	-8.7256	-1.6817	-22.5052	-7.1098	-29.8840	8.8470	34.7421	-5.7728	16.6184	17.7516	-5.7688	12.6661	-18.5863	-2.8035	-4.0802
512.0240	4.0979	-17.0971	-8.4793	-35.9775	-22.9202	-39.6662	14.6921	39.2636	-22.6305	-18.9924	8.5135	-22.0249	12.9881	-37.0660	5.0060	14.7900
520.0244	9.0055	-9.0948	3.9920	-22.9751	-18.4295	-28.8017	16.1630	43.2058	-8.9422	-12.8321	19.8704	-10.0043	11.9024	-32.4006	9.2235	28.5343
528.0248	8.4550	-12.3096	-8.7637	-31.1392	-24.7340	-24.5866	15.3608	41.9702	4.4252	-0.6089	12.6473	-18.7100	11.7774	-26.1541	5.6299	32.5452
536.0252	3.5403	-24.0165	-16.7924	-33.6557	-35.5215	-50.6538	16.9388	44.2501	-10.1858	-23.7795	-9.3791	-32.0665	10.0983	-41.0361	1.3598	31.1555
544.0255	4.5416	-12.1333	1.4810	-9.0259	-17.3185	-41.6419	16.6841	45.7608	-6.8526	-20.9640	5.0407	-10.2080	6.5780	-38.5766	1.2370	33.9652
552.0259	1.9569	-5.1056	-2.0517	-7.8972	-6.4142	-28.8777	7.9091	31.4052	29.3282	-3.3628	14.5081	-7.6508	7.2271	-18.6407	-6.6481	16.8369
560.0263	-4.8836	-7.7304	-2.2663	-11.3890	-7.5624	-36.1200	4.2067	30.8253	38.2563	-11.5748	-0.2870	-11.2983	8.3706	-12.6972	-11.4686	3.2666
568.0267	-2.9153	-5.7582	4.6617	1.9971	-4.8458	-34.7550	7.7847	34.9822	14.1890	-22.0873	-2.3988	-3.0157	5.0813	-17.7853	-4.3716	10.3262
576.0270	-1.7783	-3.2298	-0.6860	4.9590	-4.3883	-27.8965	6.6433	36.6935	17.0180	-11.6469	4.0150	-0.8659	6.5323	-14.7231	-4.0217	3.0161
584.0274	-2.4159	0.0761	0.6277	3.3130	-4.1205	-18.3304	6.2247	43.0447	26.2303	-7.7280	3.8881	2.4699	8.5666	-9.7294	-3.3767	1.6348
592.0278	-2.3469	-0.0448	5.4746	17.4434	-5.2953	-25.5568	4.3518	36.8707	29.1656	-21.9764	-4.5996	4.2426	5.5793	-10.5641	0.4469	-1.6352
600.0282	-5.5985	8.5990	22.6717	32.6976	5.9018	-22.7571	-1.5950	34.7101	58.5281	-12.6203	-0.4297	19.9624	6.6207	-1.0723	-1.9822	-18.8948
608.0285	-2.9169	9.1227	20.0625	27.6441	2.9023	-15.7922	0.0235	38.9251	57.2945	-2.9551	3.7805	19.4219	8.6138	4.5154	2.0580	-15.2281
616.0289	-0.7082	-10.8718	-10.8919	10.6070	-27.2172	-37.9746	6.8711	45.5252	26.0328	-21.4526	-22.6873	-11.7866	8.4518	-4.0210	8.4112	-1.5576
624.0293	-2.8298	-15.4196	-12.4371	-0.5295	-31.0431	-38.3345	10.7171	50.8185	25.2247	-37.0269	-41.6050	-18.9511	6.1055	-8.9066	9.2807	17.3602
632.0297	-2.5072	-14.3322	-14.1955	-0.2242	-26.0807	-31.2821	12.2138	45.0540	16.5939	-56.5127	-45.9276	-20.1625	0.8984	-20.4557	8.7780	31.1501
640.0300	-4.6063	-12.5095	-18.7024	12.4238	-25.1118	-29.8395	11.1248	48.5900	13.8807	-58.9462	-49.4966	-16.9943	-0.8033	-17.8881	5.3746	26.2120
648.0304	-3.7403	-2.4139	-2.2819	24.0226	-10.6931	-18.7148	8.7723	46.0856	36.3351	-48.1663	-39.2368	-1.9192	-1.5934	1.8160	8.0092	27.6428
656.0308	-2.7186	-0.7873	5.9550	26.1257	-7.6050	-22.6979	6.3096	35.2367	32.4783	-65.0515	-32.8697	-0.9741	-1.7130	-0.8065	10.5546	21.2722
664.0312	-8.2109	11.1767	19.5650	33.8945	5.9341	-5.8394	-0.7056	33.4423	40.6719	-53.5986	-18.5518	16.1500	1.0592	11.3778	0.0639	-0.9581
672.0315	-9.7068	9.4221	4.5074	24.6672	10.7331	-7.4176	-1.9426	33.8125	53.5690	-40.4278	-14.4994	9.0258	3.1341	22.5387	-2.7645	-9.0176
680.0319	-7.6676	-14.6412	-27.4047	-5.6109	-13.9752	-41.7721	8.6788	45.4845	25.7791	-76.3477	-43.0352	-27.6943	4.1316	-8.3697	8.1192	7.4415
688.0323	-6.3865	-8.8094	-12.9737	-8.1220	-7.4558	-26.8121	10.7853	44.6408	20.6862	-89.9431	-40.8241	-19.8824	1.8471	-15.0044	10.4509	24.3370
696.0327	-7.1553	-6.1775	-16.2676	-12.6243	0.1557	-23.7350	8.8878	39.9459	24.7276	-102.2168	-32.8246	-22.0726	2.3783	-13.9002	8.4570	19.7589
704.0330	-9.4412	-14.5068	-26.2751	-20.0704	-5.4569	-43.2473	12.1773	50.6629	19.1920	-121.5372	-45.0929	-33.1677	4.2434	-26.3126	11.1261	16.5539
712.0334	-6.8050	-4.1389	-13.7993	-2.4179	3.8056	-28.5067	10.1020	47.7279	34.9666	-109.2308	-33.1252	-18.2604	2.0804	-10.8983	11.6595	21.7881
720.0338	-1.8702	-11.2685	-29.0282	-30.1402	-13.4296	-18.1977	15.4200	50.9251	12.8345	-119.0802	-38.6683	-35.6866	4.6962	-18.3907	20.0834	38.4203
728.0342	1.5322	-12.0542	-19.7483	-34.4996	-14.5289	-10.3580	18.6633	44.0368	-1.3244	-115.7593	-43.9546	-33.1870	0.8823	-23.2428	26.4575	57.1996
736.0345	2.4486	10.0779	3.5970	26.2898	15.4640	-0.5342	7.5856	25.8811	39.6400	-86.6717	-12.7211	1.8278	-6.5370	12.0003	16.2742	42.4150
744.0349	2.3405	8.8210	-8.9264	10.5755	11.7658	5.0289	9.3608	35.1999	33.3432	-102.0958	-11.2688	-7.2091	-2.2321	9.0602	18.6408	40.2259
752.0353	4.9489	3.8976	-7.9136	-10.7016	11.4245	6.8391	14.1836	31.4612	14.2425	-106.3404	-15.0349	-13.7536	-2.7114	0.6150	26.9665	54.6332
760.0357	6.9630	13.7096	-3.3320	14.2891	21.9828	12.5978	8.5599	23.4496	31.6001	-82.7565	7.7818	-0.2193	-3.7249	20.1375	21.1599	42.9976
768.0360	8.7096	15.9062	-7.4593	-7.5528	12.4038	40.0823	7.7867	21.6768	24.9742	-78.2991	10.1832	-4.5091	-0.0543	17.8548	21.3359	46.2591
776.0364	10.6186	9.3694	-5.1443	-4.6715	5.7677	21.6616	8.8052	12.5504	15.6425	-87.6195	6.3332	-11.2095	-2.8503	11.4815	22.0021	53.4638
784.0368	10.4705	1.9347	-11.2928	-3.3230	-0.4623	-7.8152	11.6719	20.7489	12.9736	-112.2277	7.0975	-22.3224	-1.2178	0.6014	20.0171	54.4537
792.0372	9.9980	3.8191	-8.0682	-30.0873	2.5752	16.2319	11.8097	11.3780	5.7172	-113.9365	6.3789	-24.5895	-1.4289	-10.0332	18.5189	65.1575
800.0375	8.7918	13.8439	6.9987	14.1912	20.3475	8.2840	5.4949	-0.6824	13.7277	-90.3450	26.6775	-2.1920	-7.3716	6.5960	5.9915	52.2283
808.0379	8.5997	17.0786	11.6676	22.1795	23.8031	-0.6514	4.4450	6.1707	16.1728	-86.3184	45.2904	3.2727	-3.3670	10.7576	0.6852	41.2724
816.0383	8.2314	6.2237	-1.6417	-32.7027	11.4455	4.4861	5.9015	0.3033	9.8851	-89.5716	38.4399	-20.8415	3.5970	-5.0210	3.1919	41.8302
824.0387	6.4332	-6.9109	-14.9356	-37.5886	-2.0022	-25.1223	9.3841	7.2575	-4.2896	-105.0473	24.2344	-36.9064	4.2255	-19.8782	1.9609	40.8909
832.0390	0.5946	-0.6450	21.1646	-2.0570	9.4469	-8.8062	5.4856	5.5389	-18.3650	1.0647	-1.1620	11.4227	-0.3267	-13.8546	9.8248	5.1793
840.0394	3.1038	-5.9976	22.7285	-13.1173	3.9911	-11.8287	11.0040	12.2910	-31.9808	16.8825	-6.3408	9.4100	0.7515	-13.2080	17.4940	16.6315
848.0398	3.6204	-4.5076	12.2695	-34.7619	3.3463	8.3195	9.0206	5.0488	-23.5917	17.7147	-2.7429	0.7734	2.5040	-9.6509	15.4025	19.6716
856.0402	0.6127	0.8693	20.9286	5.4865	11.6169	-5.5777	7.4296	8.8070	-31.8549	-5.9250	-1.8949	15.0680	-3.0286	-20.1399	8.8122	11.3890
864.0405	7.9733	1.6443	16.1941	10.9551	14.8271	-11.3548	9.7492	13.3204	-6.1125	20.5037	12.8465	15.2601	-1.0386	0.5607	19.3053	17.0219
872.0409	2.6168	-14.8937	-10.6498	-34.8031	5.2944	-15.2347	11.8861	8.4950	-12.0953	25.3487	-17.7868	-13.4597	-0.0057	3.6487	20.1991	20.9721
880.0413	-1.5293	-8.0108	5.0143	-16.9300	0.1814	-5.1085	7.5725	9.4663	-18.2031	12.2438	-21.5648	-0.1335	-1.0990	-11.7813	9.4640	12.7945
888.0417	4.7578	14.1328	25.0615	-3.1938	8.1772	30.8437	0.8624	11.7823	21.9754	46.4002	24.7624	23.6080	6.3060	17.6872	4.6466	6.2228
896.0420	-0.2455	14.4551	38.4470	4.7453	15.8100	23.9493	-1.1541	7.3577	13.9500	60.6632	19.2577	33.2534	4.3839	29.4043	0.5599	-2.1307
904.0424	1.7976	18.2887	46.8003	25.0060	22.5136	14.8387	-3.2205	2.4268	9.4541	65.6034	34.2160	42.9729	3.8069	35.2754	1.6656	-13.6239
912.0428	3.4635	4.0247	6.0867	-30.9223	7.2673	12.3383	1.1799	11.5174	8.4172	63.9522	34.6073	5.9569	14.0146	38.9320	5.9778	-12.9778
920.0432	-8.1060	-26.3938	-20.3371	-58.5830	-23.8472	-18.1581	8.5897	16.8792	-26.9618	20.9404	-50.7690	-29.1211	6.0940	-4.8929	7.3989	2.6840
928.0435	-6.2882	-15.2226	-1.2553	-11.7251	-10.0860	-13.8625	7.9311	15.3458	-12.6105	20.3988	-52.2446	-4.6957	-3.7658	-3.1228	9.0468	14.1006
936.0439	1.2156	-0.3571	12.6859	-10.7560	13.9957	-0.1463	8.1763	16.9599	0.7539	50.9761	2.1710	11.7005	2.0790	30.0050	11.3598	15.9411
944.0443	0.3340	-11.7500	13.4848	-22.0642	-1.2182	-14.8698	8.3822	5.9801	-8.0482	42.7277	-21.3676	-0.2170	0.1715	12.5301	14.2021	18.1720
952.0447	2.7649	-13.3591	3.5116	-11.7712	-9.4012	-12.7006	9.1097	5.8174	-10.0904	36.4381	-29.9854	-3.5001	-3.1174	2.7389	16.5677	23.1036
960.0450	4.2414	-8.7932	-3.0284	-11.2643	-0.0838	-0.5146	11.0210	9.4618	-29.4116	45.8093	-14.2009	0.2685	-3.0511	19.3661	16.3208	26.1936
968.0454	-3.9935	-9.1640	-7.8994	-10.7027	3.8889	1.6890	3.0841	-4.7493	2.2585	47.9867	-33.7697	-3.0899	-6.7794	23.7426	4.2258	14.4410
976.0458	-6.5500	-4.4719	-6.0635	-13.5022	7.1425	3.7467	-1.2977	-3.3183	32.1196	44.6739	-22.8855	-1.8916	-2.9735	15.7016	-6.1433	3.8034
984.0462	3.1320	2.5393	11.7245	-4.2965	13.7880	8.2829	3.7057	-2.2893	-4.8518	44.9422	9.9925	11.9368	-1.5599	18.2706	5.8003	12.7022
992.0465	2.8894	-4.3838	-2.3989	-3.3476	11.3326	1.2693	4.0231	-10.8024	-12.8786	42.8905	-6.8414	2.6474	-6.1090	19.1780	10.5617	12.6615
1000.0469	-3.1232	-14.0194	-22.0282	-22.9985	-3.4956	-6.7646	2.4694	-6.8984	3.4085	28.4953	-29.0508	-17.1784	-3.9532	0.5737	0.8510	7.5830
1008.0473	-0.1597	-9.4547	-17.2716	-15.7953	-4.8568	4.4601	2.6113	-7.2604	6.7345	24.6751	-26.6988	-12.6823	-5.3309	4.9548	3.9762	16.8514
1016.0477	-1.6156	-12.9107	-31.6000	-14.9248	-1.3859	4.3182	3.0667	-11.1382	1.8795	27.5391	-38.8409	-18.3841	-9.3733	14.2400	6.0545	18.1667
1024.0480	-3.6283	-14.9476	-26.1849	-17.2107	-3.6813	-6.0986	1.0340	-15.2250	3.3834	27.4912	-35.8185	-19.6371	-7.9749	7.6681	-0.9491	11.6634
1032.0484	1.2312	-3.2754	-4.8238	6.6887	-1.4130	-0.7760	-1.9610	-14.9112	19.4401	30.5604	-11.1156	-3.2527	-6.1041	23.3498	-0.9588	11.7739
1040.0488	2.8452	-9.0990	-21.4933	-4.3969	-18.3530	-1.1748	1.8753	-3.9981	-2.2584	3.7196	-17.4592	-18.5120	-3.4203	16.8455	2.1276	18.7436
1048.0492	1.5725	-18.1302	-30.2474	-17.9986	-32.7830	-9.8121	4.4304	-3.9253	-14.8535	-26.8078	-35.3782	-34.3121	-4.6764	-7.9405	0.2408	29.2702
1056.0496	0.4500	-11.4059	-20.4376	-1.6356	-21.8268	-5.5775	1.3579	-9.0717	13.8057	-24.8545	-36.2534	-24.3792	-8.7783	0.6236	-2.3703	33.1179
1064.0499	2.3286	-4.9447	-17.6431	3.5341	-17.1992	7.6396	0.3694	-9.7484	16.8594	-31.4656	-28.7857	-18.7364	-8.9585	3.3090	0.3082	33.6584
1072.0503	5.7885	-1.3601	-13.0096	19.5769	-14.2564	6.3439	0.9038	-11.1151	15.4447	-49.6493	-24.8035	-13.5937	-11.4915	-3.5420	6.5914	36.2363
1080.0507	4.6683	0.1232	-9.6788	28.1004	-13.6769	5.3941	1.2357	-7.1107	13.9020	-68.1305	-31.9780	-10.9040	-12.8437	-5.9465	9.2338	36.7588
1088.0511	3.8169	9.4815	-2.4503	26.5540	-14.2926	28.1602	-1.3222	-1.3943	18.2916	-77.7299	-22.3532	-3.5286	-9.2721	-5.5345	4.5907	34.0949
1096.0514	5.3914	19.5093	1.2967	41.0099	-1.4995	35.4517	-3.2922	2.5422	38.1145	-71.4869	-0.8730	7.2315	-8.1924	8.3801	1.9006	30.8425
1104.0518	4.9561	16.3100	-2.5124	34.0072	1.3547	27.4038	-1.8313	1.1200	24.2093	-84.2178	0.1161	1.5382	-7.9243	7.7275	4.1327	29.7025
1112.0522	3.5016	15.7598	-3.8523	31.8052	-5.5785	29.2186	-3.4707	0.5137	22.1029	-96.6766	-4.0579	-2.3871	-7.0243	6.7268	1.0565	27.6077
1120.0526	4.5328	11.2987	-15.3268	29.4186	-15.3981	24.8443	-0.9780	8.1102	24.7017	-101.4791	-11.6543	-12.2797	-6.7093	15.3817	2.4927	37.9159
1128.0529	4.7552	2.2125	-19.0373	12.4840	-25.4725	19.5638	3.1710	3.5323	-3.2529	-123.1783	-28.0686	-25.0410	-9.1502	-1.3148	6.1508	52.5912
1136.0533	2.0172	2.3269	-11.2655	31.2169	-25.9551	7.6616	-0.5876	-3.0425	6.7251	-124.1322	-33.5132	-19.5904	-12.4311	-10.1651	-1.5305	45.0005
1144.0537	6.6979	3.9790	-11.5437	30.7873	-30.8248	6.2509	0.6943	3.7397	15.4302	-122.7463	-17.9102	-21.1164	-8.2757	-5.2894	0.8491	48.5963
1152.0541	12.2950	12.9317	2.4040	26.2913	-22.7101	27.8692	1.8565	-3.1291	2.2035	-135.1906	1.3327	-12.3753	-8.4804	-11.2242	7.2030	59.8750
1160.0544	5.8028	14.7146	4.6291	51.5861	-10.3821	16.4421	-2.8088	-8.2411	16.4566	-129.5288	-9.5429	-3.0745	-13.9452	-6.3726	-0.1857	44.6281
1168.0548	4.6710	2.4384	-15.6612	37.7061	-24.3947	-3.2462	1.2635	4.7334	17.7474	-135.0664	-25.8721	-22.2422	-11.0053	-6.7113	2.6313	46.8585
1176.0552	10.2256	10.0089	-0.9750	48.8656	-18.8710	12.5085	2.2452	-2.3614	6.4014	-133.4288	-14.7847	-9.1715	-14.3763	-9.9841	8.9170	57.9875
1184.0556	4.1214	19.4168	10.7041	60.6333	0.6423	27.8068	-4.3794	-14.2063	8.2261	-114.4756	-11.6756	8.2610	-17.4321	5.8747	1.1789	40.6093
1192.0559	-0.7656	10.2764	-10.7871	24.5642	-10.3583	23.9000	-4.9551	-8.1162	13.0578	-120.5425	-20.2518	-14.5132	-10.0304	9.9540	-3.9037	31.4823
1200.0563	3.5080	9.2564	-9.5240	47.1318	-19.7400	14.4250	-6.0370	-12.9077	12.5475	-108.1062	-16.9334	-11.0946	-12.4648	7.0883	-4.0198	30.2227
1208.0567	2.1386	10.7356	-8.5695	36.6813	-16.8021	29.4166	-6.3399	-13.5555	6.1855	-86.9288	-18.8320	-6.8483	-11.3909	10.7704	-3.3385	26.3059
1216.0571	-1.9867	-2.7411	-28.2905	-12.9343	-22.6659	21.1947	-1.0671	-4.5811	12.7703	-108.9821	-40.9946	-34.4872	-6.7221	0.4664	0.8283	36.4305
1224.0574	0.8078	-13.5009	-26.3254	23.6347	-25.0359	-28.5927	2.3559	-10.5018	6.4460	-115.9002	-51.4112	-36.3078	-15.7825	-9.0585	3.9013	44.4062
1232.0578	3.7480	-6.1212	-14.3684	21.3752	-14.6309	-11.0107	1.4178	-18.0599	-3.5516	-86.9114	-29.8022	-22.7450	-14.8776	-7.3115	3.4221	41.5831
1240.0582	-0.3273	-2.2688	-9.9169	-16.5079	-8.0645	15.8458	-2.5036	-23.8665	13.6962	-70.3719	-27.2524	-23.2123	-8.6260	-8.2219	0.1223	31.4640
1248.0586	-0.2472	-9.7106	-5.7091	-5.7197	-11.6458	-14.9862	-0.2752	-20.4201	7.8492	-61.8277	-29.7977	-23.5356	-8.8026	-12.1946	1.0537	27.1316
1256.0589	8.6604	-8.9315	-11.3144	-24.4281	-13.1276	-5.0925	6.5393	-10.0889	-6.3941	-43.3120	-2.0437	-25.7248	-3.0624	-17.9759	8.1334	40.0064
1264.0593	8.9692	-11.9648	-19.0638	-35.4335	-13.5318	0.9058	6.7329	-17.5221	-7.3999	-33.9057	-8.3814	-31.4926	-4.8565	-19.4442	9.0084	44.2952
1272.0597	5.1789	-15.1141	-11.8509	-14.6800	-7.2017	-22.7709	5.3483	-22.3759	-10.4662	-23.9984	-15.1081	-25.1963	-9.2519	-13.8678	4.4160	36.2383
1280.0601	8.7254	-7.0175	-3.7584	-11.4818	4.3086	-18.3202	4.0457	-19.3260	11.2234	7.5508	16.5350	-13.1218	-4.5691	-10.3434	1.2421	28.4172
1288.0604	8.2166	-12.7705	-11.8649	-9.6900	-0.5101	-35.3595	4.9564	-14.6351	9.5278	23.1629	18.7255	-17.9204	-3.0120	-9.7825	-3.2573	22.7218
1296.0608	7.2644	-20.6421	-20.3983	-28.7605	-5.1624	-42.3975	12.0735	-1.4649	-21.2795	23.9437	15.0564	-26.5615	-1.0012	-16.9078	-3.3203	33.2158
1304.0612	-1.5584	-9.7212	-11.7091	1.2387	-17.2502	-22.9512	4.4095	21.7436	16.1013	-18.8659	-23.1363	-12.3927	1.9067	-16.7358	2.1546	5.0146
1312.0616	4.1701	-1.1069	6.2268	13.2269	-5.9444	-18.0269	5.8859	18.4565	1.8248	-18.5389	4.3794	2.0207	1.4701	-14.1084	5.8310	11.4721
1320.0619	5.0001	0.7797	-2.7973	10.4161	-8.1158	-9.9022	3.0992	18.2927	19.0003	-11.3004	7.5712	-1.2164	4.1809	-3.8647	6.8909	3.1702
1328.0623	0.8441	-5.3857	-6.1022	11.8359	-10.7666	-22.7416	4.1361	20.9515	27.6625	-28.1657	-19.5455	-8.4030	0.8884	2.2652	10.1905	9.0039
1336.0627	0.7254	-0.7052	0.5428	12.3038	-0.0781	-11.2018	4.3886	19.0845	25.9338	-17.8175	-15.9775	1.0856	-0.6366	-0.7814	11.4544	9.6621
1344.0631	1.5204	0.9972	1.8368	16.4387	3.1143	-11.4982	2.6253	15.7503	38.2660	-8.4407	-12.2156	3.3372	-0.4604	8.4475	12.7280	5.6957
1352.0634	-1.7118	-0.1742	2.7096	36.5067	4.1400	-31.9851	-0.4763	14.1319	45.4647	-19.2402	-15.4647	3.3371	-2.2482	21.8871	7.7588	-3.6150
1360.0638	-4.0033	6.8427	3.2777	21.4812	7.2350	-0.9854	-4.5229	9.2369	45.7656	-16.5632	-12.9988	7.3542	0.1704	18.2682	4.6507	-12.9198
1368.0642	-5.9171	8.9218	8.2877	3.8164	11.6204	14.4524	-6.0935	0.8335	37.7939	-22.5331	-14.5643	6.9124	0.8489	19.9718	5.3327	-13.4522
1376.0646	-6.5045	3.1901	1.2296	28.5872	12.7956	-22.7836	-6.4276	3.7045	43.4301	-15.5784	-9.7163	4.9577	-0.3914	25.9748	0.8076	-25.4614
1384.0649	-5.6633	-2.7509	-8.8777	5.7571	6.4336	-17.0418	-3.2494	6.1098	44.7062	-13.6506	-22.7307	-5.2934	0.7511	10.6362	6.7820	-18.6330
1392.0653	-7.2782	-1.2997	0.6093	-32.3486	4.7826	11.0545	-2.8880	-0.8841	23.3508	-29.3860	-27.8017	-9.2770	3.9236	6.2964	10.4309	-10.9578
1400.0657	-3.0985	-0.8452	-2.7687	9.5722	-2.5590	-13.3694	-4.8751	1.1604	20.8840	-17.1773	-9.7823	-3.3758	2.7517	12.8043	4.5376	-22.7529
1408.0661	-0.2298	-8.6934	-12.2216	23.0146	-12.0254	-29.3123	-0.3036	2.6247	13.8826	-29.4299	-27.4565	-10.6304	-3.6300	-3.2770	9.3599	-6.5944
1416.0664	-3.2717	-3.2150	-1.0063	-11.2944	-6.8435	9.8574	-1.6470	-7.7989	6.4177	-38.5711	-36.3755	-9.2079	-3.2506	-6.6353	10.6595	3.4996
1424.0668	-0.5550	4.0903	1.3312	6.7827	-1.2471	15.4375	-6.2947	-12.4731	28.7917	0.2123	-15.1266	2.3867	-2.3842	9.2479	5.1397	-7.8260
1432.0672	1.4698	-3.1822	-1.2341	28.7122	-1.2420	-19.4362	-1.6803	-7.1660	20.7848	-6.1165	-18.5091	0.1015	-6.4225	8.4868	9.2057	-1.4955
1440.0676	3.0062	2.0230	8.3187	28.9859	0.0048	-4.8763	-0.4753	-6.1032	-0.7078	-18.7642	-13.3297	6.9996	-6.3214	8.6309	13.2843	3.4712
1448.0679	2.6691	5.0005	0.3950	8.1990	2.6376	12.1069	-3.1458	-6.9527	14.8836	7.4463	1.0080	4.1342	-0.7801	19.0596	7.6049	-4.0225
1456.0683	-2.5703	-12.6226	-19.6041	-46.0437	-5.7122	-9.3744	0.7725	-4.2260	10.3307	-9.1185	-13.6390	-28.0959	5.4489	8.6616	5.0366	-1.4888
1464.0687	0.7816	-11.9409	-12.3832	-41.5164	-11.5389	-1.2231	2.4062	-12.0467	-13.6432	-27.9233	-17.3082	-25.7297	1.1187	-12.9363	8.2116	10.8233
1472.0691	3.5083	1.6926	4.3140	-8.1036	5.4171	11.4765	-1.9229	-21.5006	-2.9231	-0.3871	5.0954	-0.1977	-3.3454	-9.9434	3.5015	4.3604
1480.0694	2.1776	-9.3254	-6.3144	-28.6021	2.7709	-17.8567	1.3608	-13.1403	-3.9619	1.5363	8.0835	-15.5860	2.6907	-9.0394	4.0502	-2.7452
1488.0698	4.9254	-20.7726	-15.7545	-30.0364	-12.0981	-38.3743	8.4238	-7.1762	-34.6990	-26.3987	-6.8000	-29.4109	0.1063	-28.6670	10.8403	13.1203
1496.0702	3.6287	-8.8868	-1.0453	-16.2884	3.4818	-18.1170	4.8413	-14.4736	-30.1228	-19.7098	3.8595	-11.6952	-3.3193	-22.9946	5.1477	12.9496
1504.0706	4.1318	-3.3611	4.0310	-29.3680	5.5315	-1.0703	2.1838	-14.3008	-17.7265	3.8695	18.1883	-7.2983	2.3739	-7.2970	3.6679	6.1586
1512.0709	6.4478	-11.8038	-1.3636	-30.5117	-8.9991	-14.4716	6.2218	-10.3781	-38.0138	1.0573	9.4355	-15.6310	2.0239	-15.1354	7.3099	13.7705
1520.0713	5.0737	-6.9183	9.7759	-24.7591	0.5155	-10.8859	4.1361	-17.2371	-41.6672	5.0248	18.7879	-6.7990	0.4623	-10.9568	1.7943	12.2614
1528.0717	6.3437	5.0151	24.4260	-7.4917	10.6292	3.6327	-0.4603	-21.7365	-28.8953	27.4201	40.8556	11.0757	0.8993	4.7053	-3.8617	5.3990
1536.0721	6.3897	3.1175	24.0751	11.7123	7.6183	-13.3754	-1.5233	-21.8649	-32.2953	28.2535	42.3852	13.0492	-0.4325	2.7420	-6.7159	-2.9405
1544.0724	3.4849	-0.1553	21.0096	-13.0931	9.4138	-11.4076	-1.5921	-23.8962	-37.3648	19.5281	38.3027	5.3745	2.7784	-5.5671	-5.7975	-9.5266
1552.0728	2.1583	-0.6258	19.2990	-30.2238	7.9603	0.3303	1.0617	-12.9649	-37.3126	28.1881	31.6739	4.8639	6.0432	-7.6580	-2.6669	-6.8105
1560.0732	8.0606	-10.7917	6.7234	-10.1507	-12.7329	-26.5312	8.2520	3.0073	-47.8409	25.1816	21.2410	-3.8510	4.0976	-13.8536	4.6038	8.4089
1568.0736	13.0055	-10.8152	7.3640	-8.7193	-20.3416	-22.9923	11.6425	5.2902	-54.0867	8.0018	21.6341	-6.7534	2.7954	-21.6961	10.1756	25.8652
1576.0740	6.5747	2.5774	23.6035	-12.9505	-0.9620	8.6389	5.7617	0.4049	-35.7127	23.7748	26.9121	11.1694	2.9100	-11.2407	0.5438	17.9077
1584.0743	5.4268	-1.0442	12.3635	-4.3592	-1.3639	-0.4873	4.3978	-2.8740	-35.0913	42.5033	24.1855	8.4973	0.9093	-3.6019	-3.6633	10.6566
1592.0747	3.7017	-5.0447	4.6175	-7.7398	-3.3019	-8.1869	5.3558	-2.7462	-44.5005	22.5572	17.8734	0.5947	-0.2424	-12.7406	-5.5983	11.7394
1600.0751	-6.1496	5.7550	23.0671	-2.5161	17.9515	2.4593	-1.6684	-6.3484	-19.2470	13.3516	16.3353	16.4215	-0.9361	-11.3956	-17.3418	-4.4019
1608.0755	-4.9254	4.9686	13.9851	6.1815	17.9950	-3.5722	-3.4618	-9.0463	-9.9086	19.8879	18.9531	14.1300	-1.2717	-6.3720	-16.5187	-12.8717
1616.0758	-5.0748	-5.0336	-9.4074	-12.8609	-0.1031	-10.6578	-1.2639	-1.3510	-26.3657	9.7082	11.4434	-6.1239	3.1969	-11.7522	-16.5430	-16.4515
1624.0762	-6.7758	-9.9829	-6.0726	-20.7951	-13.8280	-9.7986	0.8262	2.8819	-37.4035	-2.5214	-8.6092	-10.2333	2.7934	-28.4275	-15.7343	-8.5753
1632.0766	2.0187	-3.4684	9.0491	3.2851	-10.4796	-3.6396	3.3614	-0.2409	-24.8154	1.2522	-3.3459	3.4357	-2.4640	-31.4620	-2.8804	10.4514
1640.0770	-0.5068	6.6772	9.7921	18.1402	8.1661	-1.0883	-4.1659	-2.1689	28.2571	22.7443	13.1027	13.3115	-0.3866	-2.4728	-8.9640	-9.2101
1648.0773	-6.9547	0.0385	-2.3016	10.0606	0.5789	-8.7282	-6.3770	2.0223	34.3587	27.2893	-5.7879	4.2741	1.5838	0.2239	-14.3060	-23.2470
1656.0777	-2.7059	-2.0949	3.0287	7.2946	-7.3729	-3.8761	-0.2296	7.4341	-0.3089	13.9862	-11.6069	5.2140	0.4634	-12.0281	-3.0040	-8.3000
1664.0781	-2.6905	1.8476	6.1616	16.8447	0.6469	-5.9915	-2.2913	4.9877	12.1904	12.8462	-4.3358	9.3846	-0.0205	0.3976	-3.1390	-12.0809
1672.0785	-4.3012	-5.7530	-7.0008	16.0415	-10.3377	-15.2414	-1.9944	5.4796	16.8730	4.4460	-25.2346	-2.2132	-2.0011	-4.7246	-2.6299	-10.4798
1680.0788	-3.1581	8.4271	12.0365	30.4972	4.2029	10.3452	-4.5852	3.2167	25.4089	12.1970	-13.7949	19.0721	-3.4520	6.4632	0.1959	-10.5121
1688.0792	-6.5037	27.1134	33.7879	58.0827	33.0579	27.2747	-13.1470	-3.3683	53.9757	36.9775	9.2533	48.1369	-3.8981	37.6605	-5.6678	-32.5647
1696.0796	-9.7070	10.1643	12.3061	33.2100	13.4665	1.6106	-8.8268	8.2492	35.7103	17.9771	-11.6987	22.9799	0.7270	22.9912	-4.1625	-37.1149
1704.0800	-6.4206	-7.5997	-9.3207	10.2803	-11.8170	-24.6586	-0.3649	19.6551	10.3524	-18.4372	-28.2135	-6.0991	3.3220	-2.9832	3.8616	-22.0943
1712.0803	-3.8510	-4.9458	-5.3689	30.6255	-9.7007	-21.4350	1.7280	18.1272	2.4461	-29.9872	-34.6630	0.7267	-3.4107	-8.3157	8.3453	-8.1661
1720.0807	-7.5874	2.0725	5.8085	24.1281	2.1715	-3.4280	0.6734	20.9813	9.7723	-19.7383	-33.9532	11.1039	-2.6095	5.5667	6.2018	-7.0371
1728.0811	-8.0436	2.4896	6.9591	18.9835	3.9974	-12.0379	-0.3284	25.7556	29.3584	-12.5684	-22.2227	8.7488	2.0420	20.5948	2.7061	-10.7486
1736.0815	-5.8083	-4.4968	-1.5382	20.5010	-9.4704	-23.1289	3.4142	30.4352	14.8582	-29.5897	-32.5917	-0.8984	0.7168	7.7655	6.2795	-1.3880
1744.0818	-6.4132	-10.5767	-9.1924	1.4798	-12.4377	-22.6646	8.1611	35.2189	-7.1568	-38.3121	-43.0350	-9.8544	1.0875	1.6488	11.3855	7.0237
1752.0822	-3.4282	-11.9636	-7.6153	10.5439	-8.6008	-33.5172	11.4142	35.7428	-15.0507	-40.0885	-39.1856	-8.4040	-1.4902	1.6674	16.0588	15.3026
1760.0826	-4.9164	-2.2432	4.4878	1.9926	-0.9647	-2.4189	7.7576	27.6736	-1.5724	-42.2239	-38.2448	0.6153	-2.2498	-0.8582	13.3027	19.2408
1768.0830	-10.8059	9.3387	9.3450	-7.7840	13.3568	29.0535	-1.2762	16.3207	27.8120	-23.9661	-29.9529	9.7017	-0.4571	13.3692	0.8534	3.7969
1776.0833	-5.9143	7.0065	6.3309	26.2240	10.6269	0.3639	-0.6382	15.6445	15.8278	-16.7500	-13.6286	13.0163	-2.9115	13.4742	-0.6018	-2.5149
1784.0837	-2.3769	2.2871	-0.1141	-3.1830	3.4609	1.0704	1.7776	14.0369	6.9465	-24.2890	-4.0435	-1.2056	2.4173	9.6425	3.3854	3.0256
1792.0841	-4.4453	5.4512	-7.6304	-21.7695	1.0070	27.4285	-2.5769	5.1113	17.3593	-27.0571	-8.4839	-7.4325	3.3991	15.4669	-0.9806	2.4710
1800.0845	-0.2905	9.3270	-4.0708	28.0446	-4.4449	19.2543	-3.3636	4.4074	8.1948	-23.4180	-5.6762	6.2434	-3.8749	11.6492	-3.0773	3.8682
1808.0848	0.4103	-4.8430	-20.4936	-7.3993	-11.9548	-4.5773	2.5713	12.9802	10.7484	-15.9314	-5.4831	-16.1685	2.1241	3.5914	-2.1641	10.3548
1816.0852	-0.9215	-20.7494	-39.3411	-56.2633	-24.0478	-11.4365	9.3338	14.7311	-4.4544	-31.1407	-25.7871	-44.3409	4.0935	-16.8670	0.3368	29.0523
1824.0856	3.0191	-7.3997	-16.2743	-27.7645	-14.7403	12.1222	5.9558	-2.2678	-14.6932	-31.9770	-14.9491	-21.9690	-3.4368	-18.1034	0.6922	36.9931
1832.0860	2.3276	-0.5239	-7.4904	-12.8701	1.4048	5.3160	-0.9271	-13.0707	15.2419	-1.7373	7.9871	-10.5713	-2.0639	3.5835	-6.0328	16.4439
1840.0863	0.9033	-5.7568	-13.3738	-13.4528	1.5380	-9.0750	1.5811	-6.3181	7.7255	3.2131	4.2910	-13.4580	-1.5748	-2.2467	-6.1085	12.4284
1848.0867	3.0436	7.9871	4.0643	-10.1235	15.9017	25.5627	1.0544	-10.0643	-2.5834	12.5379	19.5327	6.9024	-3.1333	-3.8735	-4.3150	17.7532
1856.0871	3.1072	9.0771	0.3725	-10.5300	17.4232	23.5459	-2.8831	-14.7963	9.9182	33.9134	32.7869	7.0045	0.1116	4.6448	-9.2024	2.2028
1864.0875	3.9933	-6.0644	-19.8935	-26.8563	-4.0185	3.7836	2.7181	-5.9364	-14.9200	14.7618	13.8855	-15.3707	2.1220	-9.3819	-2.8842	6.7274
1872.0878	6.0170	-6.1310	-13.6072	-34.9689	-0.4725	13.9416	8.7857	-3.7357	-31.8779	-7.9107	1.3044	-14.7878	-1.9510	-18.4383	8.6933	30.6575
1880.0882	7.7112	2.9121	6.6745	8.4614	17.8403	2.2770	5.7261	-11.8223	-18.5217	8.7693	16.9776	8.4192	-8.1022	-7.7973	6.7530	25.5223
1888.0886	5.8994	4.5273	3.7667	3.8333	20.2612	0.5958	1.2916	-13.9576	-16.1551	30.0834	34.7198	8.8441	-2.4040	8.3764	-0.4780	3.7361
1896.0890	1.0899	-2.8136	-8.6703	-33.0351	9.8163	6.0194	1.8826	-8.7149	-24.4968	23.4064	21.6966	-7.6499	3.5574	5.1259	-2.8554	-0.7790
1904.0893	4.3317	2.4861	8.8632	2.0464	13.5609	1.3310	1.6546	-13.4756	-29.8506	20.2407	23.2884	9.6784	-2.7597	-7.6032	0.4411	1.6762
1912.0897	8.0514	10.8583	20.3484	8.1232	24.2416	13.9343	-0.5008	-20.3076	-27.5333	37.8857	42.8470	22.7173	-1.6248	1.6712	5.2837	-5.5536
1920.0901	5.7575	1.2330	7.1885	-16.7462	14.0992	1.6972	1.7224	-10.6163	-26.1441	36.7233	33.1172	6.2315	4.3014	4.8850	7.2569	-9.8162
1928.0905	9.0811	-5.0236	-4.8498	-16.1824	1.3835	-11.0890	5.6333	-2.0634	-29.8816	23.0462	30.1026	-4.7691	4.9031	-6.8110	9.9050	-1.2055
1936.0908	9.4035	-5.6222	-8.9037	-22.8544	-6.5255	4.3263	5.2143	-5.6536	-27.6352	25.9769	17.3975	-8.0995	3.1675	-8.7247	10.7700	7.0126
1944.0912	5.9495	-0.1428	14.0271	10.0609	-0.8949	1.0157	1.3456	-11.1164	-14.4674	29.8679	2.8300	10.7385	-3.2564	-1.6880	9.3625	4.4113
1952.0916	11.4993	10.4233	21.4050	23.3563	13.3773	4.4284	0.1736	-12.8320	-12.7874	20.8028	37.6898	20.6875	-1.0314	7.5120	12.9092	-1.1908
1960.0920	10.8232	9.8985	8.1446	-4.2325	8.3356	19.5336	-0.7047	-11.1643	-21.2289	16.4915	45.0522	9.6402	5.2244	8.8528	10.7643	-8.1548
1968.0923	5.0938	16.8689	32.2018	26.6684	14.3727	17.7527	-6.2032	-12.2847	1.4377	28.5263	33.1955	31.2530	1.4415	10.6452	4.0028	-19.6141
1976.0927	9.0790	20.9144	31.4607	30.6219	18.3779	17.8587	-7.7486	-12.7303	30.7021	29.0651	46.0074	32.0488	3.5887	13.0721	8.4052	-22.7380
1984.0931	7.3010	8.1259	5.2020	-1.7721	0.3764	11.9787	-5.6663	-7.9467	31.0701	16.0166	27.5891	5.3016	7.4993	1.7429	8.2771	-21.0124
1992.0935	1.6636	5.9405	12.9261	9.8754	0.3997	1.2138	-5.2708	-3.7884	21.5074	8.7766	11.6321	10.6697	4.0377	-8.3234	1.9892	-21.7945
2000.0938	3.6629	4.9613	6.1270	5.1856	-4.7519	5.0073	-4.1203	-2.2319	18.3785	1.5749	12.2797	5.4881	4.6697	-14.0076	3.6655	-17.7227
2008.0942	2.1964	-3.6899	-10.4549	-7.9553	-17.2796	-1.2143	-3.6629	-1.4856	27.9564	-0.8169	-4.8510	-10.4363	4.8649	-21.2157	1.6700	-14.6348
2016.0946	-0.2060	-11.3372	-16.5146	-4.9576	-16.7545	-18.0499	-0.8025	-3.1631	19.5474	-10.9579	-22.8840	-17.2402	-0.6702	-27.3877	1.4127	-5.2186
2024.0950	-1.0908	-9.1931	-14.8882	3.7277	-14.5566	-8.7917	-2.2681	-12.0554	10.9317	-16.0569	-31.2634	-14.0664	-5.8749	-21.3288	1.0378	0.0022
2032.0953	-3.8456	1.6941	1.1168	17.5826	-3.1048	1.2393	-8.1854	-14.7564	29.7012	1.2801	-16.0790	2.2002	-4.4899	0.9986	-7.3255	-11.6189
2040.0957	-2.6386	-12.5629	-18.4269	-6.6028	-15.8074	-19.2431	0.1923	-1.1773	10.4436	-14.8064	-27.4919	-20.4344	-1.8477	-5.9183	-1.0246	2.9226
2048.0961	-4.3821	-20.8091	-31.1849	-6.8050	-26.6014	-18.2792	4.5065	0.4905	-4.5819	-33.1767	-63.2666	-30.1193	-9.4089	-23.2939	2.4061	21.9905
2056.0965	-7.9330	2.3693	-3.2490	30.4424	2.8813	7.2019	-6.0467	-11.2240	23.9713	-13.0369	-38.1371	4.9159	-12.6698	2.3271	-9.2029	3.7308
2064.0968	-5.0937	-3.3178	-17.1858	9.2036	-3.3753	-4.9761	-3.9379	-5.1794	17.0921	-28.9603	-25.7826	-11.9862	-4.9367	10.1807	-2.5405	-2.7327
2072.0972	-2.7599	-17.1000	-29.2469	-5.0899	-20.6991	-24.3237	2.7290	1.9038	8.3137	-58.1414	-51.5869	-31.6445	-5.3437	-10.2310	10.4450	11.4570
2080.0976	-1.7808	1.1886	1.0994	17.0437	2.2557	0.2295	-3.3408	-11.2341	28.2757	-41.3716	-30.7400	-2.9411	-8.2805	6.7776	9.1247	7.9995
2088.0980	-4.0299	7.2263	0.0450	8.1340	5.4635	13.4079	-10.4085	-17.0707	44.4541	-27.0091	-14.3244	-2.0626	-2.2739	28.4610	1.7744	-12.3367
2096.0984	-7.0616	-7.1736	-18.1164	5.3688	-13.2632	-20.5065	-8.7862	-8.0315	47.4968	-45.4962	-33.6962	-22.1883	-0.7010	12.4385	-2.3333	-17.5169
2104.0987	-3.7045	-7.3623	-9.4563	14.1509	-17.0731	-19.6681	-4.6705	-8.9558	24.1482	-59.4248	-36.7313	-18.1936	-5.4146	-3.3852	0.7727	1.1123
2112.0991	-5.3473	7.0280	2.4259	-1.5525	-4.7502	26.2076	-9.4175	-16.2219	22.3816	-40.7163	-18.6603	-4.1113	-2.5483	10.7966	-5.5905	-2.4689
2120.0995	-9.6391	5.5603	-6.1907	-3.4981	0.6565	16.2767	-11.9859	-14.7143	29.0120	-30.1628	-13.0058	-7.3911	-0.0892	22.7139	-13.9657	-17.5862
2128.0999	-5.8468	-6.3449	-17.9128	22.1425	-10.6690	-19.9760	-5.3746	-8.0911	12.6434	-42.6626	-29.3843	-15.6599	-6.6704	10.5584	-6.8354	-4.5836
2136.1002	-3.1921	-4.4906	-20.0048	4.2243	-12.1338	-0.8629	-2.1416	-0.8263	25.1728	-40.7061	-31.7986	-17.5925	-4.7691	2.7286	-0.7646	9.7201
2144.1006	-2.7731	-1.1594	-19.6067	-28.4092	-7.3013	25.9800	-0.7656	-1.2669	20.8560	-36.4751	-25.1482	-20.0120	-0.8558	5.0644	1.7525	17.4759
2152.1010	-1.2187	2.5131	-9.1285	11.6415	-4.0501	17.7904	-2.4518	-9.6018	4.5418	-30.0923	-22.9002	-5.4330	-8.3222	14.3725	0.3745	16.7737
2160.1014	-2.3085	0.4486	-12.3212	13.0465	-4.3532	1.7229	-4.2691	-6.9647	22.7901	-17.4829	-13.8746	-8.9731	-4.9933	25.9303	-5.8883	8.2117
2168.1017	-1.6584	-7.0147	-21.2361	-27.4963	-13.2263	4.8317	0.0567	-1.7427	13.0670	-21.5725	-14.8710	-25.6207	1.0339	16.4271	-3.4668	17.1242
2176.1021	1.9671	2.2303	-5.9151	3.3128	-11.1865	17.9802	-1.8131	-8.4251	5.2350	-19.4997	-8.7440	-7.0946	-4.4556	9.5531	-2.8387	20.1893
2184.1025	1.8620	-3.5168	-16.4214	-14.1012	-16.9291	9.7113	-1.1690	-6.4682	6.5185	-12.6963	-3.9643	-18.8175	-0.1780	10.6761	-6.0162	17.2203
2192.1029	2.1319	-17.3148	-23.3842	-31.1618	-26.3126	-11.9041	5.6060	-4.0159	-19.4138	-13.6825	-16.9676	-32.9212	-1.2227	-3.6686	-3.7984	31.1546
2200.1032	4.4138	-3.8418	2.4718	17.3712	-9.0109	-10.2193	1.2116	-15.2147	-8.8172	3.4529	0.0134	-3.3230	-8.8492	-0.0130	-8.0912	28.1863
2208.1036	0.0191	-4.4729	-12.1393	-48.4255	-5.3463	16.0195	-0.2579	-11.2410	-0.3936	18.1183	13.2280	-19.2892	4.5843	7.0903	-12.6580	14.7299
2216.1040	-1.0209	-16.4576	-20.6211	-81.3840	-14.6066	10.0003	6.6947	-4.5970	-29.1439	10.6215	-3.1783	-33.9376	6.5661	-16.9804	-7.4971	24.2342
2224.1044	5.5623	-10.6547	5.0296	5.4317	-6.0957	-27.1773	6.2184	-14.6076	-28.7934	8.6178	4.8276	-5.9644	-8.4568	-23.3973	-6.9336	31.7028
2232.1047	4.4804	-2.9174	6.8627	-3.8590	3.0215	-9.5480	2.7568	-15.2554	-20.1570	22.9034	23.4710	-0.7594	-3.8671	-6.1129	-11.6851	21.9105
2240.1051	2.6767	4.5239	14.7649	-28.6153	10.9936	20.8833	1.4198	-13.0440	-25.5979	40.1929	33.9700	7.2328	2.2285	0.2805	-10.8216	13.2900
2248.1055	4.0080	5.1042	24.6259	0.7245	12.9914	0.7275	0.6136	-14.2862	-28.1044	45.5762	38.9591	16.5728	-0.2878	8.7332	-9.8348	7.0377
2256.1059	1.0683	9.5910	25.3747	3.4456	14.9587	11.8810	-2.0917	-11.1922	-24.6590	44.7108	36.4443	20.9405	1.0328	21.9717	-11.0082	-1.4520
2264.1062	2.7296	23.8677	40.1883	14.0889	24.5048	42.4473	-5.9960	-12.1736	-6.9769	57.9364	47.2918	40.2157	1.8152	31.2526	-7.6900	-6.8701
2272.1066	5.9588	14.7244	31.2711	12.2872	14.3256	14.8346	-2.5703	-3.7929	-4.8564	67.8570	52.0553	29.7240	5.6314	32.0685	-4.7335	-8.1890
2280.1070	3.9990	-3.6913	9.3835	-6.7986	1.0467	-20.4568	4.1772	4.3951	-33.0992	42.2762	35.2957	4.1606	6.4460	11.8474	-4.1035	-3.6084
2288.1074	2.5381	-4.9779	11.3603	-12.6186	5.1275	-17.6244	5.2087	-3.4103	-51.4130	18.8014	26.2878	2.3450	2.5153	-5.9873	-2.7918	1.7693
2296.1077	2.4657	0.6076	19.5205	-9.4118	9.5918	-6.9720	2.6630	-6.0059	-42.2553	31.9779	32.8009	10.7329	3.2887	2.5369	-4.1166	-2.2483
2304.1081	1.3705	2.3374	16.1460	1.8389	14.4417	-10.8641	0.5967	-6.0234	-26.7056	37.4455	33.8621	13.3003	2.1836	6.9176	-6.8894	-8.7382
2312.1085	-2.9435	-5.8321	3.2608	-19.2947	11.4621	-17.6404	2.0557	-3.6773	-23.5718	24.7680	15.4789	-0.7576	2.7156	-8.1161	-7.9891	-8.9798
2320.1089	-2.4437	-6.6152	9.9404	-29.2273	5.6947	-15.7805	4.8169	5.2163	-34.7002	21.3797	15.9695	-0.0974	6.3577	-14.3798	-5.1650	-5.9236
2328.1092	2.9436	8.8753	30.5307	8.6302	18.4643	-5.6419	1.6820	1.5132	-40.7739	30.1915	48.2797	25.7762	4.9614	-1.8044	-4.2946	-13.6467
2336.1096	-0.4447	18.2996	32.8977	19.4414	29.2960	10.8358	-5.6500	-4.6062	-13.6522	45.9617	53.3063	36.9591	4.8740	8.6626	-10.9662	-31.6457
2344.1100	-3.6847	12.4846	22.4685	3.5985	18.9826	8.3919	-5.8410	2.9642	6.6976	42.6699	35.4576	25.5513	8.0022	1.3040	-11.8028	-34.4630
2352.1104	-0.0003	-0.0333	6.8752	-6.1963	2.0248	-12.8857	2.2795	15.5997	-25.9559	24.6759	29.2088	8.3382	9.7217	-11.5905	-4.5729	-22.8776
2360.1107	0.4408	-7.2700	-3.0575	-11.2395	-5.9194	-18.5304	8.1680	24.4965	-48.3271	13.9153	13.5776	0.0308	7.8594	-18.0837	1.0872	-10.0003
2368.1111	-0.5758	-9.3882	-6.3054	-14.6520	-6.9684	-16.3471	10.2816	27.7752	-36.4066	3.1814	-3.8661	-3.9085	4.9209	-24.7135	4.0354	2.8332
2376.1115	1.0243	-6.9903	-0.2728	-5.9825	-4.9671	-17.3194	11.2742	29.7488	-37.3945	5.2400	2.2522	1.6036	4.0432	-23.7568	3.9169	7.8600
2384.1119	4.5912	2.9304	14.8650	18.7072	1.8628	-11.2014	9.9334	30.8041	-30.7315	11.2023	18.7384	18.1666	3.1553	-11.6482	5.9065	8.3834
2392.1122	6.0147	0.9973	-1.6740	10.4061	-4.1144	-8.0600	9.1536	32.5887	-11.6680	7.3795	16.6021	6.8821	5.2138	-9.5902	7.6223	7.5458
2400.1126	1.2026	-8.3518	-16.1177	-3.1882	-14.2747	-12.9640	9.2349	32.8666	-10.3230	8.0481	-9.2442	-6.3345	4.1555	-16.9585	4.1483	6.9046
2408.1130	-3.4661	0.5020	12.5015	17.9406	3.0572	-10.6872	5.6479	25.6775	-1.7293	10.3378	-11.2593	15.4992	-0.8055	-11.7436	-0.4485	4.5872
2416.1134	-3.0195	9.4218	19.3201	21.5713	17.0821	-5.6153	1.6338	22.2618	11.8342	15.6418	15.4745	24.1602	2.6434	-2.1069	-4.7523	-8.9154
2424.1137	-1.4942	3.6503	4.4134	17.8683	6.8200	-11.7297	2.4154	22.7909	2.9832	3.3392	8.8854	12.5993	3.4594	-8.5683	-0.3001	-13.0493
2432.1141	-4.5797	3.9360	8.2167	23.8207	7.1375	-6.0495	-0.1578	14.7883	11.2929	-9.8361	-14.2172	14.0850	-1.4057	-9.4539	2.8935	-12.5065
2440.1145	-9.0525	7.5436	3.6428	17.1108	11.4469	7.1273	-5.4993	11.7417	29.0508	10.5193	-12.4255	15.7520	0.9696	2.7010	-5.8257	-27.0706
2448.1149	-6.5838	0.0147	-13.2774	5.2419	0.4198	-0.0190	-0.5492	21.0301	4.6446	3.1607	-12.8795	2.5693	3.6279	-2.9654	-1.5848	-23.3148
2456.1152	-4.1684	-2.4361	-19.0628	1.5929	-5.1793	4.3282	1.5066	18.6113	0.8491	-15.2944	-24.4260	-4.5962	0.9927	-7.5850	5.9126	-11.0662
2464.1156	-9.6691	1.3182	-15.2233	11.2954	-4.2576	14.3014	-5.6649	8.9799	26.0595	-4.1045	-37.9368	1.0506	-1.9158	0.8518	-3.2346	-20.5616
2472.1160	-11.2271	-1.1122	-14.0446	12.5043	-5.9557	5.2605	-3.6627	15.1522	6.1602	-10.9658	-38.1400	0.8938	-1.0941	-0.9507	-4.5948	-22.3502
2480.1164	-4.6846	10.1476	-1.3894	24.5280	6.7029	21.3236	-2.6989	14.5715	2.1356	-1.6758	-11.6210	16.7598	-0.9561	9.2725	2.5368	-17.4473
2488.1167	-3.3032	29.8850	23.0480	53.4151	26.8026	53.0423	-11.8505	-1.8713	32.1120	24.4971	4.8306	46.5172	-4.1800	30.6510	3.2318	-30.6431
2496.1171	-7.1289	30.0515	17.8424	50.0007	30.7150	53.4433	-17.1514	-9.4998	41.0741	25.6930	1.2301	43.9817	-2.5740	41.5583	2.3375	-51.4072
2504.1175	-6.7216	18.5683	-3.9937	40.7030	19.6452	31.9742	-16.2071	-7.8123	49.4980	26.8696	-8.7258	24.8089	-0.5291	43.7323	5.2861	-57.0539
2512.1179	-2.6166	6.3107	-12.5719	31.5589	-2.6610	19.1292	-8.6336	0.2093	23.1432	8.7400	-28.4081	9.8471	-1.3035	25.1225	15.5323	-38.0401
2520.1182	0.3676	3.2006	-19.3144	20.4828	-12.3740	28.9049	-2.7228	6.4855	-10.5189	-6.2460	-32.8734	3.2377	-2.0629	15.0559	20.1371	-19.6558
2528.1186	-1.4907	11.3715	-13.2987	34.5941	4.5228	39.7592	-5.4669	2.4090	18.1232	10.7018	-30.8785	15.5172	-6.5614	29.3675	15.6304	-15.6487
2536.1190	-2.8440	10.6216	-5.9197	37.7705	6.4651	34.9673	-4.8592	1.8576	19.8562	9.0342	-38.3051	17.8829	-8.5044	33.9307	16.5374	-10.2415
2544.1194	-0.6026	8.7038	-10.9054	46.9321	-2.1358	28.6656	-3.7365	2.6679	-3.8934	1.2272	-31.9862	14.6683	-9.0270	35.0421	14.2391	-8.0063
2552.1197	-2.8454	19.2447	2.7223	48.1582	12.6188	50.0985	-7.6707	-2.4545	18.5615	15.5801	-24.0921	29.4218	-9.8108	34.7365	8.1358	-10.3465
2560.1201	-3.6283	23.7514	12.3541	20.3148	20.4261	71.5455	-8.3791	-2.9866	32.7111	37.4629	-16.5241	34.1951	-4.6175	34.3065	9.1299	-12.0719
2568.1205	1.9072	8.4021	-10.1968	30.3932	3.7632	25.5460	-1.1213	9.8912	16.2781	26.7691	-15.2950	14.8078	-3.7933	27.1378	14.3146	-6.9297
2576.1209	4.9691	-7.8965	-23.3610	11.7900	-13.8184	3.1076	10.4602	22.7883	-9.2405	-13.2473	-41.9849	-7.3538	-5.8870	-5.9002	26.7306	22.2541
2584.1213	7.6456	1.4703	-8.5166	-19.0763	-12.0564	58.5571	11.3291	14.4764	-15.5073	-0.5209	-44.6159	0.6137	-6.0348	-2.9952	33.4317	45.9955
2592.1216	11.9246	18.8716	10.4445	45.9170	5.5110	59.6969	3.9320	3.7447	10.9843	32.7415	-13.9615	31.6342	-12.8651	31.3902	25.8393	38.7134
2600.1220	13.9416	23.2273	20.0210	84.5719	11.2204	41.5019	2.5771	4.8557	20.9118	32.4397	-3.8840	44.8120	-16.3787	30.2862	24.3065	32.9829
2608.1224	12.3761	29.1317	23.0823	55.8856	11.4419	77.2008	-0.2903	0.5930	17.4149	45.1700	0.7302	46.1083	-11.4782	40.2621	22.8101	29.9409
2616.1228	8.2545	29.5341	20.1851	30.7365	15.9038	83.6847	-3.4025	-3.4003	19.1256	49.8437	10.1956	39.3007	-6.1257	58.3330	15.3164	21.1013
2624.1231	8.0404	17.6193	9.2172	-0.4203	8.0560	65.3957	1.0347	-0.7346	6.8570	30.2137	5.3957	19.1684	-2.1843	37.0533	17.5511	24.4388
2632.1235	11.0883	9.7197	5.5910	7.8085	2.6825	38.3619	5.2025	0.3406	-0.7481	11.1612	1.2461	11.7103	-4.9230	15.1507	21.5639	31.9154
2640.1239	12.1233	3.1755	10.3799	21.1636	3.3356	1.7955	7.0593	-2.6706	4.4436	-7.2915	2.1750	7.1828	-7.8996	0.8592	20.1162	36.7518
2648.1243	10.8035	2.1864	14.1662	-9.4917	6.1489	7.4736	5.8212	-10.6518	13.0485	-9.7144	8.6846	-0.0100	-4.0246	-7.4052	16.1713	37.6960
2656.1246	7.0945	8.7496	23.4242	-11.7695	23.8269	7.3430	1.3749	-18.1583	20.9601	-14.4070	27.5649	5.7732	-2.2334	4.0267	7.7206	25.7844
2664.1250	5.5428	-5.8103	10.2680	-21.1069	13.8713	-33.9440	4.4665	-13.7664	8.1823	-32.5220	24.5520	-14.1537	0.4665	-5.9175	4.5175	21.2224
2672.1254	9.0421	-28.0700	-15.3894	-59.8907	-22.1643	-52.3343	14.1367	-1.8792	-18.7450	-45.9296	0.0750	-47.6732	4.3143	-41.7106	10.2605	41.2675
2680.1258	11.2443	-21.3935	-1.8858	-53.4144	-15.0909	-41.7096	14.6597	-5.7725	-20.2076	-48.5510	10.3753	-37.8885	1.6678	-43.7742	8.7837	54.1580
2688.1261	7.7235	-15.9138	1.4139	-48.1330	-4.1219	-44.6379	8.3047	-13.7419	-5.7816	-37.9511	30.1416	-34.2129	3.6470	-17.8564	-4.2740	39.9210
2696.1265	4.4825	-22.7415	-11.0253	-58.8045	-18.2228	-49.8609	7.7905	-11.1211	-22.1378	-44.3841	21.7284	-46.4976	6.0309	-20.1449	-11.2138	34.1446
2704.1269	4.3432	-10.4431	14.1619	-34.2822	-0.6868	-32.4082	6.1317	-19.6297	-33.8728	-45.4610	26.7372	-21.1073	-0.5685	-25.2109	-10.2783	36.3616
2712.1273	3.1869	-8.3228	14.3275	-33.3348	6.8498	-32.4446	3.9321	-20.3298	-25.3943	-26.0625	33.6339	-16.9126	1.4718	-9.2794	-10.2513	24.0001
2720.1276	3.6355	-16.5747	0.2953	-43.6047	-8.2086	-42.2672	6.4246	-12.0212	-36.6592	-33.0201	24.8469	-30.5195	4.8136	-10.9991	-6.8554	22.2246
2728.1280	2.7170	-4.4224	17.6482	-23.3210	9.9826	-25.6314	1.9489	-21.3189	-22.9434	-21.0725	32.5200	-9.2826	0.5863	-7.5686	-8.8265	16.4377
2736.1284	-0.1104	-14.3914	-2.7443	-42.5295	1.4977	-39.6565	1.7906	-17.3800	-16.4593	-12.0750	24.6281	-26.7348	5.0813	-2.8306	-11.1517	5.3328
2744.1288	2.6061	-32.7882	-21.0314	-63.1535	-28.6594	-60.6615	10.3125	-9.0827	-54.7228	-54.4867	-2.4757	-54.6127	5.2619	-32.4892	-1.8323	24.0419
2752.1291	2.5877	-20.1093	-1.2503	-42.8095	-12.3274	-37.9037	7.1307	-18.3005	-43.4592	-44.7205	0.8079	-31.7120	-0.7544	-38.1410	-2.9164	26.4390
2760.1295	-0.5615	-12.5677	-4.5414	-38.3695	-1.3402	-22.9482	0.5225	-22.1509	-23.1236	-7.1165	13.6558	-21.9731	1.5848	-20.0404	-11.6797	3.9508
2768.1299	-1.7378	-6.5688	2.3963	-28.4175	-2.2400	-12.2021	-4.0858	-26.3896	-23.8315	-9.1288	17.6476	-13.9349	2.1527	-19.5247	-15.3993	-8.1911
2776.1303	-3.6822	-5.4213	4.8754	-28.4861	-4.0799	-17.1546	-6.4480	-19.2264	-0.9116	-3.0985	20.2167	-12.8060	6.7840	-14.4573	-18.2148	-19.4891
2784.1306	-0.8119	-23.6235	-24.3244	-51.3918	-31.2870	-43.7281	0.2904	-5.2337	-16.1822	-15.1549	8.2101	-43.3848	12.0165	-21.0533	-12.9934	-12.2363
2792.1310	-1.9166	-19.5662	-17.4515	-37.9606	-33.0027	-28.1537	-1.3081	-12.5384	-21.3097	-28.8801	-6.6389	-36.1601	5.3247	-33.9102	-14.9813	-3.4190
2800.1314	-5.3540	-7.9260	-1.4197	-19.2677	-16.9722	-14.9706	-5.6921	-10.9023	10.0116	-9.0793	-2.4291	-15.3037	3.8072	-25.6119	-20.7193	-10.8558
2808.1318	-0.4548	-6.0217	-7.9046	-11.3634	-15.1216	-19.2840	-3.6843	-3.4576	11.0238	-0.1831	16.2151	-14.5768	6.2508	-13.9250	-16.8010	-11.1238
2816.1321	-5.1056	-2.5409	-16.1169	-18.0319	-9.3833	-6.0274	-7.7779	-4.7784	22.8568	0.3004	14.6235	-15.5566	7.4128	-8.6110	-23.4054	-22.6820
2824.1325	-10.2606	-15.2437	-29.8840	-42.6999	-20.4525	-21.0822	-3.9320	5.5142	17.3730	-21.7933	-13.0990	-34.2535	9.4222	-25.8533	-21.7968	-21.0558
2832.1329	-5.6574	-11.6565	-15.3418	-15.9547	-18.2916	-24.0853	-1.2291	4.7901	10.8994	-34.8088	-16.4141	-22.4803	3.3427	-31.1579	-12.1377	-7.2884
2840.1333	-9.4476	-0.0408	-4.1633	0.0466	-0.6194	-7.8272	-7.8504	0.1665	39.2633	-6.5110	-10.0475	-3.6476	2.4253	-7.9041	-17.0629	-22.6340
2848.1336	-9.4976	-17.8561	-29.2476	-30.5685	-15.1450	-30.5268	1.2187	13.8731	3.0802	-25.6800	-26.6552	-29.6026	5.7578	-25.1067	-8.8645	-16.3580
2856.1340	-5.9394	-14.7637	-23.4050	-10.9198	-8.6404	-32.5527	5.1309	15.5749	-12.7211	-45.4826	-24.7433	-21.6648	0.1374	-37.5181	-2.6749	-3.3585
2864.1344	-10.7047	-3.5608	-9.8553	6.4041	8.6426	-23.0505	-1.7367	13.4596	27.6688	-21.3806	-18.9951	-4.0397	-0.2765	-11.4720	-10.1225	-16.3689
2872.1348	-9.6323	-11.6141	-17.5899	-6.2714	-3.0017	-30.3740	2.4508	18.7517	11.9292	-32.2561	-31.5738	-16.0962	0.7713	-11.2041	-3.1245	-7.5872
2880.1351	-9.7880	-3.8927	-12.5228	1.1806	3.5212	-12.0388	-0.2282	14.5523	18.0637	-31.2584	-28.9147	-7.2249	-1.1004	-5.2167	-3.7380	-7.8974
2888.1355	-13.4856	-6.4608	-17.0362	-4.8412	0.6084	-17.6832	-2.8878	14.9716	30.1834	-32.2232	-35.3072	-13.0498	1.2320	1.1615	-7.5294	-17.7224
2896.1359	-9.3472	-12.5200	-11.6245	5.2643	-8.8895	-35.5118	1.5810	11.9034	3.4323	-62.4563	-43.5178	-17.5532	-3.0875	-13.6081	0.6917	-2.7865
2904.1363	-9.2524	3.1646	6.7587	25.6810	11.8140	-15.7319	-5.2541	1.2095	30.0235	-33.7084	-20.5834	5.9668	-4.5898	4.4733	-5.5727	-12.8085
2912.1366	-10.9422	3.8234	-6.4094	11.2447	2.4823	-2.8938	-9.1684	5.6804	39.2813	-18.0467	-15.1179	-0.5012	2.5306	15.3390	-11.2782	-29.4231
2920.1370	-7.1008	4.9561	-4.4658	26.6772	-15.5222	5.6896	-7.8977	8.3695	12.6921	-44.9616	-22.6708	0.2203	0.4248	7.6943	-6.1823	-20.4892
2928.1374	-7.1187	13.1409	10.0787	41.1545	-3.5706	10.6106	-9.6044	10.5792	34.9257	-27.8967	-13.9201	15.3946	0.0767	23.1879	-6.2527	-21.3364
2936.1378	-6.8994	7.5251	-2.0959	12.8765	-7.8013	10.8998	-6.8595	18.3581	46.8123	-20.2920	-16.4973	2.6969	5.3228	20.5512	-3.1408	-18.9527
2944.1381	-3.6519	6.6715	-0.6622	19.7099	-12.7534	12.4329	-5.5129	10.4943	28.6208	-37.8926	-19.6815	1.5975	0.8238	6.0482	-0.4061	-8.1286
2952.1385	-4.3854	-1.5959	-1.9535	21.1704	-9.3764	-18.2435	-2.9343	7.7858	19.3065	-43.0976	-19.9946	-4.7769	-1.0130	-1.0922	-1.5624	-7.6076
2960.1389	-7.1096	-7.4698	-13.1553	-17.2075	-8.1578	-12.6672	-1.0192	7.6409	17.4592	-45.1675	-25.5216	-18.7076	2.6084	-13.0394	-1.9636	-6.5184
2968.1393	-8.0029	6.8818	2.1246	-6.5770	7.2352	18.0275	-6.3418	-2.5161	26.8687	-36.8557	-15.2526	0.2832	0.0324	-5.0962	-5.2931	-10.3441
2976.1396	-5.3089	3.6839	4.6071	24.6672	5.3333	-15.8026	-4.9093	3.8086	30.6232	-37.6465	-10.0743	3.5526	-1.3231	-1.0897	-2.6772	-14.9684
2984.1400	-2.8231	-2.5194	-4.2205	13.0032	-7.4573	-15.5398	-2.4864	3.9495	18.6587	-37.0530	-17.0921	-5.8720	-0.5349	-14.1205	0.8846	-10.1158
2992.1404	-4.6035	6.5879	8.7276	1.3705	1.6543	17.4174	-6.0976	-7.0831	8.1556	-17.3319	-8.0102	6.1276	-0.2655	-4.8610	-3.9909	-11.9406
3000.1408	-2.8172	6.8460	15.9526	8.4814	8.0336	2.8184	-4.8597	-4.8096	9.4239	-6.7435	5.1493	10.6322	1.0939	7.2212	-1.8806	-13.5680
3008.1411	1.7287	6.1173	14.4528	13.3163	8.1365	2.6986	-3.6530	-10.4027	9.9641	5.2613	8.0697	11.6975	-1.1802	2.6465	3.6393	-8.7809
3016.1415	1.3605	-0.2943	8.1154	5.1442	4.6282	-7.0641	-2.4892	-13.8119	-1.6013	13.7871	5.9474	4.6636	-1.2891	-1.5670	1.5474	-9.3184
3024.1419	2.3926	-8.6449	0.7352	-9.2955	-4.8994	-20.4429	1.4650	-8.3482	-12.2004	8.8762	2.4288	-7.3758	1.0772	-9.1128	3.3742	-3.3074
3032.1423	5.1483	0.7636	11.0575	-5.9207	-2.4957	11.1174	0.5216	-14.3396	-22.9992	12.7774	8.0048	5.0642	-1.2994	-13.7704	4.8104	4.5738
3040.1426	2.3901	3.3424	17.4763	-0.7048	5.1644	3.8083	-1.4050	-13.6591	-25.1025	20.8819	21.4377	11.2254	0.4142	-7.3602	-3.7489	-5.5895
3048.1430	-1.0205	-2.1977	16.8556	-12.3240	11.0787	-17.3418	0.0958	-7.9330	-18.9789	26.4452	23.3525	6.5199	3.7393	-8.3320	-6.5690	-12.6395
3056.1434	0.1686	2.2634	23.8458	-5.7928	16.2910	-3.9127	1.1498	-9.6615	-31.0871	27.5065	21.8847	15.6188	0.6424	-8.0143	-2.0336	-6.5965
3064.1438	2.9215	5.5381	24.4954	17.1613	14.1272	-9.7295	-0.4169	-8.9664	-32.7742	34.5180	35.5520	21.2621	0.2954	4.4848	-4.7400	-10.9519
3072.1441	4.1056	4.2768	23.8459	12.8290	7.2446	-10.3994	-0.9379	-7.9689	-27.9011	40.1101	37.9548	19.0602	2.8721	-2.0210	-5.4314	-14.2817
3080.1445	3.9874	0.6812	22.2612	-4.2804	0.5470	-5.2422	2.5965	-3.2725	-47.2886	25.9068	29.5101	12.7931	4.2065	-12.4817	-1.4574	-6.2275
3088.1449	3.7277	-1.5337	12.6746	-5.3711	-4.0780	-11.7379	2.7264	2.4234	-47.3482	31.7028	35.5920	6.8955	6.7825	-1.7581	-6.1762	-8.7138
3096.1453	3.5647	0.7453	9.4120	-6.7521	-12.1942	4.9420	-0.4353	0.0586	-29.5061	40.5935	28.3183	6.9205	6.8380	-6.9413	-9.4344	-9.6005
3104.1457	4.4578	7.3853	18.1308	-2.6578	-8.4679	23.6524	-0.8368	-1.7448	-25.8138	26.9474	23.9625	14.6165	4.3434	-11.9994	-4.9323	-1.9976
3112.1460	6.7799	17.3277	28.4445	10.5050	11.0654	28.6660	-1.5175	-0.8059	-21.6902	40.8402	49.2357	29.9979	5.2981	7.8415	-1.8325	-7.9981
3120.1464	6.8645	12.3851	15.6088	3.1096	5.6897	21.7310	-1.0030	3.7495	-11.3188	44.6092	43.9775	20.9469	7.7031	6.0163	0.5518	-13.4948
3128.1468	0.8200	2.8332	-5.8650	-3.7784	-2.5394	11.0226	-0.6417	8.2541	-1.0892	18.4639	10.8293	3.6567	4.9560	-7.6667	-1.6258	-13.6218
3136.1472	-4.4810	9.5870	1.5715	1.9433	13.4276	24.7202	-3.5630	3.4650	-7.0063	20.9545	8.4451	15.7014	1.9078	-0.4778	-5.7008	-21.4648
3144.1475	-0.5607	9.4352	7.1543	-2.3714	9.4903	22.6748	-2.1019	4.8484	-8.6333	22.9369	17.1316	15.5108	4.9205	1.3694	0.2014	-19.0804
3152.1479	4.9632	3.7256	-5.3510	3.5304	0.8306	3.7754	1.8178	13.2892	9.8522	10.7484	15.1657	3.9725	5.1757	0.0994	8.8207	-8.1622
3160.1483	3.6618	5.4813	-15.6111	0.1062	7.4749	14.8421	0.9764	10.3051	9.0624	10.9671	13.6290	1.9049	3.4517	8.2295	8.2049	-8.5445
3168.1487	-0.7737	1.2117	-22.7741	-20.0489	-2.0723	21.4575	-1.9164	5.3664	16.7399	3.3676	-2.3401	-9.5006	4.8166	0.4476	2.1136	-11.5470
3176.1490	-0.6819	5.2023	-3.4837	0.7735	-2.3786	19.0533	-3.2303	5.9271	39.6316	1.2441	-12.6297	3.2745	1.6635	-7.4002	4.5499	-7.7299
3184.1494	6.3851	12.1316	10.6060	17.8278	10.0804	15.1906	1.1155	12.6449	21.6718	9.2288	16.0765	18.1670	2.7614	8.9530	15.2323	-3.0247
3192.1498	8.7232	-1.9454	-22.2335	-3.7607	-6.1397	-3.1487	6.6489	20.9324	3.3717	-8.2394	11.6264	-10.6698	5.8804	6.8256	18.0995	3.9867
3200.1502	0.4795	-1.5987	-23.5863	8.6155	-10.2673	12.9601	1.1379	9.1126	14.1018	-19.3357	-29.3526	-8.2492	-3.8995	-6.0297	9.2946	5.4847
3208.1505	-4.1065	19.0374	12.7431	30.0793	17.9569	37.6810	-7.3000	-0.6709	21.8655	5.3816	-3.1932	27.1944	-4.0496	17.2656	-0.7249	-13.5906
3216.1509	-0.0167	14.5578	4.3620	10.5211	15.0997	21.0243	-3.8526	11.6930	23.6463	10.9944	19.8685	16.1973	5.9417	27.0446	4.7947	-20.2282
3224.1513	2.9533	3.0992	-14.1221	5.5562	-4.7365	16.7301	0.9088	12.4265	18.6489	-11.7621	-14.5427	-1.7359	0.9783	7.5262	16.6794	-1.7588
3232.1517	1.1589	7.8803	-7.1615	15.7846	-0.2217	24.7931	-2.5164	3.7202	19.9905	-14.8521	-14.8669	5.0733	-2.4261	9.2120	11.1701	-2.5441
3240.1520	-3.1768	5.3457	-8.5675	5.4409	-0.0027	19.2483	-5.5732	0.1917	26.5741	-10.6050	-16.9169	0.6026	0.0222	12.1559	4.6462	-14.2212
3248.1524	-6.0428	3.7281	-9.4161	10.9786	0.2087	17.0775	-7.3708	-4.8578	25.9382	-18.0077	-31.6551	0.6058	-3.0546	7.1538	5.0754	-19.8945
3256.1528	-3.0899	1.6685	-14.1543	11.0533	-0.4903	1.0488	-4.6594	4.0659	22.0331	-20.6071	-14.5185	-3.4862	1.0430	7.3812	5.9356	-22.2991
3264.1532	2.2501	-14.1625	-29.4608	-10.6933	-20.4828	-18.1674	5.9113	17.3831	0.6138	-25.7180	-29.1299	-24.2690	2.7707	-5.1227	18.4964	0.7175
3272.1535	3.3845	-8.6457	-14.3346	12.4106	-15.4766	-6.0220	6.6850	10.3785	-4.9228	-34.7462	-43.4872	-10.4353	-6.6354	-8.3603	23.3457	18.5931
3280.1539	1.6142	11.0379	7.2704	24.3482	5.3370	26.3362	-2.4475	-2.0496	21.2452	-21.3079	-17.2803	12.7369	-6.2490	9.8127	13.0290	7.0860
3288.1543	1.0953	13.2998	4.8903	12.7015	3.9582	38.2434	-5.7710	-4.6305	26.5879	2.7037	-6.7550	12.5896	-1.5798	24.3202	8.6667	-3.4663
3296.1547	1.5134	16.6491	12.2000	55.8889	7.6669	17.6910	-8.4524	-6.5320	26.6107	-2.7682	-0.5162	24.0305	-6.2154	32.2492	5.3640	-12.4743
3304.1550	0.9264	13.6765	9.1359	36.5354	3.5671	19.0235	-9.1853	-10.4388	29.8940	-14.4612	-3.4490	14.5910	-3.4867	25.7397	6.3421	-14.1197
3312.1554	2.6393	-0.8292	-9.0080	-14.8276	-20.6257	25.3373	-3.7154	-6.9932	14.9200	-12.2292	-22.2187	-11.4442	2.2087	6.5229	12.8907	-1.5736
3320.1558	7.5008	-1.9373	-1.0107	32.3722	-27.6217	-4.8535	-1.8278	-5.0495	15.6576	-29.8807	-22.2001	-5.2026	-4.8459	0.4153	13.6133	10.1361
3328.1562	6.6545	0.2294	3.3236	15.7143	-19.6307	5.0822	-1.6290	-8.7772	21.2503	-30.4069	-18.6347	-6.1425	-4.1210	7.7345	13.4044	17.8846
3336.1565	3.9951	2.2851	0.3274	-21.3436	-11.6959	32.1633	-1.2884	-8.8057	10.6518	-0.7855	-10.2095	-6.2412	1.1042	11.9186	9.9952	14.3193
3344.1569	6.7547	11.1709	17.8156	41.6891	-4.6073	14.0513	-5.7685	-16.0055	12.9658	1.9624	6.0471	17.1109	-6.2832	13.2294	3.8806	4.4460
3352.1573	4.2685	10.2978	17.7505	17.2135	-4.4806	20.8564	-9.1459	-23.9807	22.6845	12.3635	10.2557	11.0596	-2.0155	17.1662	-1.6480	-3.0376
3360.1577	0.2057	0.7756	-2.0334	-29.6732	-10.3144	23.0475	-7.2956	-19.1714	18.4414	25.3147	7.2286	-8.8234	5.0539	9.9067	-8.1626	-6.7918
3368.1580	3.2758	-7.0920	-9.0360	7.7938	-17.3751	-11.8231	-2.5714	-16.5489	-1.1853	-0.2018	-4.2742	-11.3785	-3.8566	-13.3198	-5.9772	3.3379
3376.1584	3.8205	-15.2063	-11.2826	-22.4060	-20.3777	-11.9807	2.3690	-18.7572	-19.7575	2.2081	-13.1510	-21.5667	-3.1176	-25.6467	-0.4794	15.3018
3384.1588	3.7933	-19.5011	-10.4732	-49.8955	-18.5833	-11.7281	4.4494	-20.6121	-19.3602	24.3404	-9.2358	-27.5298	0.3131	-19.1450	-0.2308	20.8920
3392.1592	5.4188	-18.1418	-7.8861	-24.5422	-13.3839	-26.8298	5.1994	-20.0887	-15.2827	19.1770	-3.7694	-22.1935	-3.9983	-18.1998	-1.9591	25.8093
3400.1595	2.0421	-22.8692	-17.9444	-52.2465	-10.7455	-25.8608	8.1015	-14.5525	-25.6026	19.1719	-4.1963	-31.6837	-1.0700	-29.2193	-6.9963	27.5499
3408.1599	0.5440	-29.9299	-27.0038	-59.2720	-13.5144	-36.5217	10.9046	-12.4639	-38.0489	27.2912	-10.1398	-39.2641	-2.0796	-29.9702	-10.4849	32.6872
3416.1603	1.0917	-23.6916	-19.7835	-35.0601	-4.3748	-34.0654	9.1041	-15.7245	-31.2307	42.5335	-3.8037	-26.1976	-6.2720	-16.8202	-13.1543	33.4571
3424.1607	-0.8870	-20.1392	-15.0279	-46.7832	6.1884	-26.2064	7.2551	-18.5271	-24.0534	54.0353	5.1814	-22.2498	-3.6944	-11.9073	-15.4618	26.0274
3432.1610	0.0603	-23.0688	-15.5562	-41.7237	1.8621	-37.6691	8.4476	-16.8856	-37.1796	45.6176	5.7962	-24.5432	-3.4132	-13.1507	-13.4197	24.0827
3440.1614	-0.5127	-14.8908	-8.1718	-26.3932	5.5592	-26.1119	6.1226	-13.7308	-39.7256	45.9484	14.3769	-12.5956	-3.2686	-6.1266	-16.6274	18.1257
3448.1618	-2.7601	-15.4328	-7.6160	-32.6422	6.9211	-30.0577	5.3439	-11.4616	-40.4799	40.0179	15.7450	-14.6698	-0.5349	-0.9702	-17.5560	10.9753
3456.1622	-0.0015	-21.7612	-7.4598	-31.3059	-0.9564	-49.4108	9.2597	-5.8771	-51.7242	27.4799	12.6312	-20.4551	0.4569	-6.7703	-9.8970	14.7658
3464.1625	-0.3083	-12.7773	2.0333	-26.3232	8.7255	-28.0759	8.2595	-3.0575	-39.7051	37.5012	14.8350	-5.9593	-0.2433	-12.3365	-8.7879	13.9816
3472.1629	-0.8356	-12.9058	-3.5246	-26.6424	8.7815	-26.0703	8.6267	1.0800	-39.1442	33.7102	10.7692	-7.3118	0.2446	-11.8236	-6.1203	10.8436
3480.1633	2.8147	-18.2248	-8.8578	-26.7423	-4.5932	-39.2722	12.1985	9.7924	-52.4074	20.5626	12.0492	-15.7109	3.0109	-13.2636	-0.5037	14.9709
3488.1637	0.0511	-13.5093	-4.6282	-29.9600	-0.0614	-26.4544	10.3062	12.0770	-35.4058	23.7140	9.6848	-10.8880	3.5749	-11.2525	-4.3544	14.8767
3496.1640	1.0733	-17.3844	-14.3635	-29.4987	-3.6735	-33.8518	12.2969	14.0728	-42.3662	12.0306	5.6526	-18.6600	2.5917	-9.5475	-1.6044	19.4464
3504.1644	6.1576	-11.2926	-7.7082	-9.8487	-1.6912	-25.9074	12.3407	8.6090	-54.1677	4.7740	16.1948	-9.1393	-1.0418	-15.9877	2.1031	24.3936
3512.1648	-0.8322	9.6944	17.0293	12.7810	24.0410	7.3040	0.1330	-3.4756	-9.8650	27.8709	25.2375	21.8155	-3.2041	-1.8376	-10.4469	1.6006
3520.1652	-3.3844	8.2072	13.8916	4.4076	22.0283	-5.1097	-3.2967	2.2249	8.9806	38.5785	35.2332	16.9553	4.8677	14.5396	-14.3327	-19.5090
3528.1655	0.3164	-0.8352	2.6384	-2.1805	9.1511	-21.9472	1.3917	7.6910	-6.4806	24.3618	31.9661	3.6732	6.2849	-0.5567	-8.1522	-14.2290
3536.1659	-5.6287	0.3443	-2.9384	4.3865	11.3785	-10.1087	-1.2643	4.7678	8.2730	12.6808	4.9957	4.4415	-0.0195	-9.6476	-13.0502	-12.0204
3544.1663	-7.6293	-4.0960	-11.4705	-12.9477	-0.2255	-7.8899	-1.3028	10.0984	17.9064	7.8367	-5.9118	-6.8030	3.3202	-12.4575	-15.3757	-10.6153
3552.1667	-4.3470	-1.1738	2.9442	-8.4766	-1.1268	-8.0499	-0.2709	10.6325	13.6530	6.5168	3.3783	0.2456	4.4668	-15.1374	-11.5625	-6.5933
3560.1670	-6.3141	0.7128	6.3318	7.3377	6.2081	-15.1197	-0.4251	13.7879	15.4103	0.9775	-0.2689	6.3568	2.0290	-7.2543	-10.6749	-9.3933
3568.1674	-7.3442	-14.5837	-21.1297	-8.4833	-9.9481	-33.8379	5.9601	26.4545	8.4537	-16.1730	-26.7624	-17.4279	1.6252	-24.3092	-7.1546	1.3121
3576.1678	-5.6720	-13.6166	-12.7077	6.7509	-12.9153	-32.2397	7.8149	24.8593	-0.1419	-25.6964	-36.3011	-11.7638	-3.8921	-30.0986	-4.4759	16.0770
3584.1682	-4.3320	3.8836	17.7715	30.6244	6.0356	-12.0933	2.2186	14.0089	2.8846	-16.9909	-11.5095	14.8423	-5.1943	0.8824	-4.4787	11.1857
3592.1685	-4.9457	15.2661	24.3673	34.5101	18.1630	7.9774	-4.5930	7.4584	29.7891	-1.5712	4.0695	26.2320	-2.4848	18.1866	-6.4475	-5.5066
3600.1689	-8.5028	18.6955	19.5477	42.5680	16.8796	13.3084	-9.3104	11.1508	49.2778	3.6670	0.7934	28.4410	-0.6286	29.7527	-11.6292	-20.4025
3608.1693	-11.9441	8.8578	8.8397	22.0603	6.2054	2.9914	-3.8247	27.3532	26.7524	-11.5078	-16.6330	15.0361	2.9698	25.7905	-8.3023	-17.4437
3616.1697	-9.8050	8.2146	13.1657	19.3942	6.8285	7.0789	1.0465	33.5652	21.4937	-18.7955	-25.9370	17.6557	1.0670	10.5374	0.8974	-4.1337
3624.1701	-3.6139	15.7309	21.5250	33.2570	9.4296	14.3814	-0.3185	30.1040	35.8325	-8.6135	-6.1157	26.6079	1.4439	19.0009	4.0049	-0.9014
3632.1704	-2.4254	8.3608	14.6622	29.0661	3.2798	-2.3230	1.5126	28.8568	23.9121	-7.7246	-6.3826	17.8517	2.0637	14.9692	4.9091	-1.9941
3640.1708	-4.9063	9.3100	16.2781	45.5462	11.0538	-7.9718	-0.0618	23.2312	25.0066	-14.3869	-14.4611	22.8212	-3.2776	12.3570	3.2393	-5.0461
3648.1712	-7.4094	10.4602	5.4268	18.5623	12.9672	7.1005	-1.4008	23.9161	31.5375	-29.6178	-11.8978	11.9034	1.0567	18.3872	0.6981	-6.3519
3656.1716	-8.9725	1.6027	-4.0655	2.2022	3.4699	1.9352	1.5390	24.8884	17.0096	-40.2063	-30.0171	-0.6546	0.4974	5.7164	2.6957	-0.3858
3664.1719	-5.5670	1.8127	0.7502	38.8090	0.5465	-13.1208	1.9174	23.8062	12.7554	-30.5414	-30.2790	8.5367	-5.0324	11.4912	4.5050	2.1682
3672.1723	-4.2228	-2.7606	-13.0290	2.3410	-6.7177	-5.4950	5.1969	31.1467	9.9079	-33.9156	-25.2571	-7.7310	1.8416	10.8657	6.4590	8.5975
3680.1727	-7.1188	0.8351	-0.1439	1.7855	4.7013	3.8782	3.5017	20.2933	9.2135	-31.7692	-30.3822	1.0877	-2.3884	5.1325	3.8439	11.3032
3688.1731	-7.1381	11.5761	16.1625	50.3435	19.6841	-3.1859	-3.2221	9.5806	18.6074	-8.6240	-11.6028	24.9934	-7.5138	25.6898	-3.9611	-5.1883
3696.1734	-5.8871	4.4982	-1.8843	14.8161	5.4980	2.3442	-0.2187	19.0094	15.3929	-12.6339	-13.8323	6.6646	0.0519	13.3628	-0.4495	-5.4435
3704.1738	-4.4874	5.8920	3.0287	-0.4112	5.2662	20.1701	1.4675	15.9294	13.5587	-18.7232	-20.6739	6.8269	-0.7485	0.8504	5.1587	6.2803
3712.1742	-1.6881	2.4373	-4.4073	11.8869	3.0037	0.9708	3.4219	20.6910	6.6500	-9.4489	-9.5381	4.1575	-0.2002	10.0390	4.7517	4.7193
3720.1746	2.4796	-14.6434	-22.8060	10.1001	-18.4091	-33.8933	12.1089	32.5176	-13.8119	-22.8787	-24.4819	-15.8185	-1.0670	-13.2477	11.0225	19.4542
3728.1749	3.9056	-5.2214	-5.3351	16.9497	-11.1244	-11.3439	10.0552	22.3219	-8.3787	-26.3435	-21.7765	-2.7434	-5.1394	-16.7441	11.1264	30.1890
3736.1753	3.0809	8.3923	3.5161	7.3999	2.3907	22.0029	3.4263	15.2409	10.1964	-1.8929	1.2856	9.6161	-0.3202	5.3955	6.3375	16.5532
3744.1757	5.5497	3.6002	1.2699	21.3230	0.3329	1.6544	5.1997	15.2662	7.4511	3.9335	0.3783	8.9498	-2.2728	1.3857	10.2242	14.9554
3752.1761	4.7556	-3.2982	-9.5118	12.2111	-4.7947	-7.9583	8.3725	17.4781	-9.7892	-11.6116	-6.1501	-2.0243	-3.1438	-13.3140	8.3948	20.7435
3760.1764	2.3037	-2.5500	-9.9995	-6.1946	-4.2902	6.7066	8.7081	17.4686	-20.4821	-11.6142	-6.5934	-3.9026	-1.7814	-17.5146	3.5211	24.4092
3768.1768	1.6633	6.0622	11.4246	14.7606	13.5234	6.1153	5.6539	9.8961	-10.5637	5.6820	6.0094	15.0639	-4.6317	2.4943	1.8118	20.7964
3776.1772	-0.8518	0.5340	-10.4342	-27.0957	7.6808	17.1310	5.6097	13.6970	-12.0502	7.0041	4.4950	-4.3897	3.2317	9.8021	1.7749	12.5301
3784.1776	3.3698	-6.3443	-19.9738	-24.2759	-11.1383	16.8285	7.9851	9.1665	-31.0277	-3.5951	-11.5686	-13.5141	-0.5297	-9.2855	7.6279	23.0206
3792.1779	5.9917	6.8042	17.1874	37.8851	5.3169	3.6974	3.2552	-4.3548	-25.3193	1.6815	6.6978	19.1857	-9.4014	0.9091	4.1444	20.9022
3800.1783	0.8861	14.8953	20.4950	4.4665	16.6799	30.4250	-1.1779	-3.1181	-15.9699	12.5958	25.4068	20.9785	-0.2480	17.0201	-4.1601	5.8025
3808.1787	1.5806	13.8557	9.8545	-10.3821	11.5497	45.3492	-1.8895	-7.7595	-19.9686	20.1866	24.4380	14.6014	0.5471	11.2908	-5.8053	6.2365
3816.1791	0.6435	7.2125	-1.6229	-0.9704	6.8277	23.7216	-3.5489	-13.4396	-19.7931	21.4610	21.9129	6.4757	-1.3114	7.5690	-11.6594	-2.2490
3824.1794	-1.7332	-4.9526	-16.8003	-25.4531	-4.4636	9.1119	-1.2867	-12.2665	-31.9878	4.1622	5.7436	-13.7695	1.0860	-3.0054	-9.6864	-3.9420
3832.1798	1.7126	-5.4010	-6.9411	-10.5667	-5.8497	1.4447	0.9050	-13.9939	-31.9290	-6.8996	-1.8246	-9.1947	-2.9268	-10.4101	-0.5195	5.9526
3840.1802	2.4229	0.9137	-0.1386	-12.0951	2.2753	11.6173	-1.0372	-13.5332	-13.4001	8.6478	10.2324	-1.3200	-0.2593	-2.4137	-0.2102	0.8420
3848.1806	3.4965	5.9454	1.4851	-22.5204	11.6456	27.2272	-1.6924	-17.8335	-25.7086	21.9750	27.8413	3.5260	1.9654	3.6899	-0.6883	-3.8155
3856.1809	4.2314	7.0435	2.5781	-8.3399	9.8530	22.1292	-3.6367	-21.8500	-30.4253	15.4053	31.0770	5.7301	0.6515	3.7789	-1.8722	-9.7064
3864.1813	1.6398	3.1632	1.9153	-7.4876	-2.2720	14.5884	-6.6204	-22.4131	-11.6159	5.0125	13.7144	-0.2748	1.3872	-3.0145	-3.3596	-16.1409
3872.1817	2.2102	10.2010	18.5585	8.9926	9.8543	14.7909	-7.7423	-24.8181	-14.5895	10.4436	26.7202	15.3563	0.1217	0.4926	-3.1845	-20.7891
3880.1821	1.6157	17.0590	16.9711	0.7412	21.2634	23.9655	-9.6245	-18.5771	-6.1048	21.2982	50.5247	19.5986	6.5959	15.2694	-5.9872	-34.7745
3888.1824	0.2891	2.6443	-8.3670	-38.3555	0.5755	18.6701	-6.0432	-9.6858	-0.4681	7.3085	25.3116	-8.5702	11.7715	-1.7707	-0.8769	-31.3328
3896.1828	2.5134	-9.5961	-15.0226	-27.5935	-13.7722	-3.7700	0.8524	-7.2014	-27.4101	-12.7964	-1.5428	-17.5791	4.5760	-27.1675	6.6595	-12.9396
3904.1832	3.1121	-3.2675	-3.8262	1.0453	-4.2905	-9.7114	0.1641	-5.8857	-22.3227	-8.8969	8.1740	-3.9410	1.0113	-13.7923	3.8092	-10.2174
3912.1836	2.8130	-3.0661	-0.1040	-7.1832	1.2656	-16.2070	1.2026	0.3978	-4.3221	-6.5668	13.5510	-4.6217	4.4480	-6.4369	5.8495	-9.7761
3920.1839	2.2917	-8.2538	-8.2015	-21.2393	-5.2606	-13.9510	2.9966	0.2646	-9.0135	-15.0108	-0.3614	-13.9443	3.9865	-16.9998	8.7137	-4.1845
3928.1843	0.3068	5.2425	6.5017	-1.2875	-0.3943	11.2326	-6.5376	-14.3913	8.3350	-5.6154	8.6521	2.3800	1.7937	-1.2806	-2.1717	-14.2284
3936.1847	2.7696	18.3877	30.4728	21.1162	10.1974	17.6531	-11.9306	-17.8216	29.3997	14.2703	35.7296	24.0210	4.4718	16.5162	-3.7375	-27.3589
3944.1851	5.4452	12.2902	15.8149	13.3504	6.8295	9.4585	-7.8934	-11.9742	29.2606	8.5286	29.6691	13.0744	5.0451	14.5550	5.5146	-22.4361
3952.1854	1.2214	4.9175	-2.7251	4.4753	2.6573	0.4293	-7.9846	-12.4601	28.0224	-12.1033	12.5630	-2.5588	3.5262	10.8163	2.1250	-23.6164
3960.1858	-0.0617	7.5511	6.2360	8.1717	3.9155	2.3570	-10.0059	-12.3751	37.7029	-4.2559	12.5395	4.3044	4.5291	9.1829	0.7220	-30.2943
3968.1862	2.5606	11.3026	10.7432	8.0844	1.6487	18.4830	-10.9568	-15.1679	47.7384	10.6669	12.1826	9.3619	4.4119	13.4936	4.5856	-26.1636
3976.1866	1.2842	-0.4898	-4.4205	-8.9113	-11.1784	0.4327	-6.7815	-9.6245	23.3421	-4.0180	4.0756	-9.3122	6.1087	7.5498	2.0960	-20.3179
3984.1869	0.5577	-12.7345	-15.3027	-17.4033	-18.7492	-21.4250	1.1962	1.3610	4.4313	-19.0136	-14.3667	-22.6556	3.6221	-8.8803	4.5215	-2.3742
3992.1873	1.5171	-5.1631	-6.2398	-3.1246	-9.8259	-7.1193	1.1455	1.1443	22.5046	-19.5756	-18.3743	-11.0629	-1.1672	-7.4453	7.2040	9.8023
4000.1877	2.4004	-1.9712	-0.2530	2.9504	-8.2932	-7.4584	-0.1882	0.6257	21.5569	-19.8899	-8.7206	-6.4664	0.2384	-1.9597	6.9281	4.7994
4008.1881	1.2504	-6.6053	-10.2988	-0.5907	-8.6357	-14.0328	0.4306	-1.4765	20.1327	-18.3424	-15.1745	-13.4608	-1.4014	-2.9732	5.3706	5.7323
4016.1884	-1.6829	-7.5534	-21.5941	-14.9742	-8.5757	-4.1949	-0.3176	-0.2598	29.0884	-19.6318	-22.6105	-20.4612	-0.7234	-4.6846	1.5976	5.8689
4024.1888	-0.3408	-12.1953	-22.4403	-18.9064	-16.6644	-7.9956	3.3278	3.9049	16.2142	-27.1075	-32.8736	-24.9787	-1.4023	-10.0249	7.0597	15.7200
4032.1892	-1.4110	-9.4038	-14.7519	0.9257	-12.5236	-9.1846	0.9274	-5.3255	15.1329	-29.0546	-36.9740	-17.6323	-7.1653	-3.8325	3.6078	18.3609
4040.1896	-5.5702	0.0071	-8.3567	4.7203	-4.6383	5.3627	-6.9309	-13.2261	18.0281	-19.2819	-17.8958	-7.9134	-4.2785	6.7780	-10.6494	-3.1072
4048.1899	-5.6222	1.4894	-3.3059	8.9864	0.6756	5.3015	-6.6829	-14.6533	16.0973	-18.3573	-17.6975	-3.1590	-5.6609	6.6863	-8.7578	-3.0369
4056.1903	-4.4795	-3.4651	-6.3789	2.2272	-3.1907	-1.5924	-4.3924	-14.8910	24.8559	-30.8499	-30.9739	-11.6565	-6.9474	5.5905	-1.3693	7.5187
4064.1907	0.5054	-3.9402	-6.6401	-2.0594	-14.3054	3.1380	-3.4113	-14.7768	16.2972	-27.2746	-22.6489	-14.4139	-4.1311	4.8623	2.5430	10.9195
4072.1911	1.2762	5.2778	8.0895	29.3839	-1.3308	6.5497	-5.2463	-18.4017	17.1477	-18.0343	-12.4052	5.4431	-9.2591	8.6520	-0.1574	10.0007
4080.1914	-5.7506	3.0277	0.3763	0.7437	1.5202	10.4898	-7.2531	-13.4910	33.7923	-21.2623	-19.9507	-4.0524	-3.8095	11.6490	-5.8242	-0.5239
4088.1918	-4.1285	-4.6736	-12.4178	-14.9539	-8.2754	6.4746	-3.3193	-9.1196	27.2780	-27.7732	-30.7460	-17.4654	-2.8784	4.6624	0.0535	8.0487
4096.1922	1.0115	2.2517	2.5986	38.1517	-1.7627	-4.3582	-3.2490	-15.3336	19.4259	-35.0371	-22.6923	1.3285	-12.6902	4.4415	1.7626	17.2522
4104.1926	0.6539	6.6365	9.1239	9.1801	-7.5846	21.5303	-6.4758	-18.4815	16.9866	-23.9625	-10.5629	0.2893	-4.8777	14.7083	-1.4692	11.6834
4112.1929	-0.6067	10.7086	11.4393	-3.8724	-1.5947	35.9114	-7.9948	-17.6683	21.8701	-5.3422	-1.3945	4.2677	-1.0818	24.1173	-3.5125	5.2379
4120.1933	-0.6398	9.1451	10.7840	37.4353	9.5672	-4.6443	-7.0291	-11.5597	32.0505	-10.9330	5.3978	11.2714	-5.7018	18.5389	-6.1178	-3.5716
4128.1937	0.8269	-1.5129	-2.4508	-2.4723	-0.2034	-2.2062	-0.8836	-9.0972	16.0291	-21.6772	-8.6218	-8.0972	-3.1099	0.0957	2.8851	9.9928
4136.1941	0.2404	4.4049	2.4765	-15.9932	7.0020	27.3204	-0.4170	-12.4827	2.1408	-21.3147	-10.1151	-2.2631	-4.0994	2.8867	5.9617	17.3400
4144.1945	0.7679	4.2948	3.7251	11.5554	7.9961	2.9997	-1.3347	-7.5072	8.6573	-14.7726	0.1628	2.7417	-4.4063	12.0771	1.7982	8.2673
4152.1948	3.2753	0.4415	0.6092	-0.3599	0.1500	4.7388	0.5266	-8.4500	10.6208	-10.3689	-3.9432	-3.5257	-3.6760	1.9832	4.8803	15.9711
4160.1952	3.6260	9.4472	7.2150	2.9079	4.4623	25.7956	-3.0544	-12.7868	10.6281	-5.1538	9.8242	6.2677	-2.7740	2.1093	-0.1633	10.3891
4168.1956	4.1055	-4.5251	-12.8745	-9.5169	-4.9955	-5.5315	1.7674	-4.4761	1.6513	2.3820	9.4683	-12.1730	0.0565	-4.7550	-2.4054	10.4706
4176.1960	4.0827	-13.7028	-19.3831	-33.8849	-8.7122	-6.2114	8.6106	-2.3097	-16.7610	-7.6005	-11.0579	-23.4337	-2.2821	-24.8044	5.0321	29.4770
4184.1963	5.7280	-1.7535	0.0797	-15.6287	-1.7541	14.1557	5.1353	-9.5290	-20.4032	-5.1612	0.2459	-5.2457	-4.4185	-12.1639	5.3146	29.7180
4192.1967	5.2099	-7.2905	-6.7842	-8.6110	1.1739	-10.7675	5.3287	-10.1511	-15.6219	14.4570	7.2954	-8.9502	-4.6282	-4.6231	-0.3271	23.8385
4200.1971	1.5127	-10.0313	-7.2518	-29.7053	3.3529	-6.7548	7.1899	-6.9121	-27.9067	10.2347	1.3004	-11.9596	-2.8454	-22.1234	-2.6264	22.6155
4208.1975	4.5622	-1.6751	8.5509	-26.3532	4.6187	14.3570	6.4150	-8.7292	-36.7313	20.2845	12.2956	1.0848	-1.7401	-12.7848	1.2390	25.4223
4216.1978	7.2087	8.0104	17.3892	13.8757	19.6353	9.6158	1.4237	-17.1149	-15.9374	45.0428	32.3000	19.6050	-5.7287	8.1661	-1.2111	14.2039
4224.1982	6.7693	14.6968	23.2188	22.4385	23.4137	15.7535	-4.1136	-23.5174	-10.1607	42.8676	45.4744	26.5812	-3.6520	11.2504	-4.6666	-3.4172
4232.1986	6.3876	3.4735	15.4624	-8.6409	11.8432	5.4358	-0.2987	-21.1235	-28.0127	38.5413	36.9119	9.9519	0.7014	1.4846	-1.0504	-1.0625
4240.1990	4.5599	6.1733	19.8925	4.0527	20.8726	-0.4522	-1.5372	-20.1065	-23.2681	41.6297	40.2619	18.3084	-0.4054	-4.7906	-3.5002	-10.9143
4248.1993	5.8102	16.2514	29.1189	18.2514	26.8514	15.1180	-5.4686	-23.0126	-15.5531	46.1005	53.1244	31.0533	0.0152	5.8370	-3.8398	-18.5572
4256.1997	3.9870	3.4442	12.4025	-8.2968	16.6810	-2.3610	-2.2409	-19.0806	-23.1409	42.1794	42.3461	10.0111	3.4080	5.7112	-3.5126	-16.5941
4264.2001	2.6425	0.1372	7.3544	-15.1489	9.1617	-7.4027	-3.1275	-17.7537	-24.8942	33.7899	39.9593	3.2173	5.9077	-2.9320	-6.5081	-23.3365
4272.2005	4.0300	-1.5290	5.3285	-20.1574	8.1016	-1.2349	-0.8559	-18.8426	-28.1473	39.2108	32.1696	1.9237	3.7447	-5.8785	-2.2093	-13.2575
4280.2008	1.0656	-10.5568	-4.0677	-25.5162	10.8947	-22.4092	4.5024	-10.1434	-43.6725	28.0141	18.4470	-5.9972	2.0626	-17.7010	0.1667	-10.3205
4288.2012	2.9813	-8.0095	-0.9076	-10.2436	10.0447	-24.8769	5.2212	-8.0049	-54.7525	13.9831	23.5660	-2.0209	0.5391	-17.1470	1.3374	-7.5181
4296.2016	1.7842	-15.0597	-12.2202	-19.2164	3.4100	-29.4322	7.0558	-7.2167	-48.5694	20.5035	7.5073	-12.6824	-1.2722	-14.0217	0.5150	2.7957
4304.2020	-1.9330	-20.7963	-18.1690	-34.6692	-5.1501	-33.7990	8.2492	1.7889	-47.9999	16.1639	-5.6866	-21.0806	1.9847	-21.7617	-1.5891	0.1461
4312.2023	0.6687	-15.6760	-12.2065	-36.3343	-2.5551	-14.7315	10.0345	-0.2130	-57.1545	8.6085	-3.4097	-16.6515	-0.4298	-18.9148	1.8577	16.7905
4320.2027	-1.4385	-17.5074	-16.2039	-32.6490	-1.0435	-20.7426	10.0039	0.0776	-53.9421	2.0254	-10.6502	-18.6741	-2.5516	-24.3350	-0.7354	16.7540
4328.2031	3.7825	-11.8216	-3.2395	-5.6804	-7.8113	-26.9045	8.8330	6.3045	-49.6302	4.5055	5.6809	-6.8011	0.0313	-20.9321	2.6953	9.6227
4336.2035	7.5428	-8.7596	-7.9301	-6.1404	-3.2893	-11.2422	11.0554	4.1838	-47.6741	15.6582	8.8029	-6.0241	-3.1673	-5.6409	6.7185	27.8655
4344.2038	-2.2857	-13.1144	-24.8087	-26.0322	-7.2496	-3.7172	7.4529	6.4107	-40.4940	5.6889	-15.1731	-17.4619	-1.7745	-15.8914	-3.6510	13.6293
4352.2042	-3.5680	-4.2689	-1.7675	0.7434	-3.5539	-1.9234	3.6397	8.4480	-29.5471	10.2058	-11.5054	2.6392	-2.1287	-12.1936	-5.4605	3.3145
4360.2046	-2.0578	1.2020	6.4390	12.8024	12.2588	-5.7327	5.4543	13.8441	-19.8392	19.8918	2.1246	13.3229	-2.8451	3.4906	-2.3254	7.5335
4368.2050	3.9570	2.8830	0.2370	6.1998	-2.6188	3.8374	6.2196	22.0650	-21.0535	9.1426	14.6858	7.7482	3.6263	-1.9304	3.6703	5.9324
4376.2053	8.3918	13.7770	10.7778	30.8876	-2.8755	30.0338	1.2401	8.9076	-0.3083	26.3274	17.1849	22.7597	-1.8380	6.2944	4.0960	12.6407
4384.2057	-3.0588	20.9595	11.6727	34.6970	10.9993	41.8665	-9.7896	1.4095	35.7397	48.2575	11.4156	31.4553	-1.1531	26.5517	-12.8244	-17.0411
4392.2061	0.7642	20.3145	21.3833	24.7077	-0.8694	30.8418	-9.0528	11.7755	34.8145	43.7657	31.0022	28.9608	9.2830	29.5868	-8.4681	-26.0809
4400.2065	8.1578	12.2609	18.2601	25.9506	-4.1661	7.1832	-0.5248	15.1019	21.3491	24.0746	31.9255	19.9462	6.3218	11.7969	3.5120	-3.1437
4408.2068	0.5750	1.1357	-10.7446	12.0095	-6.5937	-2.6239	0.9177	19.9464	11.2702	6.9290	2.6242	1.7155	4.0901	-0.9898	0.2548	-10.2256
4416.2072	-1.4903	-3.3454	-13.1294	8.0217	-6.9638	0.0905	3.0999	18.6657	9.7313	17.3589	-20.4287	0.0054	-0.3925	2.9757	4.1297	0.5978
4424.2076	-5.1783	0.6531	-0.4618	17.8954	1.4396	4.3455	-1.0237	8.7623	28.7297	17.4529	-31.4382	9.4507	-4.7722	-1.7004	1.1261	-2.7420
4432.2080	-3.7908	9.6548	12.1747	26.4808	2.1929	12.0338	-5.4009	9.0957	20.8098	19.6765	-5.1669	20.7815	1.2416	8.8140	-1.6131	-21.8952
4440.2083	-0.8575	15.0619	24.2435	40.9228	13.9522	11.0663	-4.2721	8.5050	8.8169	41.5114	14.0337	34.3959	0.5261	30.8061	1.0944	-20.6190
4448.2087	-8.2640	13.6611	16.9748	39.9967	11.4831	9.3019	-8.7280	11.8513	25.5216	24.9752	-5.9313	30.1683	1.7486	24.8518	-3.0147	-39.6605
4456.2091	-4.6134	-1.4621	-3.0402	14.9735	-9.5433	-8.1906	-0.6462	24.0883	12.1944	5.4884	-21.9934	4.8293	4.9213	13.5515	7.9429	-23.3910
4464.2095	-3.5532	-16.6667	-16.3276	3.1200	-16.6004	-25.1523	7.4725	21.0995	-6.7231	-0.8190	-52.2949	-11.8870	-2.7583	0.1916	15.7751	4.7656
4472.2098	-8.7118	1.5783	7.7270	35.8050	-6.3342	4.4544	-4.3538	8.3154	15.8362	-6.3791	-53.5502	14.8294	-6.4033	4.7806	7.6290	-16.5976
4480.2102	-5.3230	15.8362	24.5737	47.4053	14.2433	12.4658	-6.8899	9.3868	24.2148	13.5802	-9.7093	33.8297	-1.5939	30.6558	5.7853	-26.8492
4488.2106	-8.8092	-7.0742	-11.4839	6.4188	-4.1809	-17.4762	0.7847	23.4579	-2.2686	0.5827	-31.7502	-1.6225	3.3911	13.1662	6.6768	-26.3514
4496.2110	-7.1317	-14.1009	-14.9669	18.3580	-27.1181	-22.9450	3.9539	29.6465	-13.2745	-17.2279	-60.7252	-7.0390	-0.5036	-5.9526	12.8870	-14.2097
4504.2113	0.7252	-3.3051	6.3049	40.4912	-9.5464	-19.9193	5.5166	24.3461	-3.2861	-0.0411	-30.4769	12.2038	-3.6945	5.2041	17.2301	1.0922
4512.2117	-3.6389	-12.2990	-13.6609	-5.9624	-21.9544	-13.8502	4.2257	21.3028	-2.8269	-21.0846	-43.5221	-13.5320	2.3303	-8.2824	13.3700	-4.4324
4520.2121	-6.0805	-12.9409	-9.2033	4.8905	-26.2700	-13.7641	2.0092	13.6179	4.2832	-36.1426	-63.0205	-13.1969	-3.2950	-14.5690	10.7448	1.7799
4528.2125	-4.8819	3.6913	19.7988	51.1454	7.6458	-24.9586	-3.2184	3.2304	25.9280	-24.0489	-23.5016	16.9963	-7.7481	6.0259	2.8760	-7.3690
4536.2128	-5.5044	4.8554	13.7058	20.2622	4.7912	-12.8253	-5.8459	2.2008	29.5042	-37.6384	-11.1816	5.8313	0.6590	11.2661	1.9935	-17.5659
4544.2132	-5.1594	0.5981	3.8977	0.2432	-5.4741	2.8665	-4.2798	-1.4013	19.0862	-44.1012	-27.9849	-5.0404	-0.3771	6.3749	5.9397	-6.0059
4552.2136	-8.4055	2.6031	0.8061	5.3578	-0.3267	1.8188	-8.3234	-7.3277	17.8035	-41.4290	-20.8428	-3.6885	-0.6084	10.5175	-3.7384	-18.7563
4560.2140	-10.1543	-8.6025	-15.5949	-11.3520	-9.1918	-18.5985	-7.2288	-5.6593	24.4177	-43.5716	-30.1720	-22.0435	1.8501	5.2287	-5.7262	-21.9456
4568.2143	-5.6502	-12.6344	-15.1023	8.9835	-8.7153	-33.6722	-3.2113	-9.2561	24.4821	-50.8253	-42.3550	-20.3358	-5.9959	-14.8779	3.7106	-8.2055
4576.2147	-2.6430	4.9151	5.2011	14.9036	7.6738	1.5402	-8.5615	-24.2582	19.5147	-56.0605	-14.5847	-1.2640	-6.1288	-6.2722	4.2312	-12.4599
4584.2151	-7.1008	8.7387	6.9659	-21.6259	12.9432	29.0678	-14.3918	-35.6310	29.1243	-31.9583	-7.5925	-4.1405	0.0688	17.5776	-2.2297	-23.3732
4592.2155	-9.2277	7.5435	3.5779	8.8236	7.0192	14.9894	-18.7128	-36.4221	41.5244	-19.8222	-18.1290	0.6909	-2.7760	21.3725	-6.3898	-39.9799
4600.2158	-4.4586	12.3466	5.1233	33.5068	8.2361	6.6294	-18.9549	-32.9035	37.7498	-24.2927	3.1976	7.2621	-2.1937	28.1543	-5.2411	-44.7087
4608.2162	-4.2858	2.6239	-4.3358	-14.3653	4.1922	8.2212	-14.4410	-34.7429	25.8785	-18.2193	1.2034	-10.6839	2.3962	15.3633	-3.2724	-35.1890
4616.2166	-4.7985	0.5299	-2.2044	-14.2353	-3.3408	12.6740	-16.0353	-44.4912	20.7113	-24.7307	-12.3415	-12.0408	-0.8832	-2.2935	-4.2618	-33.7207
4624.2170	-2.2678	-0.0330	-2.4420	-4.3964	-3.4279	-2.6977	-15.6485	-41.9733	25.1030	-18.8182	1.9915	-12.4419	0.6345	8.4988	-5.6352	-34.8474
4632.2173	-1.3586	-9.6371	-7.4451	-27.5823	-10.1416	-16.9073	-9.9294	-33.2914	19.4492	-10.2796	-0.9869	-23.2487	4.2807	-5.3133	-3.2059	-27.1420
4640.2177	0.2807	6.5300	16.9261	-4.6264	2.8834	14.1344	-13.9956	-44.9603	20.5588	-10.5709	9.0181	1.4592	-1.3311	-5.7210	-4.4779	-21.8635
4648.2181	-1.1137	12.4557	14.8573	-4.8377	15.7411	15.2431	-18.6641	-48.2318	35.2356	8.4617	34.9862	4.7414	2.7683	19.3642	-13.3208	-37.5399
4656.2185	-1.3753	-8.9683	-11.1344	-35.2478	-3.2388	-21.5071	-10.7420	-35.2846	13.7036	-1.8700	20.3847	-24.8363	7.5872	-4.2758	-10.0591	-35.8978
4664.2189	2.3983	-7.1158	1.7569	-18.2402	0.9553	-19.6792	-5.8672	-37.1806	-7.5243	-12.8887	13.9845	-14.7970	0.0772	-13.2348	-1.3794	-14.5937
4672.2192	1.9043	-1.7016	7.1007	-11.5198	11.6103	-14.5912	-8.6216	-40.5137	5.8602	10.1446	24.3788	-5.7682	0.2965	5.3536	-3.5215	-21.1514
4680.2196	0.8027	-5.8411	-0.3397	-21.9433	7.4819	-12.9328	-8.4299	-42.8136	-1.6144	6.4487	13.7482	-12.0548	0.3411	-5.5518	-1.1751	-25.3334
4688.2200	-2.4824	0.7219	-3.5250	-7.3221	-5.7713	19.4890	-0.6523	-5.8490	6.0728	-16.6914	-17.9314	-5.7247	-5.3404	-6.8098	-7.8264	21.8211
4696.2204	-2.6968	15.2126	18.3851	11.4527	22.9297	24.5431	-6.3035	-14.0884	36.4644	-2.4242	7.8259	16.5388	-5.2730	14.2667	-7.8876	7.1928
4704.2207	-3.0432	8.1371	3.0745	2.3953	17.5298	7.0612	-4.4246	-6.4542	28.9254	-19.4687	6.8230	2.4978	-1.2858	16.1640	-4.0401	-1.1722
4712.2211	-1.3422	1.5570	-1.0660	11.8120	6.0419	-5.3761	-2.6209	-10.0226	16.8239	-32.6260	-7.4332	-3.6611	-5.6414	1.6101	-1.6689	6.4356
4720.2215	-4.8542	5.7801	10.1464	17.0642	13.6306	-3.3271	-5.3603	-10.3892	29.9373	-31.1718	-9.6515	5.4873	-5.6711	0.3233	-4.3157	-1.9462
4728.2219	-3.1911	7.2702	5.9396	1.5755	15.4459	2.6713	-5.1914	-5.4972	36.9966	-22.5944	3.2900	2.2774	0.4056	12.5416	-0.5582	-7.5443
4736.2222	-2.5854	-7.6034	-17.4045	-16.4076	-4.5750	-16.3087	-1.6995	-2.4126	35.5381	-32.2030	-14.1157	-22.6796	1.2352	-2.1426	-0.7535	0.6331
4744.2226	-1.9865	-19.6684	-22.5850	-14.7384	-28.3841	-36.9237	4.9025	9.3821	10.7469	-66.4968	-39.9974	-35.6908	-1.0224	-30.2474	2.5266	17.8784
4752.2230	6.5012	-12.2760	-10.2291	4.1076	-24.8306	-28.1391	9.0719	10.6413	-5.4204	-64.0350	-19.8074	-23.2078	-4.0367	-23.1393	9.2934	38.8793
4760.2234	2.6517	-5.9647	-12.8494	-0.4362	-11.0364	-13.0518	6.4241	12.2021	13.7354	-47.1282	-13.9348	-17.6873	-3.2746	-9.4721	2.2657	33.9581
4768.2237	-4.3990	-5.3999	-9.2319	-7.6584	-6.4628	-6.0265	4.7570	15.5985	27.1760	-49.6006	-34.3913	-15.5582	-3.7647	-5.7955	0.4154	30.3755
4776.2241	-0.7637	-8.5189	-6.9379	-3.1127	-1.7893	-20.7565	8.1402	12.3621	19.8981	-43.4566	-27.6312	-15.7869	-6.0905	-4.0340	4.9287	39.4285
4784.2245	2.3360	-9.3154	-10.2442	3.1975	-5.5969	-26.8356	9.0176	11.7498	3.8486	-52.2571	-17.7899	-17.2202	-5.8025	-14.9170	5.4954	36.6613
4792.2249	2.4050	-0.8166	-1.2156	8.3145	-3.7311	-3.2344	3.4174	-0.7357	14.9521	-55.2529	-17.4603	-9.3159	-7.5583	-10.7941	4.4750	33.8293
4800.2252	-3.0168	-8.7871	-14.0735	-13.5267	-2.6080	-14.9654	2.5927	-0.2984	28.1659	-37.4353	-24.9317	-21.5453	-4.6096	-4.9237	-2.3633	25.2107
4808.2256	-2.5200	-17.0444	-20.2997	-4.8279	-14.4481	-34.0703	5.5890	4.0744	7.0640	-44.7999	-36.6530	-27.1870	-6.3074	-18.4585	-0.3010	24.9403
4816.2260	3.0163	-4.1987	-2.5618	18.2007	-6.6758	-10.8202	-0.2099	-18.1089	13.1154	-43.5215	-22.7039	-10.3499	-11.5906	-13.1035	3.3135	25.9086
4824.2264	0.7710	-3.4805	-1.1631	-4.1410	-1.8455	-7.4655	-5.3756	-27.5226	23.0415	-25.1894	-8.7624	-13.3887	-4.8132	-0.4233	-0.4216	5.1035
4832.2267	1.4957	-0.0445	14.3935	22.3592	0.9708	-16.4679	-7.9364	-33.2738	18.0489	-21.9905	-6.2392	-0.5842	-7.3064	9.5472	2.3970	-3.7765
4840.2271	-0.1934	17.2015	30.0493	48.6151	22.3216	5.8288	-15.7469	-41.6333	43.7251	-15.0121	8.3820	22.8139	-9.6776	26.0747	-1.0721	-18.8129
4848.2275	-2.0293	19.0686	26.2373	24.2172	20.5703	18.4631	-18.7232	-37.7820	50.4633	-8.4682	17.6775	19.3528	-0.7439	25.7582	-2.0152	-38.6110
4856.2279	3.1094	14.0335	26.9541	33.5900	14.0255	0.2233	-15.4295	-36.7882	44.5663	-6.2647	19.1847	17.1741	-1.4960	21.7338	5.8782	-33.5711
4864.2282	1.5108	0.5276	0.4500	-0.6103	4.8481	-13.3642	-8.6326	-21.2836	33.0263	-13.2981	8.9138	-6.8047	3.4097	12.0838	7.5732	-28.1214
4872.2286	2.6680	-14.1614	-19.9944	-40.5125	-20.4473	-11.4123	-0.3865	-10.9304	-4.7915	-30.1863	-11.1714	-31.8609	6.5165	-13.3744	11.8024	-9.2641
4880.2290	5.6247	-7.2576	-5.8187	5.3446	-11.8821	-16.6841	-0.0663	-13.8590	-1.1491	-17.3143	-5.7845	-11.6240	-2.9984	-13.8745	7.9146	3.2621
4888.2294	3.3419	1.0798	-0.8196	23.0706	6.3629	-12.7011	-2.0849	-10.4398	5.1602	9.7801	10.4127	4.6562	-3.7332	3.6322	1.0782	-6.8142
4896.2297	4.3896	1.8397	0.7066	7.8805	7.0002	5.3889	-1.7253	-18.6450	-16.1932	21.8561	12.0595	5.5116	-3.8172	4.9847	3.4884	-3.9053
4904.2301	2.1795	-5.9051	-12.4969	-6.0477	1.6092	-4.7234	0.4599	-13.5190	-19.4770	24.5515	4.9409	-5.9333	-2.4517	-3.7805	-0.6578	-3.4402
4912.2305	1.6165	-12.7084	-17.3993	-16.9940	-5.4363	-15.1886	3.8148	-8.2074	-32.9618	19.2149	-1.0082	-14.8120	-1.1589	-6.7055	-0.2305	2.1897
4920.2309	1.9309	4.9903	16.1728	10.9354	16.6900	6.3590	-2.7116	-24.8406	-21.9428	35.9574	17.9844	15.9340	-5.9394	8.2434	-3.8415	-1.5430
4928.2312	-1.4203	14.1008	17.5095	16.0564	27.2315	15.4280	-8.6187	-21.0587	-5.2546	58.0049	40.2744	26.5627	-0.4025	22.2609	-14.6123	-26.5030
4936.2316	0.9918	1.6214	0.1493	3.5192	7.5518	2.1526	-2.4648	-13.3967	-39.2442	44.8960	27.9836	8.4643	0.6286	13.8836	-8.8029	-17.0646
4944.2320	0.3317	-4.3279	4.2813	7.4390	6.9130	-14.4121	1.9252	-9.8247	-45.5969	36.4963	13.2828	7.3252	-3.2104	0.8999	-5.6963	-5.1755
4952.2324	0.5687	-8.3171	-3.4991	-9.2275	4.5057	-21.0614	4.2117	-0.7028	-37.7659	41.9350	17.7311	-0.4892	1.8028	-4.4281	-5.4982	-7.0571
4960.2327	3.1363	-3.9882	-0.5860	-10.0687	3.8605	-2.8208	4.1350	-5.4139	-48.4636	37.7153	20.5682	3.0326	0.4963	-5.9810	-2.4397	-0.7329
4968.2331	-1.7762	-0.3858	2.4828	-7.1814	9.9342	-0.1067	0.8652	-3.9959	-45.1393	33.6110	21.0262	8.4137	1.5642	-8.4036	-9.2290	-14.6476
4976.2335	-2.0635	-13.5140	-14.1376	-23.6620	-0.8975	-26.5417	4.7355	1.5393	-54.5079	23.5562	14.4373	-11.3885	4.3272	-17.8958	-8.7368	-14.2922
4984.2339	-2.9420	-7.0534	2.1720	-5.6837	11.4667	-17.5661	3.4332	-7.4050	-41.6565	25.1500	5.7149	3.0958	-3.4001	-17.6268	-8.2080	-3.1475
4992.2342	-5.9878	10.1221	17.7185	9.5372	28.4903	9.9833	-5.0637	-11.8123	-14.3137	46.8684	24.7909	25.5776	-1.8576	2.0683	-17.2925	-21.3135
5000.2346	-2.8246	-0.0362	-7.6703	-11.9288	5.1032	-1.3056	-1.0592	1.9653	-40.3404	38.3487	34.3777	2.1836	6.6154	5.5808	-18.2858	-22.0648
5008.2350	-1.5815	-6.4571	-13.2110	-7.7170	-10.2479	-5.7119	5.5101	15.4506	-55.1856	19.2752	10.9033	-4.0999	3.2165	-6.8790	-12.5614	-0.1437
5016.2354	1.8612	8.0834	1.9708	19.6242	1.9709	19.1937	1.5291	9.6050	-24.1229	41.5558	19.2991	18.2690	-1.1214	5.7146	-9.8768	3.1363
5024.2357	0.4343	8.0622	-4.1067	8.1677	2.6821	20.7498	-1.8394	6.6519	-0.8968	51.8413	23.9066	12.5164	2.3419	15.6431	-14.1860	-4.8865
5032.2361	-5.5642	-5.5617	-9.5887	-10.3828	-8.0869	1.5801	2.4677	12.4438	-12.2391	20.8537	-12.6005	-3.4830	0.6295	-8.0192	-12.4089	3.2289
5040.2365	2.2612	-0.3242	2.4625	13.8010	-1.5433	-0.1805	6.2260	10.1635	-35.4822	17.0003	5.3471	9.5889	-3.5488	-13.3536	-3.6903	14.2288
5048.2369	3.4861	12.9023	11.4250	26.4373	15.8732	13.3888	0.1339	4.6715	-11.7560	37.8843	34.1767	24.7405	-0.7760	13.4756	-6.0935	-1.9255
5056.2372	-7.9544	10.1686	7.9088	9.5099	18.1796	19.9500	-6.6279	-1.1549	23.5880	30.2701	-3.7154	18.2184	-0.9172	19.0981	-8.3306	-19.0517
5064.2376	-6.9227	6.2632	4.8328	10.5922	10.2157	13.2097	-5.4150	0.1958	15.4900	21.9622	-9.8804	14.2008	-1.0213	6.4493	-5.6797	-19.8431
5072.2380	-1.1305	10.0032	9.1337	24.3256	9.9658	5.5968	-4.1820	6.1883	12.0702	28.3740	16.6307	20.2141	2.1925	9.1641	-4.6550	-22.0887
5080.2384	-1.8148	8.2407	9.5483	21.6111	10.3185	4.1816	-1.5154	12.8419	10.9489	22.1290	5.8138	19.5159	1.8754	10.6596	1.6939	-17.2052
5088.2387	-1.9058	1.3940	5.9036	3.0352	2.3664	-1.4407	3.4320	21.9313	3.0078	11.4660	-5.0548	9.6186	3.9061	1.1253	6.0222	-6.1532
5096.2391	-1.1564	-0.6944	7.5144	5.6808	1.1858	-13.6245	2.9228	18.7428	23.6297	1.6832	-7.6639	5.1006	2.8633	-1.4889	5.9286	-0.9478
5104.2395	-0.7384	4.2875	11.0844	28.2487	6.6337	-8.6294	0.6257	12.2369	26.6590	-2.1847	-10.9788	13.7598	-2.5382	3.4267	7.0785	-1.0131
5112.2399	-2.3953	9.0324	13.2752	27.8825	8.6821	7.7389	-1.4096	11.2613	11.8657	2.6505	-7.7092	20.1171	-1.6260	9.4604	5.1863	-9.1126
5120.2402	-4.9603	6.6772	12.2286	16.7790	7.2581	3.1023	-1.4889	17.4238	23.5813	2.4933	-12.4937	16.1605	1.9578	9.1023	4.9428	-14.6318
5128.2406	0.0308	-0.6366	6.6510	10.8584	-5.6752	-11.4254	5.4032	32.7815	13.3772	8.2504	-10.5854	9.0570	5.6321	0.9330	12.3178	-4.9462
5136.2410	4.2140	-5.1835	2.2094	12.9659	-12.8426	-18.3670	8.8307	31.4170	-0.4538	0.5944	-13.4022	3.3215	3.4145	-6.2825	18.1363	6.0958
5144.2414	-1.8173	-1.5009	4.3763	22.6077	-4.6660	-11.6432	2.9462	19.4883	23.7031	-18.2159	-32.0908	5.9565	-2.5796	-9.8943	12.3700	1.8840
5152.2417	-6.0248	1.9634	7.7341	13.6254	-5.1018	1.5163	-1.2824	17.7541	21.0914	-4.0899	-26.4573	9.7624	1.0559	-5.5818	2.1298	-11.3582
5160.2421	-6.3813	-2.1667	3.1846	2.3738	-9.1961	-3.5820	-0.4791	17.1175	3.5949	-4.1702	-23.2850	2.9474	3.4571	-2.4555	1.1190	-14.4166
5168.2425	-7.6944	-0.8272	8.4980	14.7054	-4.5158	-3.9597	-1.7469	10.5566	18.2662	-19.7892	-39.5102	5.9880	-2.4518	-4.5337	4.3490	-8.0731
5176.2429	-7.1466	9.7119	24.1213	35.8291	7.7172	6.9883	-6.1194	2.8192	24.9164	1.6792	-23.3170	25.1179	-4.3804	7.3426	0.1097	-15.8207
5184.2433	-7.7306	11.5539	12.9615	28.5541	15.0395	10.0465	-7.0936	5.3039	22.3073	9.0833	-7.8655	22.5627	-0.6814	18.9063	-2.4385	-27.4553
5192.2436	-10.6080	4.3940	-3.3970	0.5198	8.6577	16.5163	-6.3036	3.6002	23.5567	-3.5939	-28.6748	5.4460	-0.0139	13.6651	0.2251	-24.0096
5200.2440	-12.2910	-0.8927	-2.9266	10.5273	1.9375	2.5834	-6.7790	-2.4353	9.1781	-11.2294	-40.5221	2.5546	-3.8224	9.3683	-2.7878	-23.8828
5208.2444	-11.2310	-9.1029	-20.8671	2.6495	-9.7041	-10.2981	-4.1701	3.2114	4.9281	-24.7895	-47.1037	-13.8318	-2.4030	7.2248	-1.0041	-20.3026
5216.2448	-10.5734	-10.0779	-27.7080	-29.2969	-11.5300	14.2758	-4.4788	-4.0210	21.7351	-14.4661	-57.3952	-22.4856	-1.1436	4.6422	3.8506	-11.7556
5224.2451	-10.3604	4.1230	-2.4787	15.0978	5.5953	21.7389	-10.7396	-18.3903	23.3678	-2.8794	-42.4918	6.2968	-8.1251	12.8344	-1.5706	-21.1253
5232.2455	-7.2940	8.0311	1.0017	37.9663	4.8552	11.9326	-12.1685	-16.7512	14.8489	-5.7133	-22.8422	12.1589	-6.9122	26.3640	-2.8268	-29.0582
5240.2459	-6.3109	1.5934	-8.3723	-3.5418	-1.8366	14.4305	-9.4571	-11.5582	20.1743	4.3110	-18.9334	-3.6882	1.3599	28.2886	0.5355	-26.6622
5248.2463	-5.1140	3.5277	-5.0603	-10.2448	0.2570	23.9902	-9.1677	-15.1570	23.5761	-2.7678	-19.7923	-3.0813	0.6569	19.1249	3.4422	-21.0021
5256.2466	-2.5552	5.6302	-0.2867	-7.5314	-0.8043	30.1981	-11.0971	-27.2430	23.1874	-13.0752	-18.2686	-2.5610	-1.6649	14.0757	5.6721	-17.7514
5264.2470	-2.2241	5.6293	10.0270	13.3521	2.8767	2.1297	-13.9720	-31.6360	37.9878	-8.8354	-3.0698	2.2500	-1.4996	16.9452	-1.1352	-27.8012
5272.2474	0.0275	6.9507	10.1810	20.4748	4.1047	-7.0901	-13.9671	-29.4459	46.5296	-15.9144	9.5564	1.9221	-0.2228	16.1049	-2.1799	-28.3965
5280.2478	8.0032	-18.4599	-27.2069	-37.9912	-30.6952	-10.5168	19.4725	41.4972	-64.7508	16.5642	-0.5603	-22.7888	8.9900	-10.4779	12.6876	31.0813
5288.2481	9.2368	-23.4505	-22.3323	-26.9188	-34.4501	-26.2154	22.2729	34.5300	-72.7869	-19.3071	-16.7652	-26.8055	1.4736	-37.7455	15.4588	48.2507
5296.2485	7.4907	-5.7040	-3.3593	5.5960	-7.6719	-5.6939	13.4393	14.8339	-52.7067	-2.7660	3.3892	-0.3327	-5.2665	-23.4387	4.4697	38.6138
5304.2489	1.2402	-5.3876	-11.0136	-19.1014	-8.9467	4.4785	9.4492	19.1978	-39.3536	6.9260	4.8379	-7.3941	1.9039	-7.8621	-5.3144	24.2872
5312.2493	2.3540	-3.9709	-1.6389	-8.1544	-15.9302	2.5132	6.1186	11.4707	-38.3631	0.6589	4.7047	-4.2282	1.4688	-8.7163	-5.3507	19.0889
5320.2496	-0.0259	4.5571	8.2190	10.9370	-1.0148	1.3791	4.0627	17.3238	-25.3292	1.8456	17.6097	10.3747	1.3551	-4.2958	-10.9905	10.2159
5328.2500	-1.3816	2.8205	5.3888	2.7306	-5.1038	-3.1328	4.3396	24.7237	-25.7541	-5.7223	18.7186	5.6140	5.6057	-3.0390	-11.4024	4.2509
5336.2504	2.2731	0.4115	3.5483	5.0959	-16.3258	-3.8234	6.2113	27.5447	-37.1180	-3.6749	17.5548	3.5507	6.4497	-5.1302	-6.0779	7.3203
5344.2508	0.1889	3.1524	3.9355	2.0318	-10.7549	3.0272	7.9808	40.3379	-19.9618	3.5181	14.0125	7.9961	7.6180	-5.3512	-6.7620	11.3666
5352.2511	1.1670	5.5089	12.4445	13.7436	-6.0772	2.7912	5.5342	28.8223	-11.0717	0.6298	10.4295	13.5621	3.6983	-6.3033	-3.3152	10.6597
5360.2515	2.7377	8.5866	15.8913	28.4907	-2.6482	1.8039	5.3009	28.9462	-13.6975	0.2195	14.8455	20.1907	2.2386	-3.1951	-0.5263	8.2027
5368.2519	1.6793	14.7572	18.3872	26.6553	0.7213	16.9623	0.9799	27.0869	6.5150	11.5961	20.1066	25.3682	4.8236	5.9583	-2.6281	-1.7181
5376.2523	0.7156	16.4384	18.2340	29.7078	3.0024	21.9826	-4.1358	13.8668	12.8745	23.2505	20.7193	27.5513	3.9061	9.3250	-4.9389	-15.1831
5384.2526	-2.7534	13.9795	13.7659	23.9728	5.3426	11.4442	-1.0962	29.1522	15.8756	11.8810	17.9398	23.7842	6.2455	5.0507	-8.0894	-13.9500
5392.2530	-1.5755	10.8929	15.8609	15.9620	1.5261	3.0286	-2.1265	23.4709	28.9502	8.3146	17.8776	17.5485	7.9030	3.1419	-6.1596	-14.5191
5400.2534	-1.1752	-0.2801	0.1869	9.2723	-9.4096	-11.3018	2.0219	27.1987	12.5575	9.5178	1.7583	5.1947	6.7487	-10.7666	-2.2492	-11.9261
5408.2538	-1.5793	-4.1875	-7.5573	5.8126	-16.2728	-11.0315	8.9134	44.9012	4.2617	-13.6085	-16.5004	-0.6468	4.8636	-25.8337	1.5990	8.4200
5416.2541	0.7762	1.3878	6.2418	13.7298	-8.7250	-6.3351	5.6454	30.8961	15.4012	-9.4532	-7.1597	7.1154	2.8226	-15.1047	3.4724	9.6813
5424.2545	-4.9166	-3.0259	-2.6246	8.9619	-6.2863	-13.9709	5.0958	34.6621	15.9285	4.7777	-16.5644	3.4985	3.1130	-7.3158	-2.9645	1.2118
5432.2549	-8.5564	-4.9919	-11.3461	-3.1004	-13.4292	-0.4530	2.2763	28.4562	23.0358	-5.9018	-36.4797	-4.8867	1.5572	-13.9558	-6.2257	1.6249
5440.2553	-5.9642	-6.6092	-11.7628	-14.2860	-11.7686	-1.1646	3.1988	22.3040	11.9795	-6.1350	-28.1694	-8.2947	2.9168	-19.2950	-2.0531	0.4370
5448.2556	-6.5024	-14.5982	-18.6249	-18.5582	-11.1903	-21.3875	11.1197	38.5615	-5.5300	-6.2586	-33.6592	-13.8947	2.7734	-21.8869	0.6169	12.3088
5456.2560	-8.0203	-15.2863	-20.3962	-16.0855	-11.3252	-18.6154	7.8617	25.6342	5.3133	-8.8710	-44.7257	-17.1772	-1.5107	-16.0646	-1.9450	15.4600
5464.2564	-10.0871	-17.9668	-28.6924	-27.7014	-12.5203	-22.5482	7.4300	26.8562	4.1671	-16.6849	-42.8564	-25.6122	0.9402	-16.2973	-6.3205	11.2927
5472.2568	-9.3417	-21.2630	-32.8784	-28.2903	-24.2696	-22.4932	8.4012	27.0439	-2.1776	-29.6935	-52.7542	-32.5362	-0.3961	-19.4694	-6.3881	20.7596
5480.2571	-8.3858	-20.0765	-33.8397	-23.8922	-26.5168	-13.2189	5.1367	13.6226	-4.7798	-25.7738	-56.3346	-32.4201	-3.3413	-12.4745	-5.7562	19.3527
5488.2575	-8.8522	-14.7776	-30.7280	-18.3970	-12.2269	-9.7884	6.2843	18.1216	-3.9108	-28.2608	-47.5436	-24.8950	-4.1269	-6.6297	-4.8555	20.5917
5496.2579	-7.6119	3.9372	-4.7980	15.7277	8.1167	14.2177	-3.9416	-5.5169	29.2507	-14.7769	-32.2589	2.0348	-10.0670	13.5583	-7.0575	11.8403
5504.2583	-9.5023	9.2251	-0.1710	14.9117	16.4943	19.2649	-9.5423	-10.9195	37.3681	7.1917	-16.3702	9.2849	-5.5378	30.5239	-10.4888	-11.9784
5512.2586	-6.6896	-6.6055	-18.8218	-17.3249	3.3567	-5.1909	0.3669	4.6624	14.3806	-12.6930	-23.4697	-15.3807	-0.2937	14.7361	0.3469	-0.1809
5520.2590	-1.2095	-14.1013	-23.7384	-8.3312	-4.9721	-23.3113	2.2762	-7.1542	14.9477	-27.9349	-33.1690	-25.2667	-5.9536	1.6764	8.2874	12.5425
5528.2594	-4.6074	-12.4882	-26.1057	-5.5130	-3.0311	-20.8595	1.1239	-4.0041	11.3916	-32.6446	-33.6924	-23.7081	-6.1618	-0.5508	1.1439	8.1282
5536.2598	-7.6213	-5.7598	-20.5222	-22.3303	0.6501	12.1647	-1.6065	-8.9758	16.3014	-28.7184	-38.2921	-19.2348	-5.9779	2.4002	-2.6910	12.4439
5544.2601	-5.7532	-4.4232	-11.7064	-3.3163	6.4791	-0.1833	-3.4409	-15.3177	28.1294	-5.5229	-30.8090	-10.5108	-7.8633	15.6524	-1.6615	7.2703
5552.2605	-1.8547	-11.7115	-15.6698	5.4570	1.5412	-31.3144	2.7377	-4.4978	7.3808	-19.0651	-23.0444	-16.4610	-6.9318	8.0961	3.4084	11.8869
5560.2609	-0.1360	-9.5144	-19.8647	-24.4892	-6.0590	6.4893	2.6084	-13.0068	-2.1999	-29.4031	-30.6684	-23.0371	-6.5003	-7.1598	6.7929	23.8841
5568.2613	-1.4385	-5.6645	-13.5369	-11.9663	-2.0222	6.8614	-0.3426	-14.1186	11.2725	-12.3286	-26.8342	-14.4787	-6.8938	3.4750	2.3473	17.3653
5576.2616	0.1248	-6.2835	-3.4575	18.7902	4.5172	-28.8504	-0.3787	-14.0044	18.6468	-19.0805	-14.2056	-8.7743	-8.9402	11.6836	1.3463	13.6536
5584.2620	0.2427	-4.4888	-6.1572	-4.5121	3.5768	-4.9334	-1.5257	-21.0135	13.6563	-18.6560	-14.7796	-12.4535	-7.2145	6.3464	2.5094	14.7494
5592.2624	1.2141	1.0444	-3.3401	-11.8453	3.0500	19.1785	-2.5121	-22.2318	3.4166	-7.1038	-7.4646	-6.9892	-5.5137	11.0457	1.7812	15.0259
5600.2628	4.0934	5.4833	6.2850	5.7945	9.2331	9.6971	-4.4987	-28.0419	13.5962	-10.0414	9.4252	-0.3144	-6.4436	15.6831	0.5189	13.2753
5608.2631	3.4121	-1.7631	1.5843	2.9856	4.0768	-12.6677	-1.6079	-19.2304	17.9248	-20.5938	2.6043	-8.5726	-4.7843	5.8298	2.1943	13.1624
5616.2635	6.0311	2.4159	14.5474	10.6576	2.6089	-0.9083	-1.5877	-22.8075	10.8352	-16.4843	1.8721	1.2181	-6.5828	4.1538	7.2573	18.3084
5624.2639	6.5159	16.2636	25.5094	-1.4873	15.3490	38.2381	-8.2149	-35.2127	23.6462	13.4408	25.8467	15.1372	-2.8255	16.8405	2.5695	6.6399
5632.2643	4.1760	2.7666	5.0018	-19.0823	3.4844	9.3357	-3.5470	-18.9120	15.4220	5.6391	19.4225	-5.1249	2.5977	10.9759	0.5377	2.8046
5640.2646	9.7178	-6.0737	5.8456	5.2119	-10.2533	-17.8365	2.9031	-17.3123	-4.2305	-20.4481	2.7905	-9.7232	-4.8986	-9.2121	10.0421	24.2806
5648.2650	12.3975	5.9218	17.2313	1.0275	-1.4062	17.0734	0.0221	-24.8323	5.8901	2.4682	19.5243	4.1661	-4.4154	-4.8120	8.4560	27.7872
5656.2654	9.3825	3.7633	7.8267	-20.1277	-2.7202	18.5818	-0.8645	-19.5246	9.6366	16.4629	26.5853	-3.7919	1.6831	7.3591	1.4880	19.8347
5664.2658	8.4759	0.3359	10.5822	-5.8392	-1.4009	1.5168	-0.1369	-22.3129	3.5247	12.5105	19.9004	-2.0847	-2.4612	-0.6364	0.3420	20.2280
5672.2661	7.5115	2.4780	20.3789	-1.7481	6.7358	-1.5110	0.5632	-20.5412	1.4459	20.9307	25.0780	6.3543	-2.7362	-2.1870	-0.8893	18.9306
5680.2665	7.7175	0.8133	19.0243	-5.7656	4.6399	-4.6445	1.2968	-19.2527	-2.6430	21.3141	26.5999	3.2266	-1.5645	4.1008	-0.7158	20.4340
5688.2669	8.2080	6.4496	19.4465	-1.1395	7.3547	11.3809	-1.1776	-23.1330	-0.1816	26.0338	31.1716	9.3334	-2.3725	1.0818	-2.5980	16.4849
5696.2673	8.1096	5.6408	16.9581	-8.8290	5.0027	10.5095	0.2800	-14.6768	-8.2968	28.4783	37.1711	7.7532	1.7923	1.8365	-2.4057	11.8566
5704.2677	10.4827	0.5678	13.4401	-5.8068	-0.2615	-1.1792	4.9873	-8.0985	-22.6766	23.6035	32.5004	3.7417	0.7256	0.1260	3.3626	21.3825
5712.2680	11.7062	11.0981	25.1707	13.2567	11.4254	17.4734	1.4769	-17.4118	-16.6728	33.7667	40.0516	20.8595	-3.4972	2.1102	3.0567	19.1722
5720.2684	8.4249	14.3138	31.7109	14.4535	17.5295	17.5715	-3.6481	-24.3569	-12.2279	42.6513	47.3225	25.9467	-1.3342	13.9989	-1.9842	1.1505
5728.2688	3.2812	7.9976	23.9601	7.0428	19.3346	1.0864	-2.9701	-18.7618	-15.2919	39.0497	38.5542	19.3760	0.1030	8.6250	-5.3932	-9.3646
5736.2692	0.2982	12.9801	21.9642	-0.0482	32.0212	13.6282	-4.1780	-17.2626	-11.0872	34.9698	42.2107	22.8930	0.9930	8.4766	-6.8162	-16.1715
5744.2695	1.5401	9.9145	12.5008	-9.9423	27.1890	13.0683	-2.8611	-14.9560	-21.7287	30.8266	43.6121	14.4846	3.5143	17.1868	-2.9022	-16.8235
5752.2699	5.0492	2.1722	7.8949	3.0376	11.4417	-4.3813	1.8643	-8.1935	-39.3962	17.9827	30.1614	9.0100	0.9116	2.7968	4.0341	-7.5279
5760.2703	5.4089	13.2025	24.9681	14.3259	17.9951	16.3064	-2.4152	-14.8542	-28.5338	15.5868	36.1223	24.0958	-0.2685	3.7772	3.8258	-10.3513
5768.2707	2.8042	20.0230	24.9704	10.2790	22.9739	30.5667	-9.0151	-18.6294	-10.9335	35.6132	50.4463	28.7886	4.5349	21.3304	-4.1149	-30.0717
5776.2710	3.2998	14.8525	17.4617	23.8268	11.6458	11.0693	-9.3819	-13.2379	-12.9513	37.1513	48.4843	24.9265	5.8639	15.6211	-5.4755	-41.6810
5784.2714	3.5569	14.0730	16.2548	11.7206	8.5221	21.3925	-8.7429	-15.4906	-17.4506	24.1767	39.0416	20.7339	5.8294	9.3400	0.1777	-37.5996
5792.2718	0.4748	7.5576	2.9255	-16.1431	6.3590	24.6675	-6.8620	-13.5938	-17.8980	19.1574	24.3166	6.6579	7.4235	8.3733	1.8239	-33.9244
5800.2722	1.1520	0.7541	5.2019	-3.3014	-0.6802	-4.1362	-3.0066	-4.5627	-20.7354	7.9529	17.3725	3.4896	6.3501	1.6569	3.6550	-27.7376
5808.2725	4.9825	4.7416	12.0941	4.8535	1.0140	0.8040	-0.3292	0.1467	-26.3890	9.2726	26.9088	10.7834	5.7171	0.5267	6.8933	-17.6837
5816.2729	5.7382	0.1731	-4.4909	0.0631	-0.4856	-3.5696	1.9721	3.7234	-26.5110	6.3199	21.6046	1.2941	5.1443	-1.4128	9.8518	-15.1349
5824.2733	3.7739	-9.8782	-18.3742	-6.3697	-7.8565	-21.2697	4.4928	7.1063	-14.8492	-18.4581	-4.9323	-15.2226	2.8592	-8.2855	15.0662	-7.4694
5832.2737	3.1180	-3.9132	-15.9018	-15.7263	-6.5794	8.6477	3.9987	6.6379	-11.6255	-16.9046	-10.6844	-10.7440	1.8252	-9.1523	14.8443	2.1604
5840.2740	5.9684	4.0136	-0.7860	2.6769	-2.4775	14.3451	3.4490	8.0050	-13.7229	-4.4790	6.5217	4.3607	1.5311	-1.0307	12.9655	4.5356
5848.2744	8.1879	-1.2905	-1.1030	6.5250	-7.6475	-9.3504	5.6659	12.7116	-2.1631	-9.9087	8.0771	-2.2794	2.6990	1.9934	15.3140	9.9863
5856.2748	6.2613	-4.2996	-18.4341	-0.2743	-12.7108	-3.9745	4.3770	11.3883	0.5467	-10.8355	-0.6348	-11.5386	2.0493	-4.0940	10.6901	6.8857
5864.2752	2.3379	-1.4825	-14.5257	10.4923	-1.2450	-5.3628	2.4737	7.6136	-0.2117	-11.6272	-2.6231	-4.3215	-1.4808	-3.3336	5.4554	1.5641
5872.2755	-0.0748	-3.4343	-11.9056	-12.1239	5.1565	-4.4482	4.0543	9.2382	10.6102	-14.9648	-8.0393	-8.6615	0.5582	-6.1697	7.7476	5.8283
5880.2759	0.2738	-4.7762	-17.0632	-17.6236	-6.4513	2.7662	3.5722	10.9549	5.2445	-14.4706	-10.7119	-12.6818	2.2593	-15.4521	4.7387	4.9442
5888.2763	-1.7542	-2.1052	-12.2530	2.6401	-4.2000	-3.8288	1.4957	10.4030	-0.1949	-13.9133	-6.5260	-5.7103	-0.0169	-6.4480	-3.0041	0.9172
5896.2767	-6.3881	0.2962	-14.9850	-8.5637	7.4987	2.9579	-0.6766	10.4965	17.8033	-10.4462	-8.6114	-6.1608	1.2328	5.9692	-5.7747	-4.9590
5904.2770	-6.4479	2.0232	-6.9005	4.6303	9.6744	-1.4527	-1.0672	12.2129	29.4941	-5.6602	-12.2414	1.3511	-0.3576	4.0620	-4.3882	-5.7138
5912.2774	-3.0786	-0.5199	0.2992	9.3504	7.7559	-15.3137	3.1536	17.3011	15.4785	-6.0437	-6.1230	3.1097	0.0141	2.4248	0.6592	1.8702
5920.2778	-1.3334	-4.9975	-12.6656	-11.4873	2.6946	-11.4642	6.5509	20.1428	-6.9679	-14.9785	-4.1351	-8.8314	2.8234	1.7522	5.2155	5.9406
5928.2782	-3.9241	-1.9484	-5.8775	11.5283	10.1985	-14.1052	3.6101	11.4996	4.0170	-19.0555	-14.1495	-0.4314	-4.3774	1.4017	0.9439	7.3592
5936.2785	-6.3195	5.3420	2.2778	15.0382	19.9460	-5.6468	-2.6473	3.4145	33.4664	-10.8382	-6.2674	7.3285	-3.4803	7.6609	-5.1298	-4.8496
5944.2789	-4.2903	7.7668	-3.6413	5.9754	13.9897	4.7632	-6.1411	0.6396	30.5709	1.3354	11.3761	4.7325	2.6326	14.7252	-7.4837	-20.0817
5952.2793	-7.0955	5.5732	-0.5287	16.4051	11.9744	-1.6379	-7.8500	-4.3760	21.9697	10.5151	2.2271	8.0653	-0.3785	15.4534	-12.0355	-25.1967
5960.2797	-8.7252	1.3934	-4.3636	-6.9690	5.6602	1.5889	-6.0575	1.4132	19.0525	-1.4197	-7.8032	-0.8930	3.5511	6.2535	-8.1784	-25.2777
5968.2800	-3.3966	-2.2014	-7.2210	-3.0971	-1.4651	-8.3588	-1.9128	4.2490	11.9373	-13.4647	-5.7953	-5.9152	2.5486	-5.7894	-1.9504	-13.1931
5976.2804	-5.8827	-6.0095	-12.3669	3.7216	-2.0795	-19.0647	-3.2941	-0.2858	20.5418	-9.4908	-15.3529	-8.7630	-0.8459	-13.0161	-8.0512	-15.0274
5984.2808	-6.8498	-10.1124	-22.1037	-21.3918	-10.8077	-10.0721	-1.0448	7.3072	15.8951	-20.9550	-26.5697	-19.9891	3.1653	-19.3691	-3.3305	-12.8896
5992.2812	-3.1970	-2.6509	0.6508	13.8592	0.1181	-6.6432	0.5459	0.6793	5.2659	-15.0910	-26.5251	1.9161	-6.1014	-14.1911	2.9566	2.7061
6000.2815	-6.8783	3.4612	8.1091	23.4551	5.1572	1.2558	-4.9424	-2.3947	13.4657	4.2919	-20.6880	12.7760	-5.0166	-0.5368	-5.2486	-13.1909
6008.2819	-6.4501	-8.0985	-19.6470	-9.6060	-16.8109	-5.3773	-1.2136	11.5969	10.6692	-15.3249	-28.6427	-15.4569	2.5265	-7.0991	-4.1249	-9.8648
6016.2823	-8.3627	-5.8332	-9.1727	18.1829	-5.7305	-11.1826	-2.6506	-1.0295	17.1568	-16.8352	-40.7341	-4.4453	-8.4048	-13.4912	-8.5702	-0.1062
6024.2827	-12.4748	6.0614	11.9428	20.9054	9.0463	8.8841	-9.8126	-8.8292	26.8228	7.3674	-27.4243	15.2195	-5.6528	4.8314	-14.0141	-20.6350
6032.2830	-5.3107	-2.6540	-1.1725	1.7451	-1.7285	-2.8740	-3.6240	-4.0195	17.0216	1.3289	-22.5328	-2.2400	-1.7839	9.7918	-0.7549	-7.8810
6040.2834	-6.0872	-6.8539	-8.3651	14.2638	-2.3298	-13.9728	-3.3505	-9.5197	18.8919	-9.8995	-36.9899	-6.1582	-8.1028	-3.0860	-1.8683	-3.1963
6048.2838	2.2974	4.8371	1.0674	2.8437	8.8398	0.6982	-0.5582	6.6798	26.5705	6.4116	10.1158	4.3426	3.8336	16.9013	9.1489	-7.7826
6056.2842	2.9928	-15.6267	-28.2924	-24.9999	-14.1795	-19.6556	9.7791	18.3162	-15.4610	-19.0088	-16.6170	-25.6441	3.3722	-11.3608	14.6611	11.2072
6064.2845	4.3224	-22.0322	-33.4105	-28.1060	-26.6065	-25.8654	13.6364	20.7097	-24.6568	-32.1063	-28.5291	-34.8247	0.6294	-26.2517	13.4441	29.7934
6072.2849	3.3436	-22.1318	-34.2294	-32.0801	-21.5635	-24.6119	15.9406	25.3376	-13.0294	-23.4427	-30.5286	-34.4369	-0.9461	-27.4763	9.6864	42.3600
6080.2853	1.8251	-20.0538	-25.5154	-16.4931	-18.4543	-23.5031	17.3969	27.8665	-25.8601	-30.6126	-40.0293	-25.1791	-5.5859	-31.0533	10.2579	48.6286
6088.2857	2.5975	-12.2046	-14.4123	-1.9516	-13.6386	-11.7132	14.9206	25.4827	-19.5382	-15.8608	-31.0700	-12.3734	-6.7830	-16.6046	7.5047	49.3030
6096.2860	1.2012	4.9156	1.8492	13.9024	11.4095	5.7817	7.6577	19.5844	8.5975	6.4231	0.9377	10.0309	-5.1576	3.5137	-1.7716	32.5616
6104.2864	1.1035	5.3594	2.8634	14.7558	11.3891	2.4641	6.0485	19.3003	13.0832	1.7297	2.4738	10.0701	-3.0879	4.3929	1.0213	22.4152
6112.2868	0.3757	-11.9771	-18.8625	-18.2642	-10.2175	-9.0150	12.3203	25.7666	3.1972	-11.9623	-29.2783	-17.3581	-2.1754	-11.4174	6.9585	38.3607
6120.2872	0.1068	-6.5075	-5.0158	-6.8547	-4.2900	-7.3209	10.2710	19.8293	-4.9481	-11.5886	-16.4756	-6.7870	-3.5726	-13.1624	0.3055	36.7034
6128.2875	3.0296	-1.1461	4.5887	7.5833	-1.9476	-8.8927	9.1375	21.3624	-9.9163	0.4649	3.7852	3.5718	-1.2349	-2.2446	0.1774	29.1516
6136.2879	0.8735	-6.5810	-10.2330	-4.4503	-7.2245	-6.6226	10.2464	24.6318	3.1783	-4.4312	-17.4440	-7.8327	-2.2751	-5.0903	2.4534	34.6069
6144.2883	-2.0492	4.2433	2.6560	10.2555	6.0834	5.1060	1.8803	10.0530	22.5765	-1.5907	-5.6443	5.5355	-3.8561	3.6298	-6.6594	19.5895
6152.2887	-2.5418	-1.8080	-8.7449	-15.5212	-2.2385	1.4964	2.9568	14.0439	12.3300	0.4196	-0.3560	-8.2003	2.6069	5.6518	-8.5003	14.2921
6160.2890	-2.2626	-19.2472	-30.7565	-33.2862	-27.9707	-11.0515	10.7387	21.8439	-15.3289	-28.7301	-39.1827	-33.1088	-0.3453	-19.6080	-0.3296	34.6825
6168.2894	1.3250	-8.7797	-5.5704	13.4934	-18.8927	-12.9862	8.6313	14.8490	-18.9339	-21.0074	-26.3346	-7.5257	-7.1388	-14.2246	-0.4443	36.4885
6176.2898	1.7932	4.8536	9.8517	17.1201	4.5290	0.0734	4.7014	13.4864	4.0995	7.3577	7.7934	10.5280	-2.9484	10.6276	-4.2402	25.0049
6184.2902	-0.3661	2.5726	-1.6105	-1.3519	4.8389	5.5962	2.6056	10.4092	24.7301	1.4967	-2.4988	-0.2832	-0.9908	14.8580	-1.4197	19.6858
6192.2905	-1.7614	-3.1323	-4.0750	4.0927	-0.3058	-10.2294	3.6960	12.4954	18.3338	-2.8502	-12.9977	-3.7173	-2.2521	7.6021	-1.3590	17.1773
6200.2909	-2.3228	2.4909	13.9267	7.7614	8.4577	-7.2905	3.3242	10.8598	6.1637	-5.7305	-0.3962	8.4259	-1.8027	1.0174	-3.8721	14.5886
6208.2913	-0.8133	7.8214	19.9395	8.1415	11.7240	1.9088	-0.6460	2.9232	15.9019	-2.7163	10.0446	12.7868	0.2196	8.9434	-1.8349	5.0061
6216.2917	-3.3875	-5.8943	-8.2850	-9.6292	-2.5227	-13.8315	1.4453	10.1782	16.0192	-1.0253	-10.3160	-9.3248	2.5083	5.5685	-1.3146	-0.3235
6224.2921	-4.3845	-5.9832	-7.8750	-2.5703	-6.7315	-8.2189	2.0381	9.8917	8.0714	-15.3373	-24.9090	-8.1445	-1.5673	-5.6663	-1.0108	6.5984
6232.2924	0.2053	8.8233	13.4260	27.1439	3.1961	9.3975	-1.3710	6.0632	23.3747	2.4670	-4.5741	15.5871	-3.4289	11.8601	0.6811	7.5492
6240.2928	-0.5113	-1.1519	-5.1818	11.9440	-2.9575	-7.2728	1.8650	14.8993	20.9889	13.8579	-8.8414	1.0882	0.0988	15.1591	1.5136	4.2216
6248.2932	-3.4842	-19.0918	-26.1699	-14.3002	-20.8119	-28.4504	7.7081	19.6883	-10.3666	-17.7445	-37.8588	-25.2904	0.0383	-9.5652	4.3837	10.9317
6256.2936	-4.4665	-16.1452	-13.8602	-10.0458	-20.2140	-19.6271	7.8304	16.6317	-20.0006	-25.0223	-43.6956	-17.9871	-3.0866	-16.8773	2.8974	19.1755
6264.2939	-4.0800	6.8387	18.4301	26.8791	5.1633	10.9863	-1.4760	-0.6198	4.9755	1.0812	-18.1524	18.1362	-8.0820	3.2845	-4.7401	11.0063
6272.2943	-2.1396	20.1366	26.4662	50.0118	18.5239	19.6453	-11.0984	-13.5651	35.8772	21.4842	12.0928	33.0443	-6.0171	27.0799	-9.3422	-14.2026
6280.2947	-4.9696	-0.1698	-3.4786	9.7643	-4.2793	-7.2149	-7.3382	-4.1082	23.1555	2.6501	-8.2118	-1.7947	1.6648	15.5978	-6.0296	-22.7486
6288.2951	-7.0169	-10.2246	-8.0975	-12.7256	-17.2257	-9.1308	-1.8223	-0.3286	-6.0295	-24.0670	-34.6594	-15.3901	0.3527	-4.1267	-1.3764	-7.1354
6296.2954	-4.0674	4.5170	6.6514	12.6461	-4.0408	10.5095	-6.0049	-4.9125	15.1975	-2.1913	-12.4908	6.4432	-1.7354	4.5157	-5.8206	-8.6137
6304.2958	-4.0044	-0.3549	0.0466	15.5200	-3.9065	-10.0975	-4.4772	1.0826	22.7099	0.3788	-10.7520	1.8504	-0.3581	-0.1910	-5.6983	-14.1529
6312.2962	-3.5956	-9.4813	-2.0734	-0.3017	-7.5814	-23.7347	3.1087	7.8785	-7.4756	-26.1525	-24.7364	-8.8681	-1.0261	-9.4061	4.6657	0.9600
6320.2966	-2.2684	-1.6422	1.7278	-6.4586	-2.8682	3.8883	1.0324	3.5612	-1.2632	-12.7512	-17.2459	-2.0651	-0.3681	0.6249	5.2105	3.5082
6328.2969	-3.2019	-4.8613	-0.6692	4.4069	-8.1588	-6.9821	-0.1461	2.4758	8.7839	-10.2813	-27.1162	-3.3845	-2.4578	-5.2564	2.9803	0.5401
6336.2973	-1.9111	-11.8306	-0.1140	10.9009	-9.4474	-37.3318	3.7384	6.6600	2.9013	-23.7302	-26.7560	-8.9876	-3.2577	-11.1669	5.3039	5.8202
6344.2977	-1.3612	-1.0947	9.9943	3.6399	4.4013	-17.7405	-0.9323	-0.4182	14.6984	-4.3354	1.1086	1.4017	1.1310	4.7580	0.6664	-4.8332
6352.2981	-2.1280	8.1492	22.1131	12.3043	10.6441	1.6822	-5.4888	-6.6563	17.2683	3.8295	7.3234	15.1746	0.9804	11.4210	-0.5520	-14.5044
6360.2984	-0.4786	5.0007	16.4622	9.4114	3.6106	-0.8662	-5.1016	-7.3766	17.0398	-4.6943	1.5284	8.9947	1.4742	4.7343	4.3739	-15.5993
6368.2988	-1.0008	1.3157	6.4635	-3.4094	-0.8882	-4.8003	-7.1606	-10.8688	22.6185	0.0725	4.8123	-0.4332	4.9702	3.5741	1.5554	-26.1140
6376.2992	-3.1481	-3.8848	-2.0849	1.0473	-7.0559	-17.4272	-6.4816	-7.2481	11.8261	-4.1128	-1.8517	-6.1305	4.2138	0.5806	-3.1317	-28.8883
6384.2996	-2.4382	-6.8163	-8.1426	-7.1385	-13.9045	-9.7006	-3.5990	-5.7890	0.1644	-13.5562	-13.2368	-11.8743	2.2293	-10.6608	-1.0789	-16.2206
6392.2999	-0.5665	1.4334	8.7374	1.1567	-4.2909	7.0001	-4.7866	-14.1331	-3.6276	0.7090	-3.4760	3.3858	-0.5810	-5.5021	-0.7117	-10.6230
6400.3003	-1.1582	0.3022	5.7277	11.8610	-3.1919	-6.9698	-7.0191	-16.2828	-0.0622	12.6393	4.8232	3.2890	-0.0345	6.8998	-5.8321	-20.8366
6408.3007	-2.8713	-10.9890	-16.5095	-15.1403	-18.4463	-13.1699	-5.2012	-13.1305	-4.5685	-6.0543	-12.8151	-19.9045	2.8731	-6.9651	-4.6068	-20.9978
6416.3011	-1.3265	1.3423	3.2990	-4.7024	-5.0932	17.7995	-6.2542	-22.8059	-14.1146	-6.0475	-8.7739	-0.2303	-2.6128	-7.8020	-1.4465	-10.5345
6424.3014	-1.3502	21.0534	25.6067	20.3347	19.3474	44.6948	-16.9926	-44.8375	6.6872	23.4159	21.9913	26.9492	-4.9235	21.2671	-10.1408	-27.4975
6432.3018	-4.0830	16.0385	18.7345	8.4881	13.2347	31.6967	-23.8549	-58.8487	16.3922	24.9690	25.9341	15.0190	-0.3522	25.7630	-16.7312	-52.2927
6440.3022	-4.2999	8.2156	10.3051	10.3569	3.3481	14.5919	-23.2435	-60.0004	3.0229	18.4631	17.7554	6.4260	-0.7243	15.3489	-16.5452	-58.3759
6448.3026	-6.3701	9.7600	1.9405	0.2969	8.6066	20.9938	-23.3363	-52.7136	9.9788	27.4457	23.6404	4.9922	2.5847	20.9505	-19.9401	-64.2041
6456.3029	-6.5674	4.1943	-5.3539	-26.2040	7.0190	17.6875	-18.3221	-42.4917	-1.6497	18.0180	22.4214	-5.8691	7.1423	16.6313	-14.7905	-59.1077
6464.3033	-1.4420	-0.7107	-13.5453	-19.6910	-3.6458	18.5752	-12.6521	-39.7059	-28.4286	9.1287	9.4901	-9.5088	2.7250	0.8092	-3.7653	-44.5040
6472.3037	-0.6633	5.9542	-8.9520	-4.5369	-1.4404	35.0950	-13.6273	-37.7174	-20.9734	22.3372	7.8220	2.4453	0.0177	2.2681	-3.8692	-41.6656
6480.3041	-1.1443	9.0533	5.0435	-1.3238	7.0843	26.3199	-12.7246	-30.8265	-5.7341	27.8442	17.9370	10.0480	2.1866	10.9009	-4.7956	-39.4568
6488.3044	2.1639	5.4128	1.4503	-0.0402	4.9741	12.3831	-9.0284	-25.6750	-11.5184	19.7413	22.6911	5.3689	2.8139	5.9621	0.2140	-34.1609
6496.3048	3.2382	6.8119	0.7158	0.1179	7.1190	14.3215	-7.9860	-24.2595	-24.6500	18.5039	32.0382	6.8922	3.3992	3.8648	-0.6965	-34.2516
6504.3052	1.8508	0.4205	-5.1516	-19.8213	4.4129	4.2905	-5.6902	-20.7384	-25.4858	15.2294	30.3673	-3.9679	6.3305	-2.2424	-2.4564	-31.7406
6512.3056	3.5774	-10.6963	-12.9477	-33.5311	-8.5652	-6.7835	0.6674	-15.5736	-31.5613	-0.1921	6.2804	-17.8100	4.3905	-24.1715	6.5854	-13.6590
6520.3059	5.9235	0.1001	9.3997	-0.9474	3.5104	3.5138	-0.5912	-23.7145	-39.4318	3.3107	13.8879	4.6987	-2.6689	-15.7396	8.0707	-5.8294
6528.3063	1.2343	13.5544	15.6395	7.2941	20.2693	22.2442	-10.7744	-34.2631	-19.7535	22.6433	38.0758	18.0265	-0.0829	12.1342	-6.5971	-30.7357
6536.3067	-2.8623	8.5891	3.8082	-16.6640	13.6692	22.8873	-12.2783	-30.4754	-11.9275	22.9061	30.4232	6.0095	5.2984	8.9548	-10.1190	-42.2569
6544.3071	-0.4162	-0.0584	-0.4412	-14.0582	5.2548	3.2743	-6.7518	-24.3007	-17.1032	12.6752	16.1851	-1.7441	2.9482	-2.7021	-2.3609	-29.1630
6552.3074	0.8990	-4.2850	-10.0514	-16.7726	-0.6317	-3.7998	-4.9409	-20.5978	-12.0609	5.8261	11.4096	-10.1255	3.1099	-7.6673	-0.3241	-24.6319
6560.3078	2.5941	1.9786	3.1719	-12.9452	2.6206	9.1234	-5.2672	-22.0320	-23.9507	11.6015	22.0166	1.0504	3.6111	-5.8800	0.7155	-24.0381
6568.3082	3.7583	4.6027	7.8743	-5.6064	4.4631	10.6534	-5.7387	-22.5791	-23.0793	16.1158	26.7497	6.1526	3.2830	-1.3751	1.6195	-24.4797
6576.3086	2.0189	-5.2870	-9.8751	-22.3758	-5.5005	-2.8219	-3.9115	-17.2374	-6.2581	-3.0386	7.1163	-13.2796	4.5377	-13.6548	3.8380	-21.4097
6584.3089	0.8286	1.8733	8.7435	-1.5647	8.1327	-3.7717	-5.3207	-20.0250	3.6620	-4.7767	9.9539	2.4222	0.4685	-8.5964	2.8183	-19.0244
6592.3093	-1.3052	11.7846	18.2286	20.3390	19.6673	4.1507	-9.3753	-18.9713	20.6742	9.4681	20.1116	18.1989	-0.8029	9.0624	-4.2943	-25.8530
6600.3097	-0.2564	-0.1383	-3.7312	-9.3238	2.5474	-3.0052	-3.7108	-7.1500	12.0632	0.2251	8.9590	-4.4370	3.6773	-3.3091	-0.8268	-16.6691
6608.3101	1.1769	-3.3089	-2.1977	-9.4727	5.1915	-11.5850	1.7528	-0.6556	-2.6851	-2.8264	6.3315	-4.2850	2.0005	-7.3013	4.7023	-4.8659
6616.3104	-0.5462	6.9014	10.1700	19.7678	20.2919	-4.3961	-0.8473	0.1595	6.9475	5.9247	10.5118	15.3370	-2.1611	7.3475	2.7084	-8.8565
6624.3108	0.6625	5.3478	4.2330	3.5542	13.5255	0.7996	-0.9107	1.0678	10.2424	4.4786	13.7890	7.0738	1.7730	9.1391	3.3581	-8.3533
6632.3112	-1.6585	-4.5809	-10.3261	-25.8807	-2.4729	-3.4108	0.7506	7.4016	18.5927	-4.1350	-3.6283	-12.9718	6.0659	1.3959	2.5411	-4.2131
6640.3116	-0.4987	-5.2970	-3.3085	-3.8699	-9.6555	-6.7369	2.9122	11.6894	14.1618	-8.6050	-20.9605	-5.5899	0.8455	-10.7985	7.1921	4.7494
6648.3119	8.3511	1.3950	8.1226	24.5440	-7.2667	-6.8809	5.1933	12.1173	0.9163	2.1413	2.4417	9.4751	-1.1125	-9.7313	14.1218	10.8326
6656.3123	4.8822	2.4109	-3.4810	13.2613	-8.7099	1.9846	2.1427	14.7508	14.0938	1.9559	2.7414	2.4921	2.2293	2.5443	7.2183	3.7606
6664.3127	-1.4450	2.4664	-1.3840	6.9653	-6.9176	9.6794	-0.1423	11.6617	9.8320	-5.4685	-12.6832	2.5247	0.6479	5.4981	1.9703	0.9697
6672.3131	3.3407	2.7003	8.5702	2.7462	16.7047	-1.2382	7.2414	8.6297	-11.2151	29.5234	18.2147	12.5779	-2.1211	-2.2417	0.4096	18.4087
6680.3134	3.1667	-0.7128	6.7132	-7.1533	7.6292	-3.6851	8.4608	12.8348	-22.5063	27.8707	18.3155	6.8085	0.8704	-2.0850	-1.2899	19.6461
6688.3138	3.2989	-2.7667	5.1688	-14.6843	-0.4278	-2.5704	10.2915	20.1335	-27.5676	25.5317	15.6440	3.1415	3.2783	-4.5484	-1.2003	23.5388
6696.3142	5.3658	2.5460	6.7735	-0.0701	0.7862	6.3708	7.6919	16.1767	-10.4609	32.8385	18.6864	9.5655	1.0966	-1.2895	-1.5727	23.9493
6704.3146	4.9715	-5.2100	-3.5550	-10.2930	-13.8840	-2.7499	10.1121	21.3468	-30.1282	19.3946	11.7475	-3.1966	2.9988	-10.0464	-3.3612	26.4440
6712.3149	3.4804	-7.6696	2.3996	-14.8565	-9.3987	-11.8230	11.1967	15.7287	-49.2291	11.9293	14.2326	-4.1531	1.6372	-12.1408	-6.1748	29.4407
6720.3153	1.8991	-3.0293	6.4163	-10.2681	4.6725	-9.7601	6.7263	2.2309	-37.9755	10.8647	21.6257	0.1671	-0.4867	-4.1269	-8.9931	21.1187
6728.3157	0.1364	-2.7456	2.6749	-10.7961	0.6424	-2.2288	5.2615	1.9783	-43.0905	-0.2368	12.0770	-1.1905	-0.7107	-8.8334	-8.1654	15.4013
6736.3161	-0.0400	4.6293	14.6634	4.4488	10.4442	3.5275	-0.1821	-8.9045	-26.2058	20.4057	22.4055	11.9685	-2.0483	3.9719	-11.5355	4.8409
6744.3165	-1.8884	2.5647	8.6591	-0.4961	11.7121	-5.6315	-2.1544	-8.1150	-15.7112	30.0008	27.7062	7.8102	1.3113	9.8113	-15.3438	-8.0165
6752.3168	0.0706	-2.5610	4.2476	1.8053	-0.7808	-8.0045	1.9396	-3.1972	-41.0430	6.7309	11.1729	2.6763	-0.8067	-7.5019	-6.5909	-0.4431
6760.3172	4.4738	16.7792	28.9339	32.3750	14.1225	20.8214	-5.9667	-19.4209	-15.6655	21.7751	33.4929	29.6334	-3.8093	8.5675	-5.1726	-6.9468
6768.3176	1.3166	25.0086	27.1806	19.5070	20.6903	39.0181	-13.0201	-19.5827	7.9636	42.5046	53.8621	32.9157	4.3337	29.0099	-14.0732	-30.5904
6776.3180	-3.5984	1.6955	-3.3726	-7.6032	-0.6051	7.4886	-6.0368	-8.4879	-22.8263	22.4959	16.5893	1.5638	4.9582	9.8796	-11.8396	-27.9773
6784.3183	-4.2262	-5.4908	-5.5159	1.0111	-5.3383	-10.5813	-1.9555	-5.1273	-30.1755	3.7912	-3.0950	-2.9672	-0.2493	-9.9494	-9.3375	-16.4846
6792.3187	-1.8011	9.6870	10.2320	8.4627	9.3578	15.9844	-5.3553	-9.4888	-21.4206	7.5305	22.2822	14.7218	0.7399	-4.5413	-10.7871	-18.8109
6800.3191	-2.3981	8.5175	2.5092	7.2912	15.1205	15.4462	-6.7667	-16.3368	-11.3817	14.7495	18.5799	11.5498	-1.2170	2.2846	-9.5770	-21.8188
6808.3195	-7.3385	-1.1961	-7.1690	-2.4699	8.6645	-0.8171	-6.7470	-15.3437	6.7932	10.6767	-6.9908	-1.3973	-2.3233	-3.6992	-12.0594	-21.4692
6816.3198	-7.4821	-8.4888	-12.3196	-26.8021	-3.4211	-5.5158	-4.3943	-13.0547	-14.6651	1.5820	-8.3048	-14.4448	2.2408	-10.3446	-12.0954	-20.1571
6824.3202	-3.8898	-14.9068	-20.5902	-20.8154	-13.7925	-20.0839	0.2639	-8.2502	-35.5133	-11.7798	-10.8149	-22.1726	0.5508	-20.8050	-8.6482	-9.9646
6832.3206	-2.8441	-2.6632	-1.1923	9.3658	-3.2907	-7.8614	-4.8428	-18.7626	0.3678	-18.4790	-9.7735	-4.5718	-6.0237	-19.5285	-10.5882	-3.1961
6840.3210	-4.5344	2.7593	7.9440	4.7863	7.4058	-4.0067	-10.4220	-29.1373	18.3725	-7.1522	5.0795	0.4736	-3.1201	-5.0703	-14.9846	-17.2362
6848.3213	-5.8329	-8.4240	-6.5268	-3.8425	-1.6730	-25.0961	-6.1016	-19.3653	-0.2906	-5.5815	-3.9801	-11.6731	-1.2892	-13.0926	-14.4676	-19.9944
6856.3217	-8.0230	-0.8666	5.2531	7.4946	6.2638	-5.5746	-9.1715	-25.8640	15.7562	-6.3487	-17.0082	1.0200	-6.4941	-14.4737	-13.5856	-16.7251
6864.3221	-10.3763	3.7663	8.1942	3.4900	13.0505	-1.9747	-12.6772	-23.1938	31.1217	1.4615	-6.0162	5.0437	-1.5118	-2.4088	-16.3205	-32.7633
6872.3225	-6.9380	-5.6443	-7.0615	1.8612	0.0945	-23.5816	-7.0843	-11.4504	6.7282	-7.7581	-4.1638	-7.5149	1.1018	-10.9895	-11.6577	-31.5188
6880.3228	-8.3154	-6.8242	-7.7864	6.5431	2.6207	-20.4901	-5.2717	-12.3002	-2.8703	-18.2579	-21.5726	-6.2373	-3.8799	-15.3476	-6.6582	-24.5268
6888.3232	-11.2163	-3.1365	1.9266	9.8658	3.6175	-16.9547	-6.0256	-2.0188	11.7986	-13.3536	-25.2161	1.6197	-1.4952	-8.8457	-8.0467	-27.7349
6896.3236	-9.7779	1.2794	4.5419	6.1254	15.5608	-9.3563	-25.7164	-67.5644	37.8272	-8.4172	-10.7704	-3.0556	-3.1760	7.7191	-5.3168	-74.9096
6904.3240	-7.2327	-0.3116	8.7725	7.6833	12.9054	-16.1839	-21.9932	-61.0052	19.7883	-5.8794	-4.0868	-0.4545	-1.9278	-1.0114	-2.4854	-71.8025
6912.3243	-5.2060	3.4456	13.6608	16.6070	17.6967	-12.6469	-18.4071	-50.4572	20.9552	-12.2816	-3.2183	6.7989	-2.9799	-2.7792	3.6964	-62.1515
6920.3247	-7.4608	7.9399	14.4537	21.6394	20.1776	-4.1108	-20.4879	-43.4054	47.1837	-3.9334	-7.5645	12.0775	-1.9343	6.4128	2.0151	-65.6769
6928.3251	-4.7854	7.7520	13.1316	20.0083	14.4680	-2.8088	-16.7640	-31.5972	34.5186	-2.2803	-1.2634	12.2096	0.9093	7.0532	5.1324	-60.2915
6936.3255	-2.0620	2.0958	10.5490	21.8914	6.0010	-13.7235	-10.5446	-22.5790	9.7062	-13.5307	-5.9673	8.0170	-0.3265	-4.9684	9.6509	-46.6505
6944.3258	-3.4786	4.3218	6.0568	14.4746	2.4331	-3.1706	-13.3104	-20.2013	32.4886	-0.3586	-3.9526	5.5330	2.6420	7.1381	3.1443	-47.6806
6952.3262	-6.1589	-2.9304	-13.1203	-16.0103	-16.5195	5.2404	-10.2939	-4.4474	28.7920	-4.2874	-17.4273	-12.9196	8.4009	7.8947	-1.0877	-39.4465
6960.3266	-5.5053	-11.5885	-15.5371	4.8911	-22.9626	-22.1834	-2.3362	6.9858	1.9552	-20.3897	-32.9738	-14.7333	1.4370	-11.1179	-0.5352	-19.3929
6968.3270	-5.1065	-5.1913	-6.4973	23.7413	-9.7714	-24.3782	-2.1264	9.7056	13.9781	-9.5866	-20.2623	-2.0030	-1.2567	-5.6617	-5.3072	-14.3283
6976.3273	-6.1795	-0.9228	-8.6656	-10.7411	-12.8248	12.9162	-3.0992	10.4925	17.4155	-1.9812	-21.0800	-5.4065	3.8063	-0.9712	-5.4867	-9.7242
6984.3277	-5.2951	-0.0523	-4.9375	-1.1655	-9.8210	7.9277	-2.4290	10.4807	8.5496	-0.6757	-16.4545	-0.8552	2.6463	0.8915	-4.5595	-10.4417
6992.3281	-6.2478	-3.2551	-4.4335	15.8602	-3.0632	-24.4920	-0.2016	18.8830	8.0508	-9.8645	-9.2879	-0.4897	2.3687	4.7473	-6.2186	-14.5142
