Time	Fz	Fpz	C3	C4	T5	T4	O1	O2	F7	F8	F3	F4	T3	T6	P3	P4
0.0000	-4.3858	-0.5579	-86.1109	127.1407	-11.6689	2.5297	0.7363	-5.2354	-53.4190	-3.0712	10.7457	-4.4109	-1.5294	-1.9939	3.7228	-0.8695
8.0001	-0.2034	1.3471	-18.8960	-46.5005	0.7114	-6.8751	1.7619	15.1080	-12.8874	3.0043	9.7612	0.1340	-1.0312	4.1937	-58.0608	4.1084
16.0003	-1.4691	-0.7692	-30.6982	-44.3383	0.1796	-9.9695	1.0288	2.2313	-10.1751	3.0868	8.8300	-0.3497	-0.3633	2.0253	-42.7476	2.2317
24.0004	-2.1261	-2.6069	-16.5088	-53.5011	0.7648	-22.5130	0.5472	18.6674	-9.4169	3.9576	9.6980	-0.4720	0.1713	1.7764	-40.0200	3.6662
32.0005	-1.7695	-1.7261	-18.0732	-63.5986	0.4063	-18.0082	1.3248	26.3869	-3.3678	4.3396	8.1588	-0.2144	-0.2874	3.5427	-33.9054	4.6835
40.0007	-3.9687	-4.0361	-43.2507	-74.7165	-1.1250	-24.8422	1.0842	21.7184	0.7650	5.6684	8.8437	-1.1968	0.1824	2.5130	-33.4917	4.1939
48.0008	-3.5797	-3.2181	-58.5484	-80.9547	-1.2028	-20.6673	2.2103	18.2830	-13.5833	5.9849	13.8459	-0.8424	-0.6417	4.2138	-34.9765	4.8697
56.0009	-0.9926	0.4425	-55.8638	-82.0023	-0.2547	-1.8899	3.6900	11.8631	-17.2174	4.9263	13.3825	0.5141	-1.9186	6.9737	-28.3506	4.9577
64.0011	-2.0740	-2.0780	-48.6497	-87.2772	0.5903	-11.9990	2.3025	6.6438	-9.9036	5.3249	11.7940	0.1811	-0.7407	4.3260	-25.2174	3.6762
72.0012	-2.6197	-3.0882	-45.6960	-82.9211	0.9358	-15.3131	1.2354	-2.9085	-3.9040	5.0877	9.8179	-0.1514	0.0230	2.1411	-29.5624	2.1111
80.0013	-2.5857	-2.0724	-50.0481	-74.9110	-0.1836	-9.1871	1.3561	-3.8546	4.4971	4.6399	6.4693	-0.4278	-0.1452	2.3416	-30.2750	1.7450
88.0015	-3.5349	-3.2099	-62.4788	-75.2444	-1.6061	-11.1488	1.7463	1.7120	2.7918	5.1153	7.1333	-0.8082	-0.2755	2.7522	-12.1707	2.2583
96.0016	-1.1881	1.4748	-66.1799	-69.4627	-3.1602	10.5209	4.3990	18.2080	1.0822	4.2649	5.6895	0.1161	-2.4002	8.1304	3.3366	4.7932
104.0018	-0.1381	3.9410	-54.7709	-68.0137	-3.6130	16.3217	5.1085	35.0036	9.1028	4.0494	2.8884	0.2992	-3.0395	10.4164	-8.5084	6.6548
112.0019	-1.7077	0.6948	-53.0257	-72.5796	-2.2472	1.0974	3.2117	20.3009	7.9610	4.6267	4.7371	-0.2894	-1.5439	6.4925	-22.8861	4.6768
120.0020	-0.5195	2.0228	-58.7331	-69.9450	-1.3837	8.7976	3.9022	7.9594	-6.5799	4.0063	8.5041	0.4309	-2.2052	7.2521	-22.0985	4.1357
128.0022	-1.0117	-0.2600	-56.2068	-74.5859	0.0604	0.3570	3.1141	-1.6871	-15.7333	4.2431	11.7486	0.5967	-1.5258	5.3169	-13.5239	3.0433
136.0023	-3.5914	-5.1240	-53.9440	-67.9827	0.3798	-18.0618	0.4335	-16.3060	-8.6213	4.5101	10.0510	-0.5774	0.5997	-0.3280	-8.9268	0.0669
144.0024	-2.7492	-3.3459	-40.9713	-49.8120	-0.3960	-11.8109	0.4947	-7.1139	-0.9429	3.4034	5.7692	-0.6083	0.3248	0.2806	-8.0192	0.4747
152.0026	-1.5953	-2.5767	-28.7213	-55.3158	0.9186	-7.5078	0.6672	-7.8783	1.1783	3.0604	4.5198	0.1781	0.1956	0.8379	0.7864	0.3947
160.0027	-1.3016	-2.2072	-34.4017	-51.0187	0.9010	-2.2210	0.7784	-17.8466	-0.4682	2.5773	4.2670	0.3485	0.0583	0.5861	7.6833	-0.6246
168.0028	0.6862	0.9291	-25.5845	-26.4343	0.6045	11.3815	1.5949	-16.3296	-7.2660	0.7643	3.4401	0.9449	-0.9430	2.1717	12.2997	-0.3846
176.0030	1.6004	2.5382	-13.0007	-18.1435	0.4635	16.2406	1.7868	-7.7041	-1.4699	0.0973	0.5425	1.1351	-1.2334	3.0821	10.3719	0.2729
184.0031	0.3641	1.3368	-9.1871	-23.0873	-0.2041	3.8687	1.3977	10.2538	1.2474	1.1766	1.4519	0.3578	-0.8394	3.0584	-7.4535	2.0577
192.0032	-0.4328	-2.0128	2.5580	-29.0610	2.2321	-13.1388	-0.1321	1.5802	-11.6697	1.6514	6.5400	0.4219	0.3772	-0.0519	-10.3250	0.9892
200.0034	0.5871	-0.0679	3.3129	-17.7730	1.7977	-2.4121	0.3164	-1.7922	-8.7232	0.6427	3.9999	0.6973	-0.1359	0.7161	-6.0944	0.5622
208.0035	2.1699	4.7939	-7.2512	-2.9307	-0.9611	17.1315	2.6643	15.7739	-8.2667	-0.1799	2.2530	0.8249	-2.1415	5.5629	-10.7941	3.1344
216.0036	1.0469	1.9914	-21.1858	-12.3037	-0.0304	10.0369	1.9988	-3.7932	-18.1933	0.4049	6.3236	0.7739	-1.4599	3.2824	-0.4929	1.2243
224.0038	-1.4026	-2.7564	-22.6028	-22.0150	0.8685	-7.2785	-0.3200	-20.0327	-8.8000	1.3248	5.0394	-0.0866	0.5485	-1.6170	2.4673	-1.5167
232.0039	-1.6495	-4.4418	-8.3702	-30.3737	2.8421	-16.6651	-1.5298	-25.5744	-7.5088	1.6188	5.4785	0.0519	1.5118	-3.7109	-4.5738	-2.4066
240.0040	-0.6103	-3.7139	-13.8516	-42.8708	4.0979	-11.1472	-0.5998	-33.3434	-19.3220	1.7519	9.3857	0.9918	0.8762	-2.3202	3.1092	-2.3242
248.0042	0.5685	-0.4766	-18.1301	-41.8443	2.3401	1.5439	1.3465	-13.6676	-16.6327	1.6316	7.8973	1.2924	-0.6218	1.9202	6.8191	0.3127
256.0043	0.0380	-0.8706	-15.5921	-33.6538	1.6517	0.2641	0.7267	-13.1336	-7.6343	1.3668	4.6468	0.8018	-0.1963	0.8262	6.3984	-0.2753
264.0044	-1.9552	-3.5517	-18.1475	-31.3019	0.4459	-10.7357	-0.3954	-8.5991	2.7185	1.9734	2.0885	-0.2691	0.8068	-1.3077	11.5974	-0.7311
272.0046	-1.0069	-2.7204	-1.7781	-40.2153	0.7500	-11.1383	0.5738	16.4004	2.2542	2.3529	2.2503	0.3652	0.1854	1.4685	23.7345	2.0870
280.0047	0.4988	-1.6443	4.1350	-40.7524	2.3566	-3.7818	0.9329	5.6172	-5.5641	1.5992	3.5852	1.3721	-0.1818	1.8651	33.2042	1.3029
288.0048	-0.1409	-1.2489	-1.8538	-29.9662	0.8963	-4.5071	0.8009	9.5852	-2.5132	1.5194	2.6729	0.6161	-0.1931	1.7104	18.0588	1.5774
296.0050	1.1501	1.5628	0.2272	-34.5204	0.6276	1.4740	2.3371	26.7682	-9.0007	1.7198	5.0987	1.0790	-1.4312	5.3401	2.2383	4.3756
304.0051	2.6878	3.7627	-1.1452	-34.7278	1.5191	12.5887	3.0593	16.1264	-14.2962	1.0297	5.9873	1.8770	-2.1212	6.4882	-1.6041	3.8837
312.0053	2.5484	3.0999	11.3668	-22.6366	2.0853	8.7210	1.8584	11.0184	-10.2046	0.3523	3.9031	1.6316	-1.3711	4.2898	-6.9609	2.6201
320.0054	3.8811	3.2448	23.9432	-24.6464	4.6577	9.4368	1.6600	-0.8419	-23.1730	-0.2399	7.3233	2.6517	-1.3332	3.7106	-4.5826	1.7275
328.0055	3.8326	2.6079	20.2726	-35.7133	5.6685	7.8768	1.5607	-9.6781	-26.7108	0.1634	9.2695	2.9205	-1.1638	3.2585	-5.8788	1.1229
336.0057	2.1968	0.9468	10.7254	-38.9746	4.2975	-0.2981	1.2620	-2.2160	-22.3905	1.0909	9.1924	2.0348	-0.7724	2.7230	-8.3232	1.6721
344.0058	3.5614	3.0250	11.0622	-24.8352	4.0641	9.6562	2.1568	-2.6283	-32.1315	0.0085	10.3819	2.5565	-1.6715	4.2292	-1.5432	1.9759
352.0059	4.9149	5.3276	31.0349	-0.0258	3.6368	17.1716	2.1223	6.6032	-26.3464	-1.5978	5.9789	2.6922	-1.9932	4.7565	-2.1799	2.3070
360.0061	4.2715	5.0650	29.9187	13.0098	2.2928	16.8354	1.7129	9.4073	-19.0764	-1.9678	2.9472	2.0567	-1.7497	3.9710	0.4797	1.9575
368.0062	3.1798	2.9556	20.5408	6.2556	2.6471	10.6398	1.0500	-2.3795	-21.2232	-1.4323	4.5330	1.7841	-1.1067	2.1367	4.1311	0.6410
376.0063	2.9843	2.3586	29.0516	6.1590	3.2077	5.3145	0.4603	-0.3203	-19.9517	-1.3370	4.4739	1.6643	-0.6820	1.2951	-3.7330	0.6418
384.0065	4.9329	5.8821	28.1305	21.0283	2.7558	20.7532	1.8401	0.2974	-28.4637	-2.6178	5.1088	2.3319	-2.0187	3.8603	-4.0170	1.3202
392.0066	4.0966	4.6256	31.9095	23.3085	2.3265	13.9020	1.2793	6.8929	-24.7536	-2.3452	4.2228	1.8563	-1.5431	2.9935	-2.8246	1.5440
400.0067	2.4300	2.9541	30.6632	35.1397	0.7097	4.5973	0.3442	14.9169	-18.0221	-2.1299	2.3231	0.6782	-0.8401	1.3550	-7.7218	1.5858
408.0069	3.3945	4.0638	22.6040	49.5765	1.3441	15.3649	0.2731	-11.6074	-26.4405	-3.5369	3.0970	1.1230	-1.0440	0.2039	-4.4556	-1.0354
416.0070	1.4138	-0.8038	28.9518	30.4730	3.3666	-3.8653	-1.9109	-24.6832	-20.2063	-2.3351	3.2304	0.7490	0.9315	-4.1974	0.6587	-3.2123
424.0071	2.6478	2.7416	25.8276	31.2723	1.5494	6.3736	0.2954	2.1886	-23.1064	-2.2191	3.9495	1.0018	-0.7958	0.7901	-5.4894	0.5103
432.0073	5.5540	8.1062	30.2408	40.0542	1.6915	26.5388	2.1104	5.3047	-28.7424	-3.5094	4.0799	2.0448	-2.5294	4.6631	-22.6937	1.8807
440.0074	1.8802	1.2946	39.8889	23.0722	3.0763	-4.8660	-1.4182	-2.8478	-12.0299	-1.7169	2.1095	0.5819	0.5069	-1.9350	-33.9560	-0.5238
448.0075	2.4096	3.6174	33.5849	37.4395	0.7166	4.1901	-0.0286	14.2323	-12.8599	-2.1981	1.0982	0.3956	-0.6656	0.9512	-28.9296	1.4691
456.0077	3.7718	5.9652	36.4304	53.6646	0.2461	16.3648	0.6116	12.6964	-13.5475	-3.5069	-0.8680	0.7993	-1.3890	2.0842	-21.9410	1.2820
464.0078	1.5641	1.5420	35.9939	45.7966	0.9222	-0.1854	-1.3149	2.2165	-7.8173	-2.6369	-1.2909	0.0558	0.3131	-1.9872	-14.4194	-0.7272
472.0079	4.3671	6.5812	27.9422	52.6383	0.3096	24.5563	1.2151	2.9488	-16.6408	-3.8780	-0.6954	1.2848	-1.8244	2.6680	-5.7983	0.5062
480.0081	3.1916	5.0099	24.4668	55.2315	0.2269	20.5222	-0.1485	-11.2296	-5.1724	-3.9062	-3.9911	0.6147	-0.7775	-0.2615	-11.3172	-1.7317
488.0082	0.1942	0.6362	21.4788	54.2260	-0.6936	0.2604	-2.0443	-8.2507	3.9603	-2.7438	-5.0902	-0.8952	0.8741	-3.8897	-14.8495	-2.4888
496.0083	3.2380	5.0104	30.5760	54.1489	-0.2530	18.1965	0.3159	5.4443	-5.8439	-3.6200	-3.7889	0.6493	-1.0587	1.0849	-2.9326	-0.0078
504.0085	3.7302	4.7861	40.9754	49.9020	1.1820	17.4296	-0.1371	-0.1077	-4.6602	-3.8032	-4.2609	1.0799	-0.7244	0.3099	-2.0903	-0.7200
512.0086	3.3197	4.4458	41.3650	57.1388	0.6607	15.0536	-0.4536	1.7936	-3.9144	-3.9307	-4.7022	0.7096	-0.5388	-0.2717	-4.8177	-0.7813
520.0088	3.2589	4.5344	36.9376	62.7963	0.0570	19.4854	-0.4863	-3.5423	0.9590	-4.3493	-7.0752	0.6259	-0.5255	-0.6462	6.2318	-1.6693
528.0089	2.2379	3.7581	27.6912	77.0667	-1.5207	17.7517	-0.8526	-4.7865	1.9077	-4.5996	-7.9452	-0.1552	-0.3062	-1.7116	9.2564	-2.2485
536.0090	2.2004	4.4471	20.4367	86.8216	-2.8387	18.6917	-0.0874	4.8595	-7.8639	-4.6786	-5.2669	-0.3947	-0.9678	-0.2938	8.4273	-0.8712
544.0092	0.1739	0.1331	17.6372	75.7912	-1.5426	4.0494	-2.1708	-15.5058	-2.1174	-3.8959	-5.5587	-0.9667	0.8393	-4.8951	12.0770	-3.7928
552.0093	-0.3179	-0.6609	21.1946	95.5190	-1.8726	1.2112	-3.2225	-22.6377	-2.0140	-4.7480	-6.8199	-1.4883	1.4396	-7.1788	10.8160	-5.2560
560.0094	-0.1578	0.6263	22.6996	119.0389	-3.8418	4.4639	-2.7516	-8.0986	-4.2318	-5.5645	-7.7933	-1.9408	0.8639	-6.0525	12.6943	-3.9957
568.0096	-2.3596	-1.5938	9.7831	116.1056	-5.5731	-3.9381	-3.5348	-6.0683	8.3879	-4.6188	-10.3823	-3.1606	1.6597	-7.6542	10.8775	-4.4125
576.0097	-3.3665	-2.9407	2.9314	107.9691	-5.9279	-9.9839	-3.7038	-3.9751	9.1862	-3.8025	-9.4184	-3.5443	1.9498	-8.0318	10.1309	-4.1715
584.0098	-3.8973	-6.8293	18.0120	74.9817	-2.0767	-25.8734	-5.0995	-15.5570	6.9411	-2.4822	-6.4453	-2.7949	3.3795	-10.7202	20.1942	-5.4740
592.0100	-1.6895	-3.6205	28.9194	56.9893	-0.8538	-14.5946	-3.5662	-5.0664	9.6024	-2.3692	-7.0161	-1.5331	2.2530	-6.9897	16.0921	-3.4941
600.0101	-0.3967	0.4986	20.0879	46.3950	-2.9591	-0.8150	-0.8189	23.9488	12.9356	-1.7596	-7.5192	-1.1714	0.2497	-0.8548	10.4295	0.6978
608.0102	-3.5272	-6.0831	6.7411	-0.0529	-0.7201	-24.0024	-2.7915	2.6883	20.1868	1.0222	-5.1930	-1.6130	2.4416	-5.3150	18.0301	-1.7871
616.0104	-3.5305	-5.7405	-6.4460	-10.0454	-0.6442	-19.4975	-2.4210	-7.9288	20.7431	1.3454	-4.6582	-1.4703	2.2477	-5.0137	15.5357	-2.4502
624.0105	-2.9322	-3.8038	-7.6444	-12.9744	-1.8811	-14.3046	-1.0268	12.2568	21.5189	1.6543	-4.7645	-1.3495	1.2248	-1.7524	14.6911	0.1547
632.0106	-3.1349	-6.3846	0.5677	-50.1148	1.1105	-26.8695	-1.2450	12.3309	14.4638	3.3795	0.1841	-0.5098	1.7972	-1.9668	20.9410	0.7460
640.0108	-1.9234	-3.2763	-10.5546	-53.2472	-0.0241	-15.5949	0.8491	24.9148	6.1484	3.4986	2.8135	-0.0624	0.1729	2.2368	15.5119	3.2455
648.0109	-2.5587	-2.0800	-26.2268	-55.9121	-2.6363	-10.2324	1.8373	38.3291	18.2490	4.0988	-0.3332	-0.7136	-0.4565	4.3830	12.8173	4.7505
656.0110	-2.8648	-3.4477	-32.9407	-72.4484	-1.5134	-11.6016	1.6334	25.0900	18.1248	4.6763	0.6417	-0.3760	-0.0903	3.5014	22.9878	3.5221
664.0112	-3.4624	-5.3088	-32.7087	-72.0020	-0.5379	-18.1045	0.6874	12.8026	13.0539	4.6789	2.4043	-0.4625	0.6374	1.2398	24.9753	2.0100
672.0113	-2.8844	-4.4597	-23.7591	-78.4857	0.3957	-16.8366	0.5188	12.3365	19.2818	4.6959	0.8957	-0.2028	0.7330	1.3607	11.2994	2.0181
680.0114	-0.5669	0.3116	-32.3406	-78.0595	-0.1740	2.6958	2.8692	17.2293	11.2061	4.0946	2.5856	0.7175	-1.2315	5.9857	1.9782	3.8923
688.0116	-2.7283	-2.7228	-47.8598	-78.1290	-1.1808	-8.2648	1.9997	11.6129	9.8789	4.8819	4.1041	-0.2771	-0.4087	3.7184	5.5017	2.9439
696.0117	-3.1558	-3.5356	-49.0974	-78.5464	-1.3392	-9.1768	1.6630	8.5694	14.7528	4.9080	2.4644	-0.4189	-0.0848	2.9140	14.4846	2.2591
704.0118	-1.3805	-0.4691	-48.1928	-68.2486	-1.7209	4.7857	2.9728	11.6183	9.6132	3.8695	2.2886	0.2618	-1.2819	5.4461	19.3987	3.0531
712.0120	-3.6208	-5.2965	-42.6974	-83.0063	0.1874	-17.9169	0.5836	-0.5077	11.2612	5.1366	4.2858	-0.4289	0.7515	0.7414	7.6096	1.1498
720.0121	-3.2832	-4.8792	-37.5276	-85.6555	0.8360	-18.6635	0.5156	-0.0557	10.3298	5.1737	4.9175	-0.2766	0.7582	0.8524	-3.1576	1.3737
728.0123	-2.0043	-2.0558	-38.2920	-66.7816	-0.4460	-5.4971	1.5408	4.5508	9.0260	3.9375	3.1479	-0.0555	-0.2692	2.8155	1.8873	1.9496
736.0124	-3.2900	-4.4555	-38.7262	-70.3038	-0.0600	-15.7269	0.4086	-1.1496	10.8525	4.4567	3.5250	-0.5564	0.6920	0.4765	-0.2638	0.9236
744.0125	-2.3226	-2.5384	-29.5145	-69.5241	-0.2614	-13.5893	1.3334	17.4860	7.1808	4.4677	4.6494	-0.2770	-0.0972	3.0188	-10.6861	3.3488
752.0127	-1.3296	-0.6246	-22.0545	-63.8923	-0.3598	-8.8329	1.8953	26.1349	6.1252	4.0310	4.3848	-0.0265	-0.6749	4.5608	-19.6732	4.4916
760.0128	-1.2643	0.2620	-35.9313	-55.3333	-0.9853	-1.8381	2.0195	11.7969	4.2849	3.4759	4.3701	-0.1883	-0.9026	4.1731	-25.5909	3.1732
768.0129	-0.3290	3.0426	-40.6185	-37.0161	-2.6975	12.0488	2.8881	14.1231	8.8729	2.3242	0.9675	-0.2210	-1.7891	5.7991	-23.4555	3.3580
776.0131	-0.2099	3.0005	-38.1566	-40.1177	-2.2238	12.1335	2.7196	11.2909	10.9455	2.3317	0.4431	-0.0990	-1.6491	5.5095	-24.6575	3.0231
784.0132	-0.4836	1.8435	-42.4083	-39.9121	-1.1814	7.6442	2.1918	-2.5294	-0.7705	2.3287	4.4360	-0.0465	-1.2906	3.9442	-29.7391	1.8266
792.0133	-0.4634	1.0492	-25.8395	-21.5505	-0.2552	3.3370	0.6696	-11.3221	0.8097	1.2384	2.5537	-0.2393	-0.3853	1.0319	-34.4235	0.0189
800.0135	-0.2596	0.6950	-13.7169	-17.5875	0.8150	1.2264	-0.2340	-17.5525	4.5939	0.7747	0.9399	-0.1577	0.2015	-0.5724	-39.0534	-1.0877
808.0136	-0.3302	1.3328	-20.2049	-12.3244	-0.4721	4.7015	0.3458	-11.2210	5.1317	0.6958	0.3439	-0.3567	-0.2436	0.5077	-33.6503	-0.3878
816.0137	-1.0638	1.3051	-24.1481	5.1790	-2.6160	5.5375	0.2418	-3.3570	11.8706	0.2595	-2.8560	-1.1393	-0.2402	0.3059	-26.6185	-0.2311
824.0139	-0.7293	0.4179	-13.9224	4.9044	-1.3727	1.6318	-0.0396	-3.9301	4.3042	0.0986	-0.8902	-0.7039	-0.0246	-0.2645	-16.0218	-0.3625
832.0140	0.2292	-0.4995	5.7061	-7.3077	1.3673	-1.4512	-0.4560	-7.9940	0.8040	0.0437	0.0563	0.3440	0.3793	-0.9102	-0.7521	-0.8664
840.0141	-0.1862	-0.6752	-0.9202	-7.3524	0.9090	-0.0654	-0.6521	-13.7834	6.3303	0.0719	-1.5522	0.0796	0.5534	-1.4969	-1.5856	-1.6372
848.0143	-1.3471	-2.0679	-7.7224	-8.9018	0.1831	-6.5208	-0.9854	-11.4127	7.0810	0.6624	-0.9401	-0.5094	0.9070	-2.2236	-3.1929	-1.5372
856.0144	-2.1325	-3.8775	-0.3497	-8.3789	0.6323	-13.9598	-2.0966	-13.9246	12.9675	0.7588	-2.6235	-0.8259	1.8008	-4.3058	0.1038	-2.4914
864.0145	-1.6848	-2.4817	-10.3940	-3.3119	0.0316	-6.3354	-1.4937	-19.6015	9.9548	0.3645	-2.1895	-0.7564	1.2438	-3.4763	-3.4367	-2.7106
872.0147	-0.7967	-0.9122	-10.5729	-16.7642	0.0633	-1.1047	-0.2057	-7.8862	9.2133	0.8645	-1.3629	-0.1807	0.3795	-0.5868	-1.9152	-0.7887
880.0148	-1.1639	-1.1523	-10.1568	-20.1108	-0.4021	-3.7075	-0.1270	0.3194	12.4640	1.2821	-1.8478	-0.3976	0.3949	-0.1582	-3.1032	0.0166
888.0149	-0.7744	0.0730	-20.0725	-4.0411	-1.4519	1.8145	0.5859	-0.8364	-0.1915	0.5940	0.9458	-0.4603	-0.3432	0.7740	-3.6513	0.3090
896.0151	0.5857	1.7714	-13.9305	0.4518	-0.9991	11.9042	1.0523	-4.5173	1.7096	-0.2987	-1.1475	0.2159	-0.8054	1.6435	6.7354	-0.0884
904.0152	-0.0305	-0.3941	-3.0857	-4.2430	0.4336	3.6917	-0.3773	-13.5296	7.9687	-0.1850	-2.7470	0.1552	0.3537	-1.1123	9.8741	-1.7335
912.0153	-0.1978	-1.4333	6.8043	-11.6577	1.3541	-6.3374	-0.4929	-2.0289	-0.8184	0.4998	1.0695	0.2600	0.5105	-0.8763	4.0798	-0.2698
920.0155	1.5022	2.8277	3.9537	-6.2828	-0.1314	9.4460	1.4824	13.7771	0.1587	-0.0150	-0.1688	0.6688	-1.1473	3.4470	-3.6258	2.1411
928.0156	1.0172	2.0475	-5.1630	-1.0865	-0.1383	10.2721	0.9016	-2.9140	-0.1780	-0.3478	-0.4056	0.4433	-0.7465	1.6476	-1.5790	0.1805
936.0158	-0.3853	-1.2064	-7.6707	-7.9371	0.5930	-1.0207	-0.2358	-12.2558	-1.8864	0.2721	1.0078	0.1330	0.3048	-1.0058	9.3321	-1.2297
944.0159	0.3796	1.7282	-12.3302	2.1052	-1.5466	9.4889	1.2176	5.1674	1.0681	-0.1027	-0.8061	0.0219	-0.9185	2.2213	5.9238	0.9122
952.0160	0.4807	0.6119	-2.3600	-3.7048	0.1872	3.2144	0.5542	0.0942	-4.0852	0.0276	1.2533	0.3449	-0.4014	0.9896	3.2769	0.3825
960.0162	-0.1692	-2.0168	-2.1749	-19.4703	2.1923	-3.9922	-0.5444	-18.5244	-4.2472	0.5610	2.3467	0.6040	0.6308	-1.6407	11.7595	-1.7592
968.0163	0.6208	1.2916	-16.6580	-7.1563	-0.4753	11.6782	1.1988	-8.1708	-1.3125	-0.0364	0.1185	0.4940	-0.8172	1.7109	14.2822	-0.2740
976.0164	-0.0052	-0.2113	-11.0631	-16.2082	0.0813	3.8627	0.6709	-4.2672	1.5688	0.6081	0.1853	0.3786	-0.2725	0.9414	15.3596	-0.0891
984.0166	-1.7065	-4.2085	-6.8473	-26.6094	1.6082	-12.0836	-1.2766	-17.3680	4.9335	1.3807	0.5900	-0.0579	1.3989	-3.0764	16.6198	-2.1723
992.0167	-0.9170	-2.6290	-4.1812	-7.4989	0.7520	-6.9485	-0.6763	-10.1645	-3.4645	0.4420	1.5435	-0.0009	0.7035	-1.8853	18.0475	-1.3184
1000.0168	-0.2517	-1.9296	1.9730	-8.2714	1.2498	-3.7392	-0.5286	-9.8679	-1.9249	0.1670	0.6294	0.3652	0.5605	-1.4516	20.6460	-1.2845
1008.0170	-0.8975	-2.9837	1.9609	-12.6050	1.3983	-7.8445	-1.1096	-12.7167	3.4800	0.4968	-0.4506	0.1048	1.0809	-2.5652	18.9464	-1.8692
1016.0171	1.0194	0.5572	4.9143	-0.2760	0.8477	2.0831	0.7023	3.0694	-13.3358	-0.2532	3.5281	0.7366	-0.5657	1.2859	10.8747	0.8120
1024.0172	3.6388	5.3574	6.2158	6.0014	1.3832	22.0579	2.0192	-4.6113	-15.4733	-1.5478	2.7812	1.7102	-1.9000	3.9263	-7.9631	0.8966
1032.0174	2.3392	3.4768	12.3170	5.1890	1.3722	14.7520	0.4215	-9.4574	3.2055	-1.3317	-2.5049	0.9709	-0.6127	1.0565	-12.6592	-0.6999
1040.0175	0.7040	0.5405	12.9598	-0.2250	0.3150	0.8398	0.3048	11.5713	1.4020	-0.1656	-1.0151	0.3956	-0.2270	1.0749	9.2179	1.0860
1048.0176	1.4929	1.9571	-0.2832	0.0316	0.0287	10.1876	1.4403	5.2554	-8.4206	-0.4499	1.5007	0.8688	-1.1223	2.7040	16.1904	1.1580
1056.0178	0.2820	0.3184	-7.0349	3.2252	0.2367	5.5167	-0.0346	-14.7408	-1.5856	-0.5009	-0.1446	0.1856	-0.0365	-0.6398	3.7281	-1.4829
1064.0179	-0.5180	-0.6371	-5.3112	3.6047	0.0024	-0.0299	-0.7214	-13.4632	4.3796	-0.2291	-1.4544	-0.3141	0.5107	-1.7898	-3.5211	-1.7367
1072.0180	1.1654	2.4202	7.2702	14.1948	-0.1275	8.2364	0.1936	-0.1897	2.0070	-1.0617	-1.9472	0.1526	-0.4355	0.6497	-14.0624	-0.0146
1080.0182	0.0432	0.4309	14.5489	18.3981	-0.0170	-3.4022	-0.9756	2.9118	3.3275	-0.7906	-1.8373	-0.4727	0.4539	-1.3918	-20.7919	-0.2662
1088.0183	0.5141	0.3627	9.8425	13.5953	0.7183	0.8661	-0.6896	-7.7993	-1.5999	-0.9591	-0.6791	0.0755	0.2905	-1.3655	-6.5080	-1.1481
1096.0184	3.9068	5.9898	11.5864	23.1728	0.7221	25.7827	1.7643	-4.4300	-11.6187	-2.5085	-0.0567	1.5400	-1.8851	3.4398	-3.0878	0.3591
1104.0186	2.5393	4.5695	13.4108	28.8503	0.2334	15.8835	0.5278	-3.5740	-5.1525	-2.2074	-1.2182	0.5648	-0.9906	1.3023	-23.1044	-0.1112
1112.0187	0.6984	1.0335	16.2897	25.6259	0.8446	2.0340	-1.4084	-13.7684	3.2119	-1.6848	-2.8376	-0.1789	0.6161	-2.6179	-22.8430	-2.1399
1120.0188	1.5772	2.8258	10.7491	32.6329	-0.0482	11.7045	-0.2881	-10.1340	-0.9371	-2.2314	-2.7378	0.1454	-0.3116	-0.6235	-12.4831	-1.4241
1128.0190	1.4194	2.9710	3.2570	31.8558	-0.4455	11.9852	0.0425	-10.0576	-5.3353	-2.0257	-1.0153	0.0458	-0.5534	-0.1380	-16.1076	-1.0909
1136.0191	2.3836	2.7401	20.8610	22.9034	1.3443	10.0155	0.1433	-4.1789	-9.4071	-2.0037	0.0567	0.9197	-0.5592	0.4290	-2.6845	-0.4208
1144.0193	3.1533	3.3517	33.3759	28.6642	1.7031	13.0217	0.1374	-0.1286	-6.3709	-2.6286	-2.0880	1.2789	-0.6280	0.6795	7.4379	-0.3440
1152.0194	1.7681	1.6362	27.8759	39.7365	1.6018	7.3785	-1.6315	-20.3283	0.6027	-2.9621	-4.1696	0.3475	0.5961	-3.2369	-8.1468	-3.2259
1160.0195	2.0017	2.1602	26.9275	46.1866	1.3922	9.2558	-1.4863	-20.8910	-3.0847	-3.2918	-3.5001	0.3485	0.3913	-3.0405	-10.2814	-3.1923
1168.0197	2.6448	3.0881	31.7960	51.1017	1.0254	13.2406	-0.9232	-12.3946	-3.7929	-3.6581	-4.2055	0.6093	-0.0764	-1.7619	-0.2321	-2.3197
1176.0198	1.7291	1.5160	34.5636	57.4886	0.6164	5.2690	-1.5726	-7.7668	-4.8041	-3.5320	-3.8755	0.1025	0.4290	-2.9806	2.9058	-2.2958
1184.0199	1.9554	3.0629	31.3756	68.3214	-1.0758	8.3888	-0.6116	8.7139	-9.0145	-3.6859	-3.0674	-0.1677	-0.4093	-0.8154	-1.6940	-0.2843
1192.0201	2.1089	3.5652	35.0700	74.6988	-0.8507	10.7620	-1.2237	0.4032	-1.9790	-4.2320	-5.7212	-0.3030	-0.0803	-1.9714	-12.2909	-1.4950
1200.0202	0.6304	0.0700	34.3889	73.4216	0.1865	-2.4907	-2.7989	-13.6264	-6.6177	-3.8681	-3.5616	-0.7273	1.2068	-5.5609	-8.2431	-3.4745
1208.0203	-0.2016	-1.4228	19.0416	80.8540	-0.2907	-4.0635	-3.0625	-27.3584	-16.2392	-4.0298	-0.9665	-1.0237	1.4122	-7.0429	3.7765	-4.9414
1216.0205	-1.0306	-2.7549	19.0450	99.4478	-0.2866	-5.2375	-4.8599	-50.0302	-7.2397	-5.0827	-5.0428	-1.6809	2.5887	-11.1212	2.0177	-8.4313
1224.0206	-1.0834	-2.3552	34.3607	106.6045	-1.1106	-10.6712	-4.8020	-24.7637	-3.8129	-4.9725	-6.1814	-2.0419	2.4853	-10.0062	-5.2578	-6.0978
1232.0207	0.1731	0.2753	42.4932	99.4600	-1.6672	-4.3243	-3.2610	0.0006	-1.0888	-4.6944	-6.8824	-1.5540	1.3420	-6.0648	-8.5623	-2.9382
1240.0209	-0.6056	-1.9839	39.2281	82.6790	-0.1535	-10.1088	-4.2228	-17.2162	2.5485	-4.0372	-6.7378	-1.4591	2.2835	-8.3612	-4.3099	-4.9063
1248.0210	-0.5525	-2.8703	33.9229	51.0262	1.4104	-13.6841	-3.5683	-17.7218	-3.7304	-2.5779	-2.4877	-0.7529	2.1263	-7.1299	-0.5339	-4.0416
1256.0211	0.4328	-1.0378	36.1100	26.6337	1.7282	-5.6331	-2.3799	-7.6504	9.1109	-1.8207	-5.4266	-0.0463	1.4540	-4.1909	1.6508	-2.5033
1264.0213	-0.4519	-3.0542	44.1690	2.8314	2.1009	-15.8686	-2.5082	9.2847	18.8891	-0.3112	-6.5872	-0.0651	1.9430	-3.7595	13.7272	-0.9827
1272.0214	0.9578	-2.7749	57.5568	-31.2399	5.1684	-19.1471	-1.5765	17.2887	7.2173	0.8929	-0.9198	1.3884	1.4784	-1.3635	11.8369	1.0736
1280.0215	1.3746	-2.6632	60.5931	-38.4086	6.9770	-17.1171	-2.3894	-3.3792	12.1350	0.6543	-2.0643	1.7251	2.0390	-3.1293	-2.4407	-1.0886
1288.0217	-0.4545	-4.1512	40.4682	-39.4598	4.4354	-21.8195	-2.0422	6.7832	14.8202	1.6231	-1.9786	0.7340	1.9984	-2.7164	7.5999	-0.1476
1296.0218	0.9690	-0.4681	19.9994	-48.6193	2.7706	-5.9582	0.9678	21.8060	3.8554	2.0132	1.6081	1.4131	-0.2190	3.0624	11.7004	3.0398
1304.0219	0.9181	0.0276	14.9723	-39.8248	2.7226	-3.2503	0.4695	8.3669	4.9872	1.4744	0.9394	1.1381	-0.0136	1.7871	-3.6513	1.5691
1312.0221	-0.0612	-1.6415	14.6714	-42.9486	2.3045	-11.4312	0.2121	16.6323	4.3170	2.1166	1.8382	0.7570	0.3234	1.3877	2.8872	2.2166
1320.0222	1.1363	0.7816	7.8890	-48.9081	1.8991	-0.4174	1.7623	21.7537	1.3805	2.0968	2.5843	1.3591	-0.8443	4.4302	4.9865	3.5596
1328.0223	-0.6321	-0.3396	-8.9166	-37.1345	0.0238	-5.1562	0.9982	15.7071	5.0899	2.2553	1.9299	0.0671	-0.3210	2.5497	-10.3579	2.5587
1336.0225	-1.7469	-1.2736	-23.8512	-40.5356	-1.6164	-7.2956	1.4399	22.4528	5.9073	2.9815	2.3365	-0.4610	-0.4705	3.1721	0.0570	3.2971
1344.0226	-0.1167	0.2776	-17.6126	-51.7182	-0.2027	2.6732	2.1995	17.5931	7.2050	2.6557	1.3481	0.6806	-1.0033	4.6538	13.0005	3.1520
1352.0228	-0.7526	-1.1652	-9.2982	-50.1625	0.1915	-5.6262	1.3322	19.9434	8.5762	2.8194	1.2237	0.3768	-0.3336	3.1912	10.4579	2.9516
1360.0229	-1.2444	-1.3810	-15.0026	-41.4567	-1.3866	-5.5876	1.7133	29.3231	7.6589	2.7767	0.9030	-0.0111	-0.6021	3.8399	23.1258	3.7343
1368.0230	-0.6402	-0.8289	-18.0737	-44.9537	-0.9610	-0.1344	2.1395	23.0297	5.4104	2.5777	1.2212	0.4645	-0.9054	4.3719	32.0522	3.3220
1376.0232	-1.7354	-1.9039	-30.2740	-61.3867	-1.0706	-6.7931	2.1123	22.7531	4.9931	3.8732	3.6789	0.0546	-0.6906	4.3025	16.5184	3.7662
1384.0233	-2.8323	-3.0166	-36.5133	-63.9818	-1.2986	-12.2112	1.3368	16.5005	10.2222	4.3325	3.1405	-0.5782	-0.0618	2.7142	2.2391	2.9153
1392.0234	-2.8722	-4.2101	-26.4882	-56.5126	0.0397	-17.7482	0.2273	6.2635	5.1664	3.8186	4.2009	-0.5275	0.6553	0.3968	-0.0724	1.4698
1400.0236	-3.0918	-3.7160	-41.2808	-47.0856	-1.2030	-16.5051	0.9479	7.8358	-8.6139	3.7695	8.3565	-0.8205	0.0158	1.3645	-4.5055	2.2131
1408.0237	-2.6832	-2.2390	-51.6008	-39.7901	-1.8793	-9.0684	1.4729	1.5273	-12.0056	3.3034	8.8800	-0.8382	-0.5190	2.0418	-11.7637	1.9225
1416.0238	-1.2323	-0.2311	-38.6489	-31.8056	-1.2763	-1.2731	1.6993	2.1708	-9.8314	2.3286	6.8011	-0.2876	-0.8901	2.8021	-13.7578	1.9327
1424.0240	-1.0990	0.2529	-34.6347	-16.7257	-1.7610	1.1762	1.3239	0.2227	-6.6278	1.5149	4.5594	-0.5158	-0.7803	2.0635	-14.6276	1.2647
1432.0241	-1.6427	-1.0636	-34.0159	-20.4730	-1.2250	-3.1579	0.6486	-6.3034	-4.3044	1.7172	4.2343	-0.6332	-0.1981	0.6052	-12.6173	0.3046
1440.0242	-0.1318	3.3517	-41.6482	-16.9534	-4.0835	12.4658	3.6624	27.7091	-6.6320	1.7071	4.1441	-0.3057	-2.5140	7.1321	-6.8564	4.8602
1448.0244	0.7753	5.9522	-42.6284	2.5804	-5.9196	22.6822	4.7490	40.0212	-7.9010	0.7472	2.6948	-0.3562	-3.5634	9.4148	-4.4132	6.2231
1456.0245	-0.5696	0.4373	-26.2446	-7.6719	-1.7173	4.4125	1.2737	1.3234	-4.9749	0.7743	2.5097	-0.2500	-0.8060	1.9465	2.9971	0.9208
1464.0246	-0.9481	-0.8428	-24.0384	-9.5531	-1.4472	2.2802	0.7913	-2.4954	-0.6989	0.7826	0.9258	-0.2368	-0.3394	0.8339	18.6371	0.0430
1472.0248	-0.9641	0.4801	-35.8502	2.4040	-3.8677	8.6565	2.0008	10.8224	-3.2749	0.5640	0.7927	-0.5670	-1.2979	3.0882	28.5194	1.6110
1480.0249	-1.1849	0.4302	-42.1206	-1.9920	-3.7680	7.2211	2.0691	7.7573	-7.1160	0.9179	2.8137	-0.6615	-1.3364	3.1128	17.6228	1.6661
1488.0250	-0.0336	2.1918	-27.4001	4.3931	-2.9055	10.6685	1.9379	9.0306	-5.4317	0.2159	1.6587	-0.3428	-1.4642	3.3872	0.0600	1.8213
1496.0252	-0.5617	-0.5704	-13.3734	-0.3838	-0.4914	-0.1196	0.0939	-7.1206	-4.5183	0.2051	1.7266	-0.2233	-0.0270	-0.3451	1.6978	-0.5374
1504.0253	-1.6647	-3.2711	-9.6176	-17.9061	1.0492	-10.0113	-1.3168	-18.8828	5.0387	1.0465	0.3637	-0.3659	1.2727	-3.1215	0.8234	-2.2614
1512.0254	0.0336	-0.3447	4.7328	-14.1932	1.2605	-0.5481	-0.5769	-8.5302	10.5617	0.3451	-2.3716	0.2163	0.5423	-0.9546	-6.3648	-1.0359
1520.0256	0.2469	-0.0803	-1.7687	-13.1398	1.0710	1.4515	-0.0050	-8.9331	1.5920	0.3159	0.2291	0.3984	0.1037	-0.1475	-0.9592	-0.6728
1528.0257	-0.9526	-0.7298	-18.6117	-21.9673	-0.3779	-0.9503	0.3439	-4.5408	5.3451	1.3224	0.5115	-0.2217	0.0309	0.4172	-4.2964	-0.0030
1536.0258	-0.3358	0.7641	-17.6973	-22.5381	-0.7159	3.9211	0.9832	1.9170	7.0968	1.2479	-0.1391	-0.0527	-0.4944	1.9482	-9.3813	0.9406
1544.0260	0.0400	0.8306	-14.3589	-13.8029	-0.1545	4.1577	0.7440	-4.2265	-0.3917	0.6606	1.4144	0.1106	-0.4569	1.2635	-10.1550	0.3071
1552.0261	0.6845	1.8592	-0.6996	-6.4155	0.1197	5.8298	0.4863	0.4604	5.0775	0.0855	-1.0258	0.1897	-0.4137	1.2751	-18.0609	0.4859
1560.0263	1.6134	3.1617	3.6283	-3.1516	0.2595	12.0531	0.9601	1.8463	4.8117	-0.4282	-1.8411	0.6132	-0.8513	2.2747	-13.2009	0.7249
1568.0264	0.6154	1.3473	-0.1013	-0.8735	0.1524	4.3339	0.3667	-0.6406	-0.1861	-0.1420	0.1114	0.1946	-0.3562	0.8449	-11.1124	0.2774
1576.0265	0.1104	0.4716	6.8347	-9.4010	0.2465	-3.6685	0.2452	13.0489	1.5485	0.6598	0.7260	0.0134	-0.1360	1.1835	-15.4074	1.6764
1584.0267	1.5456	2.6478	11.4336	-11.4904	0.5419	6.6463	1.1471	15.4606	3.7866	0.1874	-0.7940	0.7294	-0.8716	3.1325	-10.5001	2.2310
1592.0268	1.8265	2.6186	22.6421	-5.9747	1.6031	7.0497	0.0804	4.1026	11.7064	-0.4991	-3.8994	0.7762	-0.1996	1.1424	-17.9048	0.4680
1600.0269	0.7139	0.7894	14.4287	-17.0435	1.7634	-0.0812	-0.3452	-0.4231	11.3240	0.3804	-2.3307	0.4570	0.3059	0.0773	-19.2281	0.0444
1608.0271	0.4936	1.0634	-4.0458	-18.9356	0.7231	4.1332	0.5412	-2.9596	4.5707	0.6405	-0.0508	0.4107	-0.2923	1.2280	-11.9911	0.3145
1616.0272	0.3926	-0.0037	12.5561	-11.2916	1.5277	-2.9697	-0.4256	0.0469	4.5779	0.2957	-0.5749	0.3351	0.3560	-0.3215	-11.6206	0.0292
1624.0273	0.8184	-1.1648	29.7211	-16.5964	3.1499	-7.1816	-0.8915	1.7273	4.0839	0.2134	-0.8347	0.9310	0.7911	-1.0189	6.4074	-0.1736
1632.0275	2.0048	0.2386	32.0227	-18.1815	3.8932	1.7259	-0.4414	-5.4695	4.6661	-0.3555	-1.8656	1.6255	0.3957	-0.2870	12.9375	-0.7310
1640.0276	1.7185	0.4366	25.8416	-15.3743	3.4436	-0.8150	-0.2501	-2.9161	-3.1314	-0.1231	1.1625	1.3226	0.1847	0.0692	-2.2459	-0.0390
1648.0277	1.4465	0.8384	13.4902	-12.6726	2.2394	1.4506	0.3913	-0.0798	-7.3358	0.0285	2.5427	1.0782	-0.2914	1.0677	-1.5181	0.5811
1656.0279	1.0561	-0.2431	15.9079	-17.1141	2.7879	-0.2481	-0.3529	-8.3192	1.1926	0.0725	-0.0071	1.0353	0.3566	-0.4869	4.5502	-0.7762
1664.0280	0.3117	-2.0721	17.0225	-26.3405	3.2299	-10.2082	-0.5350	-1.8208	-5.5949	0.9369	3.2884	0.9495	0.6600	-0.7582	8.0314	0.0317
1672.0281	1.2448	1.7334	0.2095	-14.0167	0.4102	5.4009	1.5985	12.3211	-8.3783	0.4718	3.1237	0.8549	-1.1160	3.4119	3.5775	2.2981
1680.0283	0.8063	2.4985	-13.6168	-8.7574	-1.2621	10.9294	1.9099	10.5079	-1.3932	0.3889	0.7864	0.3462	-1.3692	3.7866	0.7279	2.0461
1688.0284	-0.4121	-1.4407	-8.0695	-21.9720	0.3557	-3.8217	0.7199	4.9706	-5.7491	1.2334	3.1990	0.3872	-0.1939	1.1955	20.1800	1.0267
1696.0285	-0.6547	-1.9358	-8.6558	-17.5393	0.2198	-4.0350	0.3820	0.8142	-3.9443	0.9989	2.1968	0.2551	0.0485	0.3477	25.8040	0.2820
1704.0287	-0.9696	-1.9026	-11.8666	-14.3649	-0.1837	-5.5821	0.2851	1.2857	-5.0810	1.0685	2.8320	-0.0567	0.0735	0.1730	15.8288	0.3965
1712.0288	0.7846	0.3834	3.6038	-7.0463	0.6166	1.5715	0.8270	6.9141	-8.4093	0.1561	2.5191	0.6791	-0.5507	1.6730	13.0427	1.1887
1720.0289	0.9042	1.6614	-2.4248	12.4331	-0.3834	9.7718	0.4411	-6.1303	-1.7746	-1.0023	-1.0335	0.2567	-0.5183	0.5503	4.3101	-0.5924
1728.0291	-0.9005	-2.4311	-5.1011	0.1030	1.0798	-6.3749	-1.2373	-21.4127	-4.6375	-0.0351	1.6436	-0.1626	0.9691	-3.1902	4.4881	-2.5558
1736.0292	1.0868	-0.8939	18.0036	-8.8128	3.2112	-2.4983	-0.6684	-13.1813	-7.6633	-0.3515	2.0551	1.1046	0.5069	-1.4067	9.8455	-1.3635
1744.0293	2.8528	3.0193	18.7659	9.4127	1.9142	13.0526	0.7761	-4.1245	-10.1541	-1.6044	0.7575	1.4651	-0.8915	1.6139	6.4266	-0.0147
1752.0295	1.3679	0.2854	18.7531	5.9020	1.8454	0.1921	-0.0578	-0.2596	-11.6366	-0.8230	2.2578	0.8936	-0.1009	-0.0148	10.4799	0.0084
1760.0296	0.3315	-0.9861	16.3032	-0.1537	1.3840	-4.5506	-0.5964	0.9245	-1.5016	-0.2382	-0.0449	0.4000	0.4567	-0.9574	10.9593	-0.2950
1768.0298	2.5607	3.4996	9.6409	12.3193	0.7265	15.4191	1.1878	-1.0415	-9.0586	-1.5119	0.4613	1.1456	-1.2024	2.3263	4.6649	0.4188
1776.0299	4.1572	5.3826	22.4684	16.1268	1.6623	19.3574	1.9411	7.2200	-19.9157	-2.0526	3.0583	1.9099	-1.9449	4.1886	0.2571	1.8290
1784.0300	1.1921	0.7266	15.9967	9.1784	1.3806	-0.6823	-0.0200	2.1586	-12.9682	-0.7494	3.0245	0.5912	-0.2021	0.1797	-3.7877	0.4323
1792.0302	0.9278	-0.4056	9.6286	7.4054	2.2307	-0.1703	-0.6660	-18.1700	-13.8124	-0.9653	3.1281	0.7096	0.3155	-1.8014	3.6336	-1.8546
1800.0303	2.7186	2.6613	14.4724	14.2502	1.9692	15.0794	0.4007	-15.7952	-9.3056	-2.0106	-0.0843	1.4139	-0.6474	0.4298	11.5071	-1.4678
1808.0304	0.6814	0.9353	1.0407	14.2949	-0.2298	7.3632	0.0614	-6.7986	-0.5672	-1.0792	-1.6340	0.1952	-0.2162	-0.2080	10.0517	-0.9694
1816.0306	0.1260	-0.0205	-1.9844	15.1048	-0.2469	2.0740	-0.1693	-7.0854	-6.7643	-0.8137	0.7528	-0.0441	-0.0282	-0.7963	7.0257	-0.9168
1824.0307	1.1161	1.5953	9.7264	21.1376	0.0998	5.6371	-0.0074	-1.5072	-5.7199	-1.3700	-0.2461	0.2248	-0.3206	0.0054	-3.0022	-0.2967
1832.0308	1.6662	1.8008	26.0702	14.5829	1.3969	3.2208	-0.3720	2.8782	-0.8351	-1.3059	-1.4387	0.5666	-0.0489	-0.0792	-10.5845	0.0362
1840.0310	3.3049	3.8208	34.3484	20.3923	2.2039	10.6116	0.3569	3.9110	-9.9044	-2.1089	0.1942	1.3537	-0.7878	1.4345	-10.6949	0.6102
1848.0311	4.2149	6.3953	29.1686	41.5494	0.7927	20.5897	1.2532	7.1044	-16.8830	-3.1881	0.6830	1.3007	-1.7676	3.0539	-17.4036	1.2600
1856.0312	4.0598	6.4867	31.6633	45.5610	0.6366	20.4144	0.8343	5.6379	-11.0779	-3.3779	-1.2481	1.0536	-1.5098	2.3690	-24.2819	0.8093
1864.0314	2.4500	3.1764	30.6216	41.1040	1.1055	8.4158	-0.5487	-2.6648	-8.5092	-2.8047	-1.1989	0.5278	-0.2910	-0.6422	-16.4358	-0.7203
1872.0315	1.9461	2.0454	26.9555	49.7351	0.5015	4.8128	-0.5443	-0.1549	-17.5205	-2.9120	1.0068	0.3293	-0.2899	-0.9896	-1.7645	-0.5860
1880.0316	3.0458	5.8539	16.4687	72.6261	-2.3618	21.1165	1.2343	13.1201	-19.0678	-4.0068	-0.6231	0.2004	-1.9043	2.4870	-0.8468	1.1619
1888.0318	1.1235	4.3944	-2.4342	85.6852	-4.3519	17.6815	0.2843	2.1966	-12.1559	-4.0061	-2.6234	-1.1283	-1.2173	0.0272	-8.5862	-0.5950
1896.0319	-0.3556	0.8557	3.6176	94.3962	-3.2400	3.2076	-1.8756	-13.4794	-15.0057	-4.1533	-1.6749	-1.7413	0.3800	-4.6000	-9.3509	-3.1396
1904.0320	-0.3260	0.9860	14.5835	115.2000	-3.9782	1.1861	-2.2541	-4.1559	-16.1118	-4.9699	-2.8194	-2.0905	0.4619	-5.0527	-7.7447	-2.7492
1912.0322	-2.1646	-1.3892	9.8757	115.1015	-4.8672	-7.7970	-3.4212	-5.8178	-4.6329	-4.4067	-5.5719	-3.0694	1.4842	-7.3806	-7.5193	-3.7387
1920.0323	-2.6995	-2.1027	1.0514	103.4811	-4.6809	-9.1418	-3.5117	-12.6427	-2.2076	-3.7843	-5.2042	-3.1496	1.6972	-7.7878	-9.8859	-4.2759
1928.0324	-1.8000	-0.2297	-3.4620	102.6615	-5.0590	-3.2756	-2.2323	-4.6466	-11.4756	-3.7778	-2.3632	-2.7680	0.6729	-5.2141	-14.1447	-2.6175
1936.0326	-2.0265	-1.4643	8.5948	90.9790	-3.6310	-10.3708	-3.0518	-5.0038	-5.7431	-3.2898	-3.1694	-2.6474	1.4032	-6.4095	-18.4222	-2.9312
1944.0327	-2.7167	-3.4467	19.7770	68.1396	-2.1547	-19.2647	-4.0307	-4.5294	8.6435	-2.2266	-5.8756	-2.5930	2.4314	-7.8007	-17.9699	-3.3463
1952.0328	-2.0588	-2.7747	22.5877	42.0431	-1.6729	-15.6553	-2.8942	8.2143	16.1197	-1.2261	-7.0598	-1.8458	1.8840	-5.0822	-4.3331	-1.5691
1960.0330	0.0067	1.2043	21.3290	21.7265	-1.9286	2.0440	-0.5428	22.6724	24.8770	-0.9203	-9.5962	-0.7249	0.2389	0.0974	1.0482	0.9186
1968.0331	0.5049	2.2024	13.7535	-3.0415	-1.4793	4.0636	0.7989	30.5515	20.1617	0.2858	-6.1795	-0.1649	-0.5611	2.9505	-6.0046	2.8972
1976.0333	-0.1592	-0.7327	12.9627	-35.8685	0.7922	-9.4750	0.7265	29.7928	7.5541	2.0820	0.5203	0.3936	-0.1057	2.7023	1.2410	3.5358
1984.0334	-0.3298	-1.0319	9.2199	-40.6393	0.6694	-8.0093	0.7727	27.1252	11.8855	2.2377	-0.7355	0.4267	-0.0432	2.6422	9.5917	3.1547
1992.0335	-0.9547	-1.5914	-0.5217	-32.2836	0.1852	-7.6455	0.2326	14.1714	12.1249	1.9142	-1.1171	-0.0131	0.2927	1.0417	6.6564	1.5721
2000.0337	-1.1246	-2.2431	-2.6018	-35.1368	0.9036	-9.0587	-0.2167	3.4893	10.8215	1.9341	-0.4261	0.0328	0.6412	-0.1190	4.0354	0.4609
2008.0338	-0.8116	-1.3791	-5.5099	-42.4555	0.4920	-4.2360	0.4613	8.4725	16.0813	2.1763	-1.8833	0.2298	0.2227	1.3418	9.1333	1.1613
2016.0339	-1.2309	-1.7455	-18.2806	-44.6236	-0.2995	-4.8567	1.1075	11.0876	7.5014	2.6133	1.1947	0.1201	-0.1772	2.2378	15.7621	1.8712
2024.0341	-1.8478	-0.8094	-31.1215	-27.8997	-2.7916	-2.3269	1.5559	19.0241	7.3118	2.3810	0.7762	-0.7360	-0.6527	3.0398	6.8038	2.6954
2032.0342	-2.4584	-2.0234	-24.3421	-30.4070	-2.4549	-7.9208	0.6935	18.7376	15.5516	2.5928	-1.3963	-1.0094	0.0626	1.5906	5.7472	2.1154
2040.0343	-2.6393	-4.4250	-16.7032	-45.2859	0.1069	-15.7387	-0.3372	3.5534	11.6200	2.9710	0.6087	-0.4731	1.0006	-0.7250	14.9634	0.4042
2048.0345	-2.3492	-1.8367	-30.2764	-30.0740	-2.1006	-4.1424	0.4718	4.4858	16.5343	2.2955	-1.8763	-0.9310	0.1855	0.7342	2.9974	0.6615
2056.0346	-3.0559	-2.7728	-35.9981	-34.2322	-2.0351	-6.8429	-0.0636	-3.6358	20.4045	2.6027	-2.3856	-1.2342	0.6551	-0.5208	-1.7536	-0.3272
2064.0347	-3.2521	-5.3350	-28.6116	-54.1870	0.7824	-17.3280	-0.8716	-14.9497	11.1958	3.3651	1.8881	-0.6106	1.4676	-2.3114	4.0084	-1.3047
2072.0349	-1.9661	-2.0850	-33.3143	-49.9435	-0.4848	-5.6434	0.8660	-1.2979	7.6428	3.0578	2.3530	-0.2818	0.0330	1.3619	-1.0424	0.8886
2080.0350	-3.0085	-3.2000	-41.7301	-47.6184	-1.3853	-9.4015	0.5321	-2.4340	9.4528	3.3474	2.1531	-0.8660	0.3443	0.4838	-0.1791	0.5320
2088.0351	-4.2262	-5.9433	-37.6297	-45.2250	-0.5103	-20.0655	-1.1625	-15.0604	11.6748	3.4027	1.7944	-1.3454	1.6507	-3.0813	-1.0340	-1.5351
2096.0353	-2.2581	-2.9427	-33.8220	-45.5170	0.2175	-6.4764	-0.1258	-18.4947	10.0126	2.6208	1.2820	-0.4036	0.7135	-0.9926	-3.4442	-1.3057
2104.0354	-2.4615	-3.9553	-31.5297	-56.6630	1.2584	-11.5096	-0.4034	-20.8167	7.8267	3.1650	2.9441	-0.2266	1.0369	-1.5021	-4.9186	-1.4020
2112.0355	-3.4557	-5.7785	-22.5627	-50.7855	1.3152	-23.8283	-1.3946	-13.4444	5.6588	3.4279	4.0709	-0.8131	1.7671	-3.1022	-12.2207	-1.0944
2120.0357	-1.1099	-1.4664	-23.3858	-38.0216	0.6482	-4.0162	0.4054	-10.1797	0.9152	2.0803	3.2909	0.0468	0.1352	0.3779	-7.9591	-0.0945
2128.0358	-0.4521	-0.0211	-27.1047	-37.6722	0.3419	5.9257	0.8227	-16.0585	8.8114	1.6155	0.0893	0.3028	-0.2092	1.0468	-3.0588	-0.7362
2136.0359	-0.5029	-0.3870	-22.6680	-34.4010	0.4565	4.2185	0.5623	-15.0380	8.9959	1.4629	-0.2821	0.2738	-0.0320	0.5933	0.2292	-0.8602
2144.0361	1.1453	2.0201	-22.3967	-24.7447	0.3193	14.3919	1.9754	-9.8678	-5.3417	0.6265	2.6141	1.0279	-1.2830	3.2113	8.3812	0.3841
2152.0362	-0.2784	0.4109	-26.6843	-18.5412	-0.8252	7.2675	1.2249	-7.4457	-0.2272	0.9061	1.3456	0.1454	-0.6723	1.7142	7.3659	0.0547
2160.0363	-2.0505	-2.0624	-35.1962	-13.2376	-1.8677	-1.2156	0.2728	-10.8204	3.0332	1.2479	0.6689	-0.7703	0.1437	-0.5128	13.6068	-0.9574
2168.0365	-0.2035	0.6213	-33.0057	-3.6755	-1.6631	10.7300	1.4715	-10.5277	-7.8065	0.2145	2.3500	0.0589	-0.9804	1.6922	18.3779	-0.3185
2176.0366	0.7317	1.2294	-13.6848	6.5002	-0.5015	10.8509	0.9194	-10.4051	-8.2087	-0.6757	1.2855	0.4082	-0.7693	0.9972	14.3858	-0.6585
2184.0368	0.3520	-0.7536	3.6600	9.0668	0.7684	1.6676	-0.4183	-11.8687	-5.4456	-0.8447	0.1414	0.3754	0.2481	-1.3846	20.8959	-1.6138
2192.0369	0.6723	0.4771	0.8245	2.2593	0.1282	5.0993	0.4823	-0.9161	-3.3464	-0.4302	0.0225	0.4706	-0.3707	0.7137	17.1560	-0.0492
2200.0370	-0.9276	0.0584	-29.6751	-2.6383	-2.4324	5.6988	1.1412	-0.2116	-0.6186	0.5717	0.5775	-0.4770	-0.6863	1.4828	13.5387	0.3793
2208.0372	-2.5599	-2.0951	-43.5920	-0.2369	-3.1543	0.2244	0.1793	-13.2436	2.9421	0.8546	-0.0185	-1.2845	0.1238	-1.0279	14.9709	-1.4542
2216.0373	-1.6563	-0.7949	-30.8815	3.3743	-2.0605	4.2694	-0.3757	-20.4448	10.6288	0.1412	-2.9512	-1.0233	0.3589	-1.7623	-0.9593	-2.4331
2224.0374	-1.5540	-1.3769	-27.0565	-3.7570	-1.2495	3.0187	-0.5307	-22.8889	11.4308	0.3032	-3.0066	-0.7295	0.5633	-2.0748	6.2132	-2.7422
2232.0376	-1.8823	-3.4211	-19.2470	-17.3395	-0.4398	-6.0839	-0.4022	-10.5441	5.0020	1.1730	-0.2929	-0.3603	0.7339	-1.6370	29.4816	-1.4428
2240.0377	-1.0593	-1.2544	-19.8331	-6.7346	-1.4378	0.0815	0.5850	0.3060	-0.6743	0.7094	0.6867	-0.2966	-0.1892	0.5212	22.2245	0.1209
2248.0378	-1.2264	-0.1365	-28.7224	8.4293	-2.8793	5.2437	0.6100	-3.3957	2.1999	0.1031	-0.9681	-0.8427	-0.3927	0.3684	11.3609	-0.3869
2256.0380	-1.9826	-2.1504	-20.5855	-3.9025	-1.8012	-3.8570	-0.3628	-4.4366	9.1153	0.7872	-1.9778	-0.9379	0.5215	-1.2760	12.3650	-0.9279
2264.0381	-1.9494	-2.3903	-19.8534	-7.7519	-1.3532	-5.6377	-0.3552	-4.7736	5.8161	0.9789	-0.5859	-0.8146	0.5421	-1.2571	10.7635	-0.7896
2272.0382	-1.6561	-0.8481	-26.4167	0.1735	-2.7748	-0.0744	0.5374	3.8791	3.6560	0.7610	-0.4327	-0.9623	-0.2203	0.5360	8.5088	0.4062
2280.0384	-2.1823	-1.1442	-33.0245	-6.8504	-3.4652	-1.9059	0.8829	10.4216	5.1389	1.4236	-0.0140	-1.1917	-0.3507	1.2905	8.4627	1.2636
2288.0385	-2.7339	-2.4599	-36.0845	-13.3085	-2.9281	-5.5819	0.3883	2.4213	5.7294	1.7551	0.3930	-1.2473	0.1270	0.0595	11.5531	0.3188
2296.0386	-1.8556	-1.3792	-26.5448	-17.5493	-2.2445	-1.5121	0.5872	4.9301	10.9987	1.5545	-1.5063	-0.7821	-0.0404	0.8221	11.2404	0.5868
2304.0388	-1.9348	-1.6655	-26.1430	-29.0396	-1.5771	-5.3518	0.6730	7.2274	8.1127	2.2186	0.6373	-0.6626	-0.0165	1.1832	2.0311	1.2267
2312.0389	-2.7021	-3.0182	-26.9193	-31.9598	-1.2953	-14.5554	0.2671	9.3727	0.8924	2.8114	3.9861	-0.9779	0.3309	0.4329	-7.8807	1.6094
2320.0390	-1.5374	-1.1192	-19.0483	-20.6939	-1.4401	-6.9824	0.7309	13.4185	0.7596	1.9003	2.5306	-0.6294	-0.2093	1.5454	-6.3062	2.0115
2328.0392	-1.1525	-2.0361	-11.5370	-18.6923	0.3865	-5.8238	-0.3498	-8.4183	2.5353	1.1199	1.0011	-0.1729	0.5482	-1.0498	3.6536	-0.7807
2336.0393	-1.3340	-3.5854	-3.0729	-24.8129	1.7782	-11.8082	-1.1117	-13.7863	1.9640	1.2774	1.4671	0.0465	1.2033	-2.5545	9.7973	-1.6151
2344.0394	0.1955	-0.2561	-0.9734	-18.5457	0.2181	-2.3392	1.1427	15.4645	-7.1534	1.0675	3.3712	0.5179	-0.6030	2.4712	13.7746	2.2902
2352.0396	0.3922	0.0100	4.1599	-17.5632	0.1953	-3.5761	1.3231	23.3710	-8.9976	1.1028	3.9200	0.5703	-0.7593	3.1110	12.3535	3.1777
2360.0397	0.0178	-1.4717	14.2552	-18.8902	1.6154	-9.2345	-0.1116	10.9655	-2.3025	0.9495	1.9891	0.4988	0.3155	0.3247	7.8336	1.2463
2368.0398	1.5680	0.7476	17.1150	-2.7671	1.7824	2.6224	0.4167	3.4305	-8.1772	-0.4794	1.6112	1.0873	-0.3597	1.0478	13.1273	0.5924
2376.0400	1.6659	1.3707	13.3631	8.1827	1.0614	6.7959	0.4686	0.1783	-7.8002	-1.0557	0.5658	0.9216	-0.5167	0.9273	14.2434	0.1074
2384.0401	0.3591	-0.7240	12.6026	1.3577	1.2023	-2.0076	-0.5723	-3.4139	-0.1124	-0.3934	-0.6664	0.3715	0.4166	-1.0773	10.8234	-0.7550
2392.0403	0.7188	-1.7389	17.7508	-14.6773	3.2359	-5.7964	-0.6775	-9.7130	-7.4378	0.0784	2.4500	1.0831	0.6351	-1.3936	16.7202	-1.0430
2400.0404	1.5653	0.5802	8.5451	-17.3644	2.4124	2.5334	0.8164	-1.8309	-13.1613	0.1896	4.3808	1.3718	-0.5304	1.5908	9.8851	0.6778
2408.0405	2.1923	3.8228	5.4399	-4.9144	0.2106	11.6398	1.9623	15.6229	-7.7342	-0.1906	2.1406	0.9861	-1.6008	4.4372	-9.6061	2.7985
2416.0407	2.5220	2.6993	21.6732	-15.8993	2.4774	6.1390	1.1211	10.1902	-6.2313	-0.0499	2.1285	1.5209	-0.8971	3.0542	-8.5324	2.0147
2424.0408	2.4896	0.8408	27.1113	-24.3515	4.3699	0.8820	0.4468	-1.5272	-12.2195	0.0704	4.1903	2.0096	-0.2826	1.3788	4.3564	0.6985
2432.0409	3.2699	2.9261	32.9545	3.1526	2.8682	6.6578	0.9606	10.7108	-17.1459	-1.1714	3.5813	1.7992	-1.0065	2.6319	1.2480	1.8325
2440.0411	3.1556	3.3471	34.9143	14.4563	2.1014	6.4941	0.8220	15.2720	-16.0424	-1.5309	2.7042	1.4319	-1.0290	2.5278	-5.3702	2.0858
2448.0412	1.8024	0.4297	29.8169	-1.8990	3.1533	-3.0964	-0.2805	2.0668	-12.2858	-0.5839	3.1836	1.2016	0.0601	0.0110	-2.1233	0.4393
2456.0413	1.0472	-0.8363	30.1627	-5.2054	3.3758	-9.6444	-0.9112	0.6399	-10.8801	-0.1695	3.5428	0.8745	0.5974	-1.1762	-7.8187	0.1071
2464.0415	1.0428	0.0588	23.4714	0.4454	2.8206	-5.8281	-0.9113	-5.1768	-8.7992	-0.4482	2.7871	0.6122	0.4843	-1.3141	-20.7254	-0.4148
2472.0416	2.8825	3.1447	30.6794	6.7660	2.9508	9.1453	-0.1443	-6.5137	-2.1531	-1.5679	-0.9920	1.3208	-0.2815	0.3807	-18.6364	-0.4874
2480.0417	3.9376	4.8387	39.3675	12.4501	2.3220	14.7791	0.8939	11.1152	-3.3756	-1.9671	-1.7605	1.7229	-1.1239	2.8753	-7.1407	1.4559
2488.0419	2.7171	2.2056	32.1916	4.3489	2.9958	4.6862	0.1450	1.7905	-10.3164	-1.2296	1.6405	1.4609	-0.4009	0.9325	-4.9178	0.4974
2496.0420	3.6671	3.4448	33.5328	8.0751	3.7799	11.5201	0.1986	-9.7078	-12.1350	-1.9430	1.4245	1.9046	-0.5897	0.8120	-9.2613	-0.5282
2504.0421	4.5137	5.9331	31.9810	27.5382	1.6840	20.9071	1.5158	7.3461	-15.7219	-2.7783	0.7045	1.8504	-1.7830	3.5733	-2.5408	1.3950
2512.0423	3.8873	4.3371	38.8990	29.2334	2.0234	15.3590	0.5565	4.7826	-9.7848	-2.8165	-1.3089	1.6203	-1.0082	1.7273	5.3104	0.4240
2520.0424	5.4212	6.3879	48.4605	32.6041	3.2825	25.3015	0.4987	-6.9580	-5.0420	-3.8389	-3.9123	2.2938	-1.1644	1.6836	-2.1813	-0.7948
2528.0425	5.7758	7.4167	41.3419	37.9934	2.7479	27.6397	1.2938	-3.3528	-17.3457	-3.9330	-0.2013	2.3449	-1.8683	3.0803	-8.6488	0.2307
2536.0427	5.3756	6.4947	50.1263	38.6471	3.0665	21.8040	0.6014	-0.1294	-13.3352	-3.8300	-1.2473	2.1270	-1.3339	2.0395	-11.2939	0.1426
2544.0428	6.1612	8.4728	57.9082	57.9927	2.0372	31.2167	0.6227	2.6804	-2.3540	-5.1021	-6.7565	2.0270	-1.5883	2.3380	-9.6135	-0.1897
2552.0429	3.9268	4.5113	53.0128	57.9308	1.6800	16.1337	-0.8063	-1.1336	-1.1849	-4.3808	-6.2457	1.1110	-0.3137	-0.8238	1.1805	-1.3866
2560.0431	2.9132	2.4341	55.8113	44.1548	2.5619	6.9022	-1.7915	-4.9773	5.8126	-3.5341	-6.9004	0.8612	0.6223	-2.6092	-2.7930	-2.1120
2568.0432	5.0929	7.2893	51.5311	57.0887	1.2466	26.6868	0.2547	3.5648	1.9050	-4.6539	-7.4729	1.4580	-1.2141	1.5398	-9.3671	-0.3721
2576.0433	4.2218	6.1631	44.9517	60.2735	0.1045	21.7112	0.4492	12.4933	-3.2296	-4.2535	-5.7101	1.0305	-1.2736	1.7895	0.6119	0.5133
2584.0435	2.8577	3.1927	45.0945	54.1140	0.7205	10.4776	-0.7329	6.0057	-1.8834	-3.6483	-5.2175	0.6453	-0.2093	-0.7456	7.2928	-0.6766
2592.0436	2.9551	2.1468	46.8423	58.3154	2.1143	9.2743	-1.5752	-12.9794	-7.9287	-4.2174	-3.9633	0.9027	0.3478	-2.9817	11.9087	-2.8502
2600.0438	2.1470	1.8344	43.6741	64.4351	0.8196	7.5977	-1.8766	-8.3169	0.3029	-4.1488	-6.5111	0.2298	0.5766	-3.4390	8.8879	-2.8101
2608.0439	1.4665	2.8742	33.3571	68.1522	-1.7192	9.2200	-1.1170	9.3299	7.7270	-3.6804	-8.3267	-0.5606	0.0291	-1.5610	-0.3389	-0.9003
2616.0440	0.4674	0.0639	32.6211	56.3990	-0.3300	-2.3304	-2.0275	0.4252	1.0612	-2.8981	-4.8966	-0.6023	0.8928	-3.6573	2.3055	-1.8480
2624.0442	-0.0403	-1.0850	35.7563	51.7618	0.3067	-7.2332	-2.7873	-4.5902	5.2865	-2.6460	-5.6232	-0.7524	1.5258	-5.1031	-1.1784	-2.6625
2632.0443	-0.3555	-0.2941	30.6828	55.3609	-1.3711	-5.3291	-2.2463	7.9393	10.7634	-2.4550	-7.2682	-1.2048	1.1278	-3.7629	-3.8550	-1.3790
2640.0444	-1.0955	-1.8300	28.7540	38.0522	-1.0797	-11.6278	-2.2817	12.5969	13.5690	-1.3710	-6.6609	-1.2248	1.4272	-3.7167	3.2004	-0.8435
2648.0446	-0.6049	-1.9153	30.4740	17.1243	0.6523	-10.3181	-2.2473	3.6731	16.6048	-0.8381	-6.4990	-0.5499	1.5651	-3.6526	2.8357	-1.4183
2656.0447	-2.4555	-5.9890	25.6347	0.7559	1.8691	-25.5624	-3.6589	-8.8629	15.6400	0.3461	-4.2413	-0.9292	2.9264	-6.8534	8.1138	-3.0504
2664.0448	-4.2299	-8.1856	15.3338	-8.9553	0.6708	-35.9252	-3.7854	1.5569	17.6927	1.6694	-3.1591	-1.7031	3.2918	-7.0524	11.4084	-2.0576
2672.0450	-2.9458	-4.0789	-4.4049	-14.0582	-1.3781	-17.9944	-1.1794	13.4528	16.6477	1.8024	-2.8464	-1.3268	1.3170	-1.9367	7.3814	0.4390
2680.0451	-4.1551	-4.7524	-34.3437	-22.5120	-2.8937	-15.1886	-0.6908	2.6475	17.5704	2.5633	-2.0375	-1.8311	1.1457	-1.8520	11.7461	-0.3144
2688.0452	-4.3975	-4.0554	-41.4430	-18.4605	-4.4392	-12.4163	-0.1038	11.6846	20.4600	2.6570	-3.0600	-2.1793	0.7112	-0.6240	12.9438	0.6635
2696.0454	-3.4654	-3.2609	-30.4946	-23.0858	-3.8478	-12.5434	0.6720	26.4163	13.3124	2.7913	-0.8878	-1.5800	0.1403	1.3827	17.6547	2.6165
2704.0455	-5.3052	-7.7682	-35.7628	-40.2969	-2.0501	-29.4175	-0.9053	8.6661	7.0949	3.9671	3.1073	-1.8376	1.6169	-2.3376	22.4397	0.5649
2712.0456	-4.8640	-6.8877	-39.5265	-37.9376	-1.8700	-24.3785	-0.7950	0.0174	6.2204	3.5870	3.0460	-1.6832	1.4422	-2.3600	17.0245	-0.1506
2720.0458	-3.9359	-4.4641	-35.9573	-33.5667	-3.1294	-15.4808	0.3320	16.6625	12.8161	3.2698	0.1497	-1.5254	0.5300	0.3905	19.4916	1.6843
2728.0459	-3.3060	-3.0534	-36.5113	-35.6943	-3.2615	-9.6558	0.8767	18.4426	15.6349	3.1593	-0.8294	-1.2953	0.0884	1.6044	15.4672	2.1215
2736.0460	-2.2958	-1.6150	-42.6056	-37.1719	-2.4157	-3.2558	1.4939	7.5956	4.1712	2.8423	2.6585	-0.7236	-0.4976	2.4218	5.9829	1.8158
2744.0462	-4.2767	-4.1342	-54.4265	-40.8693	-3.6362	-14.0185	0.9665	11.5357	5.7024	3.8687	3.5555	-1.6690	0.1045	1.2144	7.8927	1.9427
2752.0463	-3.7843	-2.7431	-56.8430	-38.2227	-4.1598	-7.3027	1.4186	11.8396	9.7622	3.5549	1.8214	-1.5918	-0.2989	2.1362	5.8645	2.0620
2760.0464	-3.4875	-3.1303	-60.1782	-48.2121	-2.6865	-6.2176	1.2397	-4.0732	5.5450	3.6399	3.5932	-1.1055	-0.1147	1.3414	5.8819	0.7283
2768.0466	-5.7358	-6.9582	-62.6069	-64.3845	-2.3682	-23.1447	-0.1982	-5.5436	13.3733	5.1154	3.5278	-1.9192	1.2899	-1.4046	3.4519	0.0169
2776.0467	-2.5625	-0.8651	-54.1936	-47.6780	-3.1868	-1.3507	2.1553	11.5062	7.1095	3.5912	3.0670	-0.9220	-0.8969	3.8176	-6.4466	2.7545
2784.0468	-1.6196	1.0259	-60.4565	-32.4934	-4.2105	7.9222	3.2699	14.2449	-3.7919	2.7265	4.8118	-0.6648	-1.9262	5.6543	1.6625	3.4548
2792.0470	-5.0097	-5.2044	-68.4986	-43.7275	-3.8988	-13.6100	0.7307	-1.9665	6.1692	4.0430	3.6716	-1.8785	0.3793	0.0647	15.2999	0.4798
2800.0471	-3.4538	-3.0318	-63.7880	-39.9941	-3.3982	-3.0042	1.4601	-4.4657	4.2354	3.2183	3.0025	-1.1371	-0.3134	1.4828	19.1512	0.5148
2808.0473	-2.0457	-0.7150	-57.9924	-32.6294	-3.4704	5.9960	2.3243	1.0461	1.4732	2.4638	2.6094	-0.6108	-1.1329	3.3806	19.9059	1.3811
2816.0474	-2.4969	-2.0063	-49.5976	-35.7627	-2.1426	-1.2117	1.0533	-8.1316	5.2255	2.5733	2.1433	-0.7733	-0.1890	1.0313	6.2489	0.0606
2824.0475	-1.1722	0.4972	-44.7044	-19.5580	-2.0485	4.7730	1.5852	-6.5876	-6.3962	1.5878	4.6534	-0.5152	-0.9436	2.2208	-13.8717	0.7646
2832.0477	-1.6914	0.0488	-43.5413	-8.7092	-2.7723	2.3230	1.1045	-4.9055	-3.9367	1.3049	3.3950	-1.0024	-0.6575	1.3089	-15.1272	0.4857
2840.0478	-2.6386	-1.9803	-44.5226	-11.6371	-2.1672	-2.0901	-0.1767	-20.4375	4.9060	1.3647	0.8781	-1.2959	0.4054	-1.5612	-9.5029	-1.8402
2848.0479	-1.2917	0.4128	-41.9277	3.3274	-2.1518	6.7095	0.3788	-22.9359	-2.9017	0.2637	1.8490	-0.9365	-0.3156	-0.5272	-19.0906	-1.7314
2856.0481	-1.1673	0.7091	-32.6631	11.6958	-2.1968	5.6028	-0.0159	-18.8854	0.4512	-0.1329	0.2815	-1.0997	-0.1361	-0.9519	-25.4638	-1.6587
2864.0482	-1.1361	0.5663	-25.0198	7.7887	-2.2001	3.3099	0.0828	-8.0041	3.9458	0.1369	-0.6305	-1.0391	-0.1355	-0.3229	-20.8032	-0.6661
2872.0483	1.2702	3.9844	-12.9490	11.2214	-1.4035	14.7907	1.4922	0.9353	-5.1044	-0.6987	0.9100	0.0729	-1.4150	2.8618	-23.7098	1.0503
2880.0485	1.5036	2.6125	-2.1561	4.9848	1.0217	10.7234	0.3431	-16.5156	-6.1941	-0.9112	1.3250	0.5634	-0.5430	0.4078	-22.5737	-1.0314
2888.0486	-0.1711	-1.3943	6.5978	-1.4329	2.1564	-7.0080	-1.4018	-19.4035	-5.1023	-0.1531	2.1329	0.0838	0.9662	-2.9791	-16.4686	-2.1190
2896.0487	-0.3988	-1.6247	12.4034	4.5581	1.8786	-9.3135	-1.8034	-15.3022	-1.0366	-0.3226	0.5718	-0.1856	1.2226	-3.5217	-18.2383	-2.0876
2904.0489	-0.7806	-1.7889	8.4004	4.9435	1.2152	-8.1721	-1.8764	-15.7286	5.5702	-0.2727	-1.5300	-0.4366	1.3256	-3.7235	-14.3168	-2.3894
2912.0490	0.1489	0.2637	12.3066	5.0424	0.0363	-4.3197	-0.1378	12.8742	-0.8983	-0.0386	0.2605	-0.1186	0.0156	0.3566	-9.7236	1.2389
2920.0491	1.5611	2.7854	15.4966	7.2441	-0.0473	4.6453	0.9914	20.3203	-4.5574	-0.4790	0.6964	0.4424	-0.9620	2.8354	-13.1651	2.5736
2928.0493	1.0256	1.2110	15.4487	1.2045	1.2512	1.2757	-0.2215	0.7875	1.0290	-0.4443	-0.5724	0.4042	0.0103	0.0902	-15.0754	0.1324
2936.0494	0.6632	0.4116	18.5286	2.8522	1.4662	-2.8807	-0.7176	-0.0225	1.0300	-0.4083	-0.4590	0.2290	0.3813	-0.8452	-16.6818	-0.1776
2944.0495	-0.1902	-0.5199	12.5425	8.4946	0.5752	-6.6068	-0.9684	1.1589	0.0947	-0.2809	-0.1079	-0.2942	0.5853	-1.5146	-15.0289	-0.2686
2952.0497	0.2320	-0.6556	9.7892	-0.1284	1.3296	-4.0131	-0.5788	-4.3531	-4.2897	-0.1694	1.2729	0.2598	0.3910	-1.0777	-1.9450	-0.5439
2960.0498	1.8507	1.5003	1.8763	-0.9667	1.9535	10.7309	0.5139	-18.6089	-11.1736	-0.9541	2.2158	1.2365	-0.5217	0.4057	8.7418	-1.3568
2968.0499	0.4745	0.5684	-0.6871	8.6828	0.4618	2.8062	-0.1393	-10.0745	-6.7685	-0.6542	1.3935	0.1494	-0.0691	-0.5920	-6.1888	-0.9062
2976.0501	0.2053	1.1488	14.0600	5.7993	-0.6011	-5.0727	0.2556	25.1271	-0.6357	0.2043	0.6260	-0.3241	-0.3218	1.6075	-22.7687	2.7469
2984.0502	1.2354	2.2947	11.4060	-2.2801	0.0900	3.4183	0.9940	18.6008	-1.8313	0.0269	0.6612	0.4319	-0.8385	2.7971	-12.8475	2.4885
2992.0503	0.4012	-0.4536	9.5257	-5.1060	1.7956	-5.7307	-0.3550	-2.8316	-10.4169	0.1359	3.8645	0.4024	0.2212	-0.5491	-11.3684	0.0674
3000.0505	1.1948	1.2233	8.1946	1.7602	1.5781	-1.2577	0.3564	0.4490	-19.4148	-0.2433	6.2335	0.5960	-0.4839	0.8794	-21.7250	0.9685
3008.0506	1.7509	3.6293	-4.6778	7.3346	-0.2357	12.8487	1.4591	1.0332	-10.8615	-0.7256	2.6026	0.5607	-1.3709	2.8515	-17.2456	1.1647
3016.0508	0.7371	1.2631	0.4527	-4.1814	0.4393	3.8244	0.5141	0.2483	-2.8357	-0.0092	1.1001	0.3621	-0.4343	1.1309	-8.9296	0.5204
3024.0509	1.1522	1.1022	2.5412	-11.3077	1.1881	4.4352	0.8142	-0.1242	-6.8236	0.1195	2.3681	0.8527	-0.5798	1.6362	1.7069	0.6932
3032.0510	0.7485	1.1041	-1.2534	-6.7570	0.2626	5.1344	0.7663	1.7277	-1.9999	0.0716	0.6836	0.4853	-0.5473	1.5299	2.4327	0.6427
3040.0512	-0.2580	-0.7016	-1.2315	-5.2228	0.7839	-2.8917	-0.4818	-8.7219	-0.8242	0.2111	0.9161	-0.0053	0.3889	-1.0921	-7.1610	-0.8521
3048.0513	0.5829	0.4477	-6.4985	-1.9965	1.3491	6.2838	-0.3337	-25.7829	-2.3422	-0.5420	0.4822	0.4395	0.1592	-1.3501	-6.0079	-2.4389
3056.0514	1.0290	2.4407	-1.7681	1.4549	0.0105	10.0465	0.4898	-5.2627	4.3145	-0.5031	-1.6729	0.2598	-0.5247	1.0521	-16.0249	-0.1915
3064.0516	0.5786	2.9695	-6.1489	3.6621	-1.7231	7.3186	1.3185	16.3389	1.3678	0.0855	-0.1430	-0.2336	-1.1224	3.1294	-22.6354	2.3797
3072.0517	0.3166	3.0961	-18.3102	9.2401	-3.0317	12.5204	1.7578	13.9736	2.6415	-0.1336	-1.2853	-0.4139	-1.4234	3.5035	-7.4147	2.0285
3080.0518	-0.6024	0.7486	-13.8997	4.0117	-2.0456	3.3285	0.5601	6.3113	5.1406	0.2254	-1.3861	-0.6259	-0.4102	1.0619	-4.9512	0.7325
3088.0520	-0.4174	-1.2825	-6.4764	-8.6791	1.0754	-4.7902	-0.3673	-12.2273	-8.4188	0.4551	3.6582	0.0900	0.3490	-1.1660	-4.8468	-0.9166
3096.0521	1.6050	1.9033	-0.1827	-2.2977	1.2721	9.1278	0.8019	-9.5261	-10.6033	-0.5594	2.7116	0.9477	-0.7311	1.2820	-2.2402	-0.2022
3104.0522	1.3077	1.9506	-0.7560	-2.0830	0.5497	8.8374	0.8720	-3.2108	-5.1739	-0.3891	1.1439	0.6888	-0.7454	1.6211	-1.9286	0.2863
3112.0524	-1.0007	-3.4909	-4.0180	-20.9359	2.0620	-9.3845	-1.0479	-19.6177	-2.7149	0.8838	2.2575	0.2833	1.1042	-2.7416	16.6988	-2.1781
3120.0525	-0.9900	-3.0353	-2.2854	-10.3627	1.0333	-5.8165	-1.0414	-15.5481	4.2689	0.3574	-1.0471	0.0610	1.0386	-2.6625	25.5596	-2.2534
3128.0526	0.2435	0.1566	-9.1659	1.6735	-0.1169	7.1940	0.2211	-12.8081	0.3250	-0.4559	-1.0062	0.2619	-0.1502	-0.2428	16.7608	-1.3820
3136.0528	0.0467	-0.3047	-12.6132	-9.7353	0.4856	4.8810	0.2087	-16.2121	-0.8369	0.1208	0.4581	0.3584	-0.0360	-0.3121	11.2905	-1.4270
3144.0529	-0.6943	-0.8188	-0.6793	0.7154	-0.7720	-2.9626	-0.2092	5.6355	5.8265	0.2453	-1.7145	-0.3859	0.2434	-0.3071	6.6860	0.1904
3152.0530	-1.0429	-1.8914	7.6603	6.3160	-0.9265	-9.4902	-0.4616	16.2673	2.2550	0.2752	-0.9285	-0.5431	0.4467	-0.5691	15.8422	0.9653
3160.0532	-0.6477	-1.1117	1.2008	3.6347	-1.1589	-3.0737	0.0971	12.6633	3.3191	0.1640	-1.5557	-0.2823	0.0556	0.2718	23.2532	0.7937
3168.0533	0.6356	1.6098	1.1992	14.3851	-1.4315	7.9857	0.7499	10.0221	2.2756	-0.7770	-2.4172	0.0147	-0.6872	1.5695	12.2604	0.8476
3176.0534	1.5696	1.3858	17.6083	6.2296	1.5136	3.2667	0.1036	0.8069	-7.1527	-0.8623	1.0652	0.7807	-0.2854	0.5144	-2.7764	0.2452
3184.0536	2.0527	1.7946	25.5482	5.9488	2.6258	2.8477	-0.3060	-4.4265	-7.5808	-1.1047	1.2842	0.9933	-0.0803	-0.1032	-16.2666	-0.2437
3192.0537	2.0124	1.6824	20.2321	17.2670	2.1785	7.2267	-0.5331	-15.1764	-7.0431	-1.8447	-0.1851	0.9115	0.0095	-1.1109	-4.1214	-1.7319
3200.0538	1.1948	-0.3119	22.1855	16.6411	2.3027	2.8433	-1.3878	-20.4480	-0.0824	-1.7978	-2.5936	0.7069	0.7849	-3.0082	14.1133	-3.0432
3208.0540	2.0849	1.2291	40.1407	23.2516	2.6148	5.5528	-1.5889	-12.1643	8.9955	-2.4054	-6.1687	0.8410	0.7698	-2.6174	2.8941	-2.5299
3216.0541	3.3834	1.4176	50.4233	14.7293	5.4132	7.1562	-1.8056	-27.5007	-0.4080	-2.7709	-3.3661	1.9109	0.8775	-3.2444	2.1960	-3.7078
3224.0543	2.7159	-0.2509	43.2643	4.5816	5.8025	3.2891	-1.9880	-34.0427	-2.7121	-2.1951	-1.9154	1.9458	1.2059	-4.0257	14.2123	-4.3589
3232.0544	2.7703	2.0047	39.1336	11.0110	2.8864	7.9191	-0.4446	-2.5512	2.3040	-1.8850	-3.5440	1.4353	0.0271	-0.2271	9.6988	-0.8141
3240.0545	3.1434	3.2899	29.5833	5.2352	2.1135	11.2691	0.9238	8.3426	-6.4860	-1.3855	-0.1919	1.6163	-0.9604	2.5002	6.6739	1.2115
3248.0547	3.5644	3.9327	25.7148	9.4314	2.2290	16.4270	1.0365	-0.6447	-8.3854	-1.8714	-0.2516	1.8043	-1.1286	2.3721	8.0948	0.3688
3256.0548	4.7166	5.8471	34.0225	19.7989	2.4095	23.0634	1.2980	0.3434	-8.8959	-2.7532	-1.2973	2.1229	-1.5462	3.1116	1.4569	0.5218
3264.0549	3.4844	3.9762	26.0257	21.4507	2.3208	14.5546	0.5398	-6.7459	-14.6084	-2.3585	1.3155	1.5356	-0.9486	1.2547	-6.0390	-0.2820
3272.0551	2.1051	2.0139	23.5666	36.2301	1.2711	8.5225	-0.5967	-10.9005	-9.7648	-2.6638	-0.8779	0.6673	-0.1174	-1.2778	2.0347	-1.6692
3280.0552	2.3787	2.2939	29.0525	51.9827	0.7060	11.4415	-0.7213	-9.2397	-8.7974	-3.5458	-2.8868	0.6231	-0.1550	-1.5860	14.7559	-2.0162
3288.0553	0.7779	-0.2394	27.4658	52.0679	0.4742	0.8795	-1.9487	-12.5501	-3.5648	-3.0592	-3.7288	-0.1466	0.8776	-4.0767	13.9878	-3.0210
3296.0555	-0.3907	-3.0184	35.1980	33.0229	1.5864	-11.6250	-2.9963	-10.6149	5.0542	-1.8938	-4.6249	-0.3192	1.9657	-5.7841	17.8243	-3.2878
3304.0556	1.2243	-1.6111	37.2033	24.8915	3.4271	-4.6453	-2.2342	-20.1015	-7.3188	-2.2076	-1.0125	0.8153	1.3333	-4.5604	18.8194	-3.4108
3312.0557	1.6242	-0.1932	32.0365	37.1742	2.9480	2.7092	-2.2685	-30.3091	-5.5786	-3.0377	-2.4988	0.6823	1.1484	-4.9015	8.3159	-4.4965
3320.0559	-0.1070	-2.2373	29.8981	26.6056	1.9213	-7.3175	-2.8544	-18.8926	7.9802	-1.8268	-5.0752	-0.1642	1.8589	-5.6248	8.4428	-3.8567
3328.0560	-0.0997	-2.4246	31.3721	15.3962	2.1715	-11.2094	-2.3326	-7.7612	3.0132	-1.0608	-2.4628	0.0221	1.5928	-4.2869	7.4143	-2.2365
3336.0561	1.0679	-0.1908	39.0992	15.2553	1.8086	-3.2764	-1.3945	5.2319	8.4856	-1.3448	-4.8095	0.4427	0.8354	-1.8828	8.6531	-0.7199
3344.0563	0.5523	-0.5189	30.4058	7.8383	1.0016	-4.1791	-0.9023	11.4365	9.2036	-0.6804	-4.2626	0.2653	0.6178	-0.9504	13.4494	0.1328
3352.0564	-0.4190	-1.4233	13.8745	14.1770	0.4872	-8.2171	-1.2254	-0.0735	-1.8252	-0.5380	-0.2274	-0.3252	0.7891	-2.2488	-0.4441	-0.7441
3360.0565	-1.7860	-3.3479	11.7217	8.1950	0.0592	-16.5027	-1.9612	2.2299	6.1626	0.2112	-1.6247	-0.9507	1.5164	-3.5810	-0.1769	-0.9751
3368.0567	-2.8778	-5.7972	10.3414	-4.2055	0.4515	-26.1750	-2.4215	3.8269	5.5950	1.1600	-0.2223	-1.1156	2.1147	-4.5573	10.6097	-0.9698
3376.0568	-2.2762	-4.6569	3.7669	0.2128	0.9078	-19.6909	-2.3748	-11.8721	1.3708	0.5716	0.6730	-0.9043	1.9178	-4.9215	-0.4758	-2.2571
3384.0569	-1.6220	-4.1168	3.1725	-17.0949	2.1881	-14.5538	-2.1690	-21.7399	7.1065	0.8425	-0.4508	-0.2598	1.8856	-4.5834	0.3112	-2.9850
3392.0571	-0.2181	-3.4279	11.7191	-26.0782	4.2045	-11.5614	-1.6847	-26.0294	-3.6691	0.6680	2.7242	0.8301	1.5100	-3.6792	5.8415	-2.8292
3400.0572	0.6519	-0.9451	9.5560	-18.6200	3.3154	-4.0501	-0.7173	-18.0597	-6.3911	0.2812	3.0946	0.8940	0.6048	-1.5344	-7.5989	-1.4904
3408.0574	-0.3737	-1.1578	0.2320	-29.6337	1.6829	-6.1203	-0.2761	-4.1368	4.9182	1.3808	1.0360	0.2870	0.4942	-0.2947	-10.5101	-0.0330
3416.0575	-0.4136	-1.1002	1.0974	-26.2136	1.2818	-3.9813	-0.3809	-4.2754	10.9636	1.1342	-1.3978	0.2035	0.5738	-0.5054	-3.5228	-0.3977
3424.0576	-1.0377	-1.3126	-0.5937	-28.2370	-0.0929	-6.4449	-0.0037	12.0136	16.6879	1.7035	-2.7257	-0.2167	0.4129	0.6184	1.1319	1.1522
3432.0578	-2.0080	-2.4094	-7.0014	-40.3525	-1.3803	-17.0079	1.1403	41.4650	4.7701	3.3287	2.8618	-0.5394	-0.1855	3.2972	5.4972	4.9238
3440.0579	-1.5566	-1.6107	-11.9025	-24.4788	-1.6881	-13.5625	1.4256	36.2033	-8.6373	2.5317	5.8691	-0.4987	-0.6239	3.3988	3.3582	4.6718
3448.0580	-2.0639	-3.2139	-7.6674	-24.8019	-0.5349	-17.7403	0.0807	19.7958	-3.1132	2.3281	4.1559	-0.6079	0.3964	0.5014	3.2889	2.3536
3456.0582	-2.2057	-4.1861	-1.6301	-34.5392	0.4062	-22.3826	-0.2560	20.2257	-1.8341	2.7605	4.4420	-0.4277	0.7671	0.0119	5.8109	2.3273
3464.0583	-1.3805	-1.7308	-8.9834	-22.7929	-0.6317	-9.8083	0.3814	15.0040	1.7751	1.8601	2.0514	-0.3977	0.0864	1.0524	0.4082	1.9178
3472.0584	-0.0752	1.3863	-11.5513	-12.0492	-1.3812	2.9526	1.3400	15.6486	1.7879	0.9767	0.8565	-0.1476	-0.8756	2.9878	-9.9345	2.3902
3480.0586	1.1140	3.3928	-7.5631	-0.6212	-1.5390	8.4066	2.1940	22.8130	-9.4436	0.2876	3.2793	0.2202	-1.7416	4.7942	-15.1243	3.6413
3488.0587	-0.7108	-1.1517	2.2342	-18.4962	0.1454	-10.5185	0.2887	18.0363	-2.5151	1.4933	2.9885	-0.1262	0.0287	1.1783	-6.4462	2.2983
3496.0588	-1.0162	-2.1808	10.8852	-42.1536	1.2811	-17.4578	0.0631	25.8204	5.9566	2.6919	2.2832	0.0664	0.4666	1.3754	-9.8524	3.1430
3504.0590	0.8553	4.0367	-6.0187	-17.9909	-1.8004	6.7777	2.4445	35.0927	3.9026	1.3508	1.0308	0.0090	-1.7726	6.0966	-34.1558	5.1223
3512.0591	-0.9709	1.9098	-17.4568	-14.3839	-3.0055	0.2214	1.4570	28.7582	11.8204	1.7279	-0.8797	-1.0056	-0.9298	3.8020	-33.5361	3.7966
3520.0592	-1.4281	-0.3402	-10.8589	-29.4032	-1.5612	-8.3817	0.9185	27.6960	10.2893	2.4507	0.5322	-0.7073	-0.2917	2.7518	-19.7361	3.5374
3528.0594	0.2716	2.1915	-10.1796	-13.4275	-1.2676	3.9434	1.6111	18.7934	0.1642	1.0329	1.6369	-0.0558	-1.1267	3.7309	-19.9640	3.0144
3536.0595	-1.3962	-1.5112	-12.1650	-14.9414	-0.6709	-7.7679	0.0189	5.1272	1.6624	1.3759	1.6106	-0.5570	0.2364	0.0603	-6.1223	0.7761
3544.0596	-2.1847	-3.3582	-17.0163	-24.0390	-0.1192	-12.6446	-0.5336	-3.8192	2.4451	1.8775	2.1249	-0.6309	0.8211	-1.3855	1.8642	-0.3151
3552.0598	-0.9865	-0.1324	-22.1231	-8.0457	-1.1154	1.5835	0.2006	-8.3428	4.2361	0.7084	0.0455	-0.5526	-0.0354	-0.0485	-11.1231	-0.5316
3560.0599	-0.5188	1.5560	-18.8786	4.4460	-2.8479	5.1231	1.2402	14.1801	2.2298	0.4096	-0.2924	-0.7051	-0.9296	2.4922	-8.5125	1.9116
3568.0600	-0.6611	-0.5431	-2.2948	2.7448	-1.2417	-7.3002	0.5743	20.5939	-9.7958	0.6503	3.6528	-0.4300	-0.3825	1.4257	-0.3260	2.4383
3576.0602	-2.0075	-4.3698	5.9398	-1.9712	0.8636	-20.9017	-1.8070	-1.7084	-5.1495	0.8165	2.8917	-0.7178	1.5124	-3.5993	1.2082	-0.8488
3584.0603	-0.9086	-1.3279	-1.1599	1.8576	-0.5634	-5.2607	-0.4801	2.4857	3.3080	0.2511	-0.8331	-0.4659	0.4353	-0.9524	4.9488	-0.1650
3592.0604	0.7610	0.4727	8.1914	2.7485	0.8767	2.1769	-0.0508	-2.8867	-2.6517	-0.4997	0.1009	0.4387	-0.0479	-0.0702	2.8837	-0.3141
3600.0606	-1.5215	-4.6055	11.0562	-5.6728	2.5982	-17.0712	-2.7190	-24.0913	2.4277	0.2360	0.0536	-0.2643	2.1702	-5.7246	3.3391	-3.5660
3608.0607	-1.0465	-3.0216	6.2838	-9.1887	1.5130	-10.3940	-1.5578	-12.4800	5.4090	0.4197	-0.9090	-0.1238	1.3458	-3.2263	7.4152	-1.9997
3616.0609	1.5362	0.9552	11.6257	-11.0109	2.0392	3.7902	0.5148	-1.6256	-6.6566	-0.1415	1.9275	1.1384	-0.3813	1.1629	5.2423	0.3550
3624.0610	0.8826	1.1557	-7.2145	-6.9085	0.6865	7.6316	0.6993	-10.1594	-5.4502	-0.1272	1.6673	0.6304	-0.5316	0.9638	1.1367	-0.4136
3632.0611	0.1065	1.6713	-25.0183	-2.5807	-1.2019	13.0810	0.8239	-15.5892	4.8539	-0.1151	-1.4777	-0.0711	-0.6189	0.8661	-3.6659	-1.1395
3640.0613	-0.7519	0.6273	-26.1634	-4.8804	-1.7596	7.3710	0.5505	-9.3108	8.1599	0.4071	-1.8168	-0.5193	-0.3150	0.5005	-4.3445	-0.7051
3648.0614	-0.7057	1.5733	-31.5309	2.3218	-3.2465	9.4722	1.4537	4.3058	3.0406	0.4160	-0.5571	-0.7253	-1.0397	2.3760	-2.8345	1.0045
3656.0615	0.1376	2.5515	-30.0536	2.2179	-2.8398	12.0650	2.1897	8.1206	-7.6466	0.2840	2.5251	-0.2362	-1.6552	3.8239	-2.5156	1.9765
3664.0617	-1.0466	0.6346	-32.5427	-7.1701	-3.1157	2.5102	1.9198	15.8279	-7.2440	1.2912	3.7510	-0.6466	-1.2419	3.4267	0.5201	2.6848
3672.0618	-0.9208	2.0272	-35.3027	1.7916	-4.5881	7.2125	2.4453	24.9813	-3.0587	1.0200	1.8921	-0.9565	-1.7309	4.6810	-3.7316	3.6084
3680.0619	-0.2240	2.6601	-30.3232	11.1769	-3.6738	11.0405	1.9684	11.5536	-5.1066	0.0970	1.4772	-0.6943	-1.5725	3.5111	-9.0967	2.0844
3688.0621	0.1153	2.1779	-20.1973	6.0767	-2.1564	11.2363	1.1716	0.4439	2.2806	-0.1771	-1.0225	-0.3231	-0.9550	1.9765	-5.9589	0.5083
3696.0622	1.4364	3.3739	-5.0208	1.8338	-0.5784	16.4718	1.0840	-3.3843	7.7715	-0.7031	-3.3273	0.4375	-0.9559	2.1501	-6.4474	0.0370
3704.0623	0.8459	0.7410	1.5462	-6.3133	1.3836	6.0245	-0.1168	-15.3055	2.4207	-0.3596	-0.9257	0.5945	0.0554	-0.4556	-2.2322	-1.4442
3712.0625	0.6311	-1.1902	9.7122	-12.3919	2.9722	-0.2156	-0.9811	-23.6959	0.6810	-0.2670	-0.2677	0.8887	0.8054	-2.3203	9.5770	-2.6618
3720.0626	0.8328	-0.4574	8.5232	0.6115	2.3519	3.4787	-0.9827	-25.8860	-0.0166	-0.9443	-1.0920	0.7335	0.6495	-2.4672	8.3853	-3.0441
3728.0627	-0.0863	-1.1151	4.7716	-0.4663	1.2949	-1.9779	-0.9960	-15.3468	2.2558	-0.3175	-0.9417	0.1432	0.7397	-2.2385	2.8606	-2.0109
3736.0629	2.1933	1.8541	19.7367	-15.2375	2.4161	8.3130	0.6137	0.3770	2.9432	-0.3249	-1.3752	1.4752	-0.4401	1.7031	8.1968	0.3739
3744.0630	4.2964	6.1614	12.1510	4.2342	1.3515	28.0769	2.3583	-1.0462	-6.9612	-1.8471	-0.6736	2.0887	-2.1144	4.7770	6.5876	1.0061
3752.0631	2.3382	4.1816	-1.5154	15.4149	-0.1478	19.6734	1.3358	-6.8133	-5.9211	-1.6045	-0.4675	0.8296	-1.3606	2.3618	-3.4129	-0.0825
3760.0633	0.7597	1.0219	2.0966	-3.6905	0.5943	5.7419	0.2217	-5.0172	3.0471	-0.2614	-1.2129	0.4311	-0.1922	0.4407	-0.3203	-0.3910
3768.0634	1.4065	2.6116	-3.1843	2.5156	-0.0990	13.7641	0.9479	-5.0309	1.5407	-0.7392	-1.5624	0.5854	-0.8397	1.7097	1.0038	-0.1362
3776.0635	1.6629	3.2348	-2.9285	6.4615	-0.0107	15.5741	0.9035	-8.1414	0.6314	-1.0186	-1.4731	0.5837	-0.9068	1.6181	-7.5675	-0.3762
3784.0637	1.2679	1.8179	1.1949	-5.5840	0.8244	8.5007	0.6632	-4.8568	-0.9871	-0.2990	0.0662	0.7052	-0.5560	1.3001	-3.4018	0.0023
3792.0638	1.7257	3.0165	1.8834	7.2313	-0.1460	13.6042	1.1255	1.1376	-1.8918	-0.9404	-0.8959	0.6666	-1.0406	2.2458	0.9516	0.5468
3800.0639	1.0960	2.2229	3.9579	10.8491	-0.5744	9.9713	0.5856	3.1524	3.7165	-0.8998	-2.6405	0.2503	-0.6187	1.3085	1.1542	0.2873
3808.0641	0.3797	0.5053	6.8009	-4.9714	-0.2225	0.7794	0.5863	14.4736	2.9968	0.2476	-0.9399	0.2406	-0.3567	1.6240	8.5798	1.5359
3816.0642	0.3446	0.7136	9.4271	-3.1345	-0.4909	0.0464	0.5808	19.4639	4.9095	0.2615	-1.5154	0.1098	-0.3749	1.8423	4.7749	1.9830
3824.0644	-1.3100	-1.0478	-3.0141	2.6124	-1.7138	-5.9023	-0.2361	13.4059	8.8399	0.5538	-2.2414	-0.8691	0.2869	-0.1472	1.4446	0.8834
3832.0645	-0.7439	0.3959	-9.7726	3.3082	-2.5977	-0.5587	1.0273	23.1103	1.4221	0.6049	-0.1352	-0.6518	-0.6803	2.3166	4.6674	2.5244
3840.0646	0.6276	2.3151	-3.2054	7.3146	-1.7752	7.4685	1.3399	17.8621	-0.0139	-0.1818	-0.6240	-0.0554	-1.0949	2.9931	-1.2714	2.2214
3848.0648	0.2708	0.2905	2.3828	5.4381	-0.0678	2.1043	0.0193	-0.3692	-0.1086	-0.3904	-0.6781	0.0867	-0.0726	-0.0050	5.0101	-0.1781
3856.0649	1.4921	1.5346	11.9362	6.5024	0.8144	5.8415	0.5128	2.9523	-6.4912	-0.8241	0.6364	0.7504	-0.5444	1.1641	6.2399	0.4945
3864.0650	1.6325	2.7363	10.1521	18.9139	0.1265	9.6975	0.3725	-0.1761	-3.7593	-1.4277	-0.8123	0.4080	-0.6408	0.9148	-9.2497	0.0754
3872.0652	2.3621	4.0752	6.5977	23.8957	-0.1743	17.6872	0.9568	-3.2470	-5.1329	-1.9747	-1.3219	0.6986	-1.1665	1.8327	-4.0211	-0.0636
3880.0653	3.7480	6.2623	7.4555	21.6024	0.2558	25.8572	2.0170	-1.1441	-11.5976	-2.2615	0.3531	1.3864	-2.0592	3.9989	-8.4347	0.8860
3888.0654	2.2144	4.0489	11.2043	29.7186	0.6017	12.3109	0.1177	-9.4857	-9.6355	-2.1219	0.6477	0.3871	-0.7269	0.3580	-34.1896	-0.6126
3896.0656	2.7501	4.2827	26.9917	36.7663	1.3692	11.4635	-0.4249	-7.8415	-6.9278	-2.7166	-1.0234	0.5579	-0.4447	-0.3260	-36.0730	-0.8612
3904.0657	2.6473	3.9212	24.1143	30.9681	1.3375	13.4168	-0.3580	-10.6481	-1.8047	-2.5786	-2.6322	0.6786	-0.3756	-0.3591	-23.5827	-1.3061
3912.0658	0.9804	0.7258	20.0242	29.3835	0.9154	2.3345	-1.1808	-10.2447	-1.8719	-1.9522	-2.1164	0.1042	0.4571	-2.2911	-4.7966	-1.8748
3920.0660	2.7058	2.5058	32.2425	30.5246	1.4584	10.3757	-0.0837	0.1497	-6.6544	-2.5653	-2.0814	1.0984	-0.4207	0.1276	14.2438	-0.5340
3928.0661	3.2611	3.1420	33.1521	20.5807	2.3657	15.1635	-0.0661	-8.4902	-0.2514	-2.5627	-3.8141	1.5246	-0.3898	0.1491	12.2545	-1.3278
3936.0662	3.1866	2.9307	33.4237	14.6644	2.6119	13.4248	-0.0141	-6.7205	-0.5353	-2.2250	-3.1675	1.5788	-0.3671	0.3492	10.3845	-1.0085
3944.0664	3.9327	4.4000	32.1726	19.8420	2.1639	19.2734	0.7781	-2.0533	-5.1550	-2.5932	-2.4303	1.8290	-1.0579	1.9085	11.7967	-0.1826
3952.0665	3.5102	3.5735	38.6546	26.3832	2.3734	14.7501	-0.1072	-4.5549	-1.8962	-2.8242	-3.6454	1.5067	-0.4561	0.2821	6.9989	-0.9505
3960.0666	3.6087	3.3614	46.6392	31.0805	2.3679	9.7790	0.0686	8.3882	-10.5704	-2.7759	-1.0886	1.5290	-0.6303	0.9512	8.0072	0.4971
3968.0668	2.8452	2.1496	35.9868	30.3159	2.4019	6.0550	-0.2888	-1.8655	-16.5749	-2.5179	1.3549	1.2512	-0.3270	-0.2787	5.3949	-0.4444
3976.0669	2.0181	0.3745	42.6976	29.6400	3.1851	-0.4752	-1.7772	-12.1761	-6.4130	-2.5116	-1.5064	0.8860	0.8281	-3.1678	1.8513	-2.3127
3984.0670	1.0278	-0.6688	42.8095	30.0610	2.1183	-5.9322	-2.0495	-1.5982	0.7641	-2.0475	-3.3251	0.2922	1.1406	-3.4167	5.4001	-1.6671
3992.0672	-0.2417	-1.3439	20.1001	34.0434	0.2196	-5.3018	-1.9075	-6.9721	1.3814	-1.7390	-3.1782	-0.4832	1.1008	-3.7907	7.4743	-2.2210
4000.0673	0.4727	0.0658	18.5290	45.1289	-0.5029	1.2998	-1.1897	-3.3329	-3.7577	-2.3958	-2.8364	-0.3063	0.4234	-2.5017	13.4554	-1.6701
4008.0674	-0.9272	-3.0397	24.5333	38.3312	0.2026	-13.4233	-2.4048	-1.9822	-3.3829	-1.5992	-1.7663	-0.7363	1.5160	-4.7639	16.4421	-2.0429
4016.0676	-2.2247	-6.0684	31.9401	21.8961	1.7674	-27.0216	-3.9917	-9.1187	4.8469	-0.6268	-2.4845	-1.0205	2.9377	-7.6826	11.2037	-3.3312
4024.0677	-1.5458	-4.9447	37.3726	14.9452	1.7638	-24.4885	-3.1951	3.7558	5.8844	-0.3664	-2.5941	-0.6507	2.3887	-5.6364	12.4325	-1.6696
4032.0679	-3.0830	-6.8238	24.1461	1.0137	0.9023	-31.5022	-3.2542	7.2464	9.9916	0.9136	-2.0962	-1.2238	2.7226	-5.8752	16.0476	-1.2962
4040.0680	-2.7010	-5.4567	11.6551	-7.3923	0.4746	-22.6518	-2.4525	1.6877	14.2492	1.0722	-3.0894	-1.0117	2.1785	-4.5526	14.7571	-1.4142
4048.0681	-2.1697	-4.7649	8.2557	-14.1680	1.0114	-18.8947	-2.0097	-2.8892	11.1564	1.1478	-1.8662	-0.6117	1.8618	-3.8290	13.0300	-1.4368
4056.0683	-3.8597	-7.9401	11.4292	-27.9760	1.4639	-34.7486	-3.0796	2.2121	14.9029	2.4409	-1.0580	-1.1687	2.9357	-5.6500	12.1289	-1.3067
4064.0684	-2.9983	-5.1049	7.9134	-21.5280	-0.4833	-25.3691	-1.4046	23.2759	14.8167	2.2738	-1.7007	-1.1284	1.5894	-1.9209	11.3169	1.3837
4072.0685	-3.1160	-4.5287	-9.4224	-15.9799	-1.4339	-19.5495	-0.9208	13.8257	9.6739	2.0384	-0.4400	-1.2835	1.1709	-1.6551	12.0131	0.7389
4080.0687	-3.8185	-5.4300	-24.1973	-23.1199	-1.5349	-18.2069	-1.1794	-1.7095	13.5268	2.3393	-1.0545	-1.4590	1.4906	-2.8032	15.8554	-0.8981
4088.0688	-2.3971	-1.4111	-33.7365	-16.3488	-3.5479	-1.0496	0.8874	11.3765	14.9387	1.8115	-2.6067	-1.1755	-0.2022	1.4153	15.0181	1.1691
4096.0689	-3.2727	-3.2154	-28.2085	-14.1530	-3.3351	-11.6153	0.1076	15.5966	11.4326	2.1414	-1.0105	-1.5791	0.4133	0.0401	12.4952	1.3011
4104.0691	-4.0760	-6.3312	-18.2748	-31.1051	-1.3570	-26.2105	-0.8680	14.7186	6.6188	3.1342	2.0180	-1.3946	1.3915	-1.7649	19.4931	1.0649
4112.0692	-2.0329	-1.9700	-31.0404	-32.4813	-2.2075	-6.9534	1.5642	19.3175	-1.3005	2.7001	3.7594	-0.5382	-0.5683	2.8673	16.4160	2.8886
4120.0693	-1.4717	0.3949	-38.7269	-16.1407	-3.4805	2.9362	2.0169	15.6165	-0.2863	1.8037	2.3437	-0.7882	-1.1765	3.6123	1.4513	2.6622
4128.0695	-2.9401	-3.2329	-31.9525	-27.0617	-1.9234	-10.9153	0.1144	3.1816	6.9980	2.4587	1.3100	-1.1249	0.4607	-0.2103	4.6209	0.5456
4136.0696	-2.5469	-2.6240	-38.6840	-35.8511	-1.8111	-6.9462	0.8659	2.3888	3.5256	2.7444	2.7655	-0.7515	-0.0252	1.0873	8.5161	0.9912
4144.0697	-1.6584	0.1398	-43.2620	-16.8519	-3.3670	2.4253	1.8995	10.0082	-2.5189	1.8629	3.2811	-0.8512	-1.0903	3.1615	-1.8811	2.1869
4152.0699	-3.2079	-3.5714	-45.0762	-22.5379	-2.1660	-10.0129	0.2321	-7.4115	-3.2043	2.3287	4.3570	-1.2166	0.3294	-0.6776	5.7446	-0.2374
4160.0700	-2.7910	-2.7874	-57.7527	-25.4242	-2.6809	-1.9895	1.2037	-11.6303	-7.0505	2.2560	5.1287	-0.8604	-0.3425	0.6915	20.6232	-0.2507
4168.0701	-0.8626	0.9693	-49.2941	-16.5882	-3.4031	12.7048	2.5742	1.5868	-2.5198	1.3016	2.0288	-0.2654	-1.5755	3.9288	21.1621	1.3772
4176.0703	-2.0397	-3.0667	-37.0905	-32.3930	-0.6612	-1.3068	0.2764	-18.8449	5.9217	1.8440	0.5913	-0.2435	0.3840	-0.7459	27.9111	-1.6845
4184.0704	-2.5401	-3.5691	-49.0125	-24.7852	-1.4578	-1.3171	0.3757	-24.0122	-1.6118	1.7144	2.6083	-0.5316	0.2790	-1.1253	32.9033	-2.1282
4192.0705	-2.2122	-1.4483	-49.7388	-12.7863	-3.6109	3.6273	1.4641	-2.0355	0.0430	1.5072	1.4330	-0.8858	-0.6636	1.5567	27.3491	0.3110
4200.0707	-3.3693	-3.5969	-44.9736	-25.0721	-3.3996	-5.7443	0.6558	2.7524	10.8228	2.4124	-0.6673	-1.2497	0.1886	0.3079	32.2573	0.2494
4208.0708	-3.0398	-3.6749	-41.9488	-22.7833	-3.0614	-5.3533	0.7702	2.8337	5.8481	2.1775	0.3445	-0.9814	0.0831	0.4286	40.9614	0.2818
4216.0709	-2.3164	-3.8755	-27.9967	-23.9024	-1.4282	-6.3138	0.3381	-1.4548	3.7854	1.7886	0.4828	-0.4181	0.3629	-0.2969	45.2333	-0.3141
4224.0711	-2.2968	-4.7252	-26.5698	-27.1339	-0.5556	-8.6836	0.1114	-7.1309	-1.4396	1.8252	2.1553	-0.1612	0.5742	-0.9747	51.8287	-0.8649
4232.0712	-1.2703	-2.7089	-33.9993	-16.4019	-1.0095	-0.5792	1.1909	-7.9320	-15.8624	1.1646	5.6572	0.1733	-0.4454	0.7953	48.1790	-0.1979
4240.0714	-0.0957	0.3158	-38.7428	-4.9856	-1.6295	12.1420	1.8921	-13.0522	-15.2050	0.2213	4.3770	0.3255	-1.2420	2.1023	32.3865	-0.3467
4248.0715	-0.2585	-0.1271	-35.1004	-6.2328	-1.1106	9.6779	1.3593	-17.0073	-12.4537	0.2399	3.7782	0.2539	-0.8488	1.1353	26.4801	-0.9391
4256.0716	-1.0410	-2.8936	-18.9174	-19.3137	0.6561	-5.3189	0.1427	-13.2737	-11.4398	1.0777	4.8249	0.2565	0.2534	-0.7832	27.1914	-0.9710
4264.0718	-0.0045	-0.0229	-12.1034	-4.5012	-0.7467	3.7978	0.9667	2.1805	-5.5424	0.2690	1.5956	0.2195	-0.5899	1.4433	20.2529	0.5905
4272.0719	0.0362	0.3791	-15.5080	6.5486	-1.5216	6.7520	1.0985	1.5503	-7.4309	-0.2335	1.2536	0.0635	-0.7888	1.4836	24.5479	0.4052
4280.0720	-1.7537	-3.7397	-23.0177	-14.2358	-0.1176	-7.4963	-0.1629	-13.4277	-9.0210	1.0832	3.8924	-0.1689	0.5098	-1.5485	32.8531	-1.3456
4288.0722	0.2608	0.2552	-18.4733	-14.6716	-0.0772	6.2330	1.2594	-5.8304	-8.3722	0.5531	3.1584	0.5494	-0.7519	1.7678	16.5105	0.2460
4296.0723	2.0406	2.6473	3.7498	-11.7973	1.3586	12.2344	1.2530	-2.6870	-3.2147	-0.2828	0.7061	1.2402	-0.9726	2.5419	1.0236	0.5759
4304.0724	0.6746	0.1667	9.0282	-13.3855	1.6661	0.9694	-0.1732	-5.1924	4.2659	0.1515	-0.8360	0.6140	0.2006	-0.1179	-1.5857	-0.4494
4312.0726	0.7383	1.0162	0.3833	-9.4117	0.7966	1.5627	0.6645	2.2229	-7.2972	0.3176	3.0166	0.4870	-0.4997	1.4604	-10.3156	0.9935
4320.0727	-0.3057	-0.4344	-9.6101	-16.0049	0.7546	-4.7828	0.3023	-3.0158	-10.4260	1.0271	5.2864	0.0848	-0.1177	0.4676	-17.1703	0.6050
4328.0728	-1.0921	-0.8728	-9.6962	-7.6068	-0.2671	-5.8054	-0.4296	-3.6176	2.2771	0.8143	1.0071	-0.6017	0.4029	-0.8609	-19.8372	-0.2100
4336.0730	0.4798	0.6897	6.8205	-3.9399	1.0127	-1.3434	-0.1402	-0.5380	-2.0686	0.0752	1.2976	0.1875	0.0213	0.0798	-20.3817	0.2764
4344.0731	0.0873	-0.4354	13.1376	-10.7992	1.8464	-6.5701	-0.8864	-3.3575	3.3984	0.3894	0.2492	0.1335	0.6655	-1.2010	-22.8843	-0.3322
4352.0732	0.2923	0.8063	19.5770	-1.8620	1.1234	-3.5040	-1.0579	2.2829	13.9798	-0.0631	-3.5955	-0.1790	0.6572	-1.0518	-34.5545	-0.1263
4360.0734	1.3198	1.8603	19.9883	-6.3537	2.1572	-0.6753	-0.3353	0.8070	0.6780	-0.1115	0.6609	0.4980	0.0514	0.2722	-39.3543	0.5409
4368.0735	1.0526	1.7871	11.9559	-6.8052	1.4754	0.4064	0.0161	1.7221	-0.7868	0.0626	1.1996	0.3778	-0.1614	0.7452	-34.1892	0.7644
4376.0736	2.4637	4.0776	28.6670	12.1528	1.1225	8.8106	0.2973	11.0619	3.7726	-1.2926	-2.5250	0.6787	-0.6451	1.8032	-30.5178	1.3168
4384.0738	2.6622	3.4048	36.5065	12.2448	2.3309	5.4150	-0.2170	5.9037	-0.8316	-1.4713	-1.2141	0.9331	-0.2943	0.7646	-30.3800	0.7020
4392.0739	1.8068	1.6538	32.9455	-1.2830	2.9199	0.4516	-0.8476	-1.8497	5.4175	-0.7679	-2.0010	0.8118	0.3900	-0.6391	-26.4424	-0.3252
4400.0740	3.6962	4.6421	33.7065	1.4879	2.8987	14.7142	0.6352	1.2071	0.8780	-1.5367	-1.9877	1.7115	-0.8535	2.2486	-18.1748	0.6080
4408.0742	2.8530	5.2197	13.1810	9.0614	0.4417	16.7253	1.4113	7.7370	-2.0528	-1.2418	-0.7751	0.9339	-1.4545	3.4937	-24.7865	1.6324
4416.0743	-0.5797	0.3702	0.4533	-6.3663	-0.3921	-3.1223	-0.3809	4.8297	11.8976	0.6149	-2.2131	-0.5771	0.3021	-0.1352	-27.9661	0.4635
4424.0744	-0.5279	-0.1748	-1.4961	-10.0262	-0.0218	-3.2536	-0.2380	2.0013	7.5569	0.6985	-0.9308	-0.3140	0.2674	-0.1253	-16.2728	0.2694
4432.0746	-0.3868	1.8793	-13.8101	3.9903	-2.5999	4.2038	1.0822	16.4313	4.5133	0.4205	-0.7832	-0.7295	-0.8509	2.4772	-17.9306	2.1306
4440.0747	-0.7697	1.5542	-17.4933	-2.5041	-3.1776	2.6678	1.4383	24.2515	6.3370	0.9832	-0.7427	-0.8486	-0.9841	3.2909	-12.8989	3.0286
4448.0749	0.7061	2.2912	-13.1036	-1.1315	-1.4122	8.5357	1.8249	11.9969	-8.2603	0.1970	2.6240	0.2086	-1.3900	3.5520	-1.4259	2.2319
4456.0750	-0.6435	-0.8502	-7.5696	-1.4716	-0.0252	-4.9089	-0.1706	-3.3533	-7.1908	0.4073	3.0780	-0.2868	0.1469	-0.5746	-8.6925	-0.0735
4464.0751	-2.0158	-2.6542	-10.1470	-8.7650	-0.3813	-13.8748	-0.8793	-0.5562	-0.2858	1.2717	2.3211	-0.9384	0.8445	-1.7922	-14.2723	-0.1170
4472.0753	-0.6547	1.3717	-18.2715	3.3391	-2.4725	1.8726	1.0181	13.0233	-1.2019	0.5830	1.3422	-0.7987	-0.7957	2.1288	-20.4545	1.9664
4480.0754	-1.5927	-0.5963	-16.9875	-6.5333	-1.4599	-5.8817	-0.1590	2.5023	5.0265	1.1241	0.6001	-1.0554	0.2180	-0.2341	-26.5326	0.5022
4488.0755	-0.7229	-0.0352	-14.4463	-12.1976	-0.0674	-3.0893	0.0305	-5.6818	-1.6822	0.9574	2.6944	-0.4045	0.0389	-0.0194	-28.6261	0.0983
4496.0757	0.6326	2.8828	-10.9964	0.4231	-0.7673	5.9370	1.0965	4.3400	-6.8948	0.1724	3.1277	-0.1292	-1.0162	2.3887	-38.2708	1.6079
4504.0758	-1.7899	-1.7482	-9.4737	-7.1219	-0.3844	-12.8071	-0.8442	-0.1408	-0.0297	1.2033	2.4967	-1.0243	0.7193	-1.5177	-30.8119	0.1309
4512.0759	-0.6156	0.6558	-15.8488	7.4756	-1.7218	0.9216	0.4723	2.8949	-4.2822	0.1733	1.7361	-0.6648	-0.4337	0.7330	-14.9733	0.6875
4520.0761	0.8761	3.5504	-13.2672	16.4836	-2.5395	13.8159	1.7135	11.4480	-3.2236	-0.6775	-0.2122	-0.1791	-1.5239	3.3617	-8.4575	1.8157
4528.0762	1.0894	1.3734	9.1490	2.4701	0.4829	5.0850	0.3927	3.4907	-0.3948	-0.5077	-0.6975	0.5055	-0.3923	1.0283	1.7668	0.4602
4536.0763	4.3035	4.9996	32.9339	14.1966	2.6734	19.2530	1.0790	-0.4775	-9.2945	-2.3525	-0.5177	2.0460	-1.2972	2.6606	1.0326	0.4476
4544.0765	2.5750	1.6036	34.2864	10.2397	3.2439	4.1771	-0.4389	-5.7387	-8.7787	-1.6421	0.5405	1.3928	-0.0081	-0.4282	-0.1036	-0.6876
4552.0766	0.1182	-2.1509	27.3847	6.4612	2.4685	-10.9512	-1.7699	-5.8617	-2.6957	-0.6100	0.0502	0.2897	1.2387	-3.2059	5.1474	-1.4781
4560.0767	2.3352	2.7446	25.3319	22.3167	1.3625	9.1939	-0.0686	-1.5819	-4.1975	-1.9772	-1.4923	0.8389	-0.3938	0.2623	-5.1411	-0.3607
4568.0769	1.3956	0.9496	19.9713	11.4455	2.2382	1.7115	-0.8711	-12.8334	-5.0078	-1.2740	0.2611	0.6062	0.3329	-1.5654	-14.4340	-1.4832
4576.0770	1.3383	1.2144	23.8419	14.1356	1.9095	1.6808	-1.0301	-8.7456	0.8293	-1.3560	-1.6649	0.4186	0.4235	-1.5984	-18.3834	-1.3044
4584.0771	3.2590	5.1840	30.2598	24.7532	1.2570	16.4622	0.2389	0.8443	3.6136	-2.3809	-4.0855	0.9289	-0.7935	1.3744	-26.6873	0.0674
4592.0773	1.6286	2.1062	18.4626	13.4922	1.8619	5.4994	-0.7341	-13.0725	-0.4758	-1.4303	-1.1316	0.4897	0.1480	-1.1411	-26.8381	-1.4222
4600.0774	1.0767	1.5255	9.6977	20.9492	0.9835	6.8777	-0.9065	-19.1921	0.8400	-1.6930	-2.1629	0.1577	0.2777	-1.9561	-16.6562	-2.3753
4608.0775	2.2142	3.2050	18.7725	25.5781	1.0982	13.8347	-0.4281	-14.1322	3.5350	-2.3281	-4.1107	0.6119	-0.1896	-0.7176	-12.6721	-1.8691
4616.0777	1.9918	2.4880	25.0455	13.5651	2.1086	7.4270	-0.8084	-11.7978	4.7391	-1.6533	-3.1414	0.6571	0.1906	-1.0779	-24.0801	-1.5064
4624.0778	2.0765	2.6989	26.1320	10.0345	2.3048	6.9912	-0.7481	-10.3273	5.1132	-1.4784	-2.8628	0.7014	0.1549	-0.8107	-29.8363	-1.2136
4632.0779	2.0881	2.2317	25.6000	10.6291	2.7676	5.2822	-0.8436	-14.2353	-1.4690	-1.5238	-0.8531	0.8224	0.2138	-1.2158	-27.8658	-1.4988
4640.0781	0.6245	0.6553	15.5304	12.2077	1.5110	-0.3432	-1.3045	-13.5562	2.9536	-1.0309	-1.6256	0.0129	0.6696	-2.3153	-26.0204	-1.8088
4648.0782	0.3285	0.1658	16.4879	5.5762	1.0227	-1.4964	-1.0545	-4.0718	8.8339	-0.5759	-3.1998	-0.0130	0.6477	-1.6115	-12.7909	-1.0136
4656.0784	2.6673	3.0526	27.8746	7.0975	2.1181	9.0213	0.2864	2.0834	-2.4448	-1.3616	-0.9710	1.2096	-0.5378	1.2680	-9.4158	0.4075
4664.0785	3.6886	5.3566	24.3574	18.9253	1.6000	21.0039	0.7799	-4.9728	-0.5609	-2.3894	-2.9967	1.4113	-1.1262	2.0189	-13.0077	-0.2252
4672.0786	2.7871	3.5906	21.0978	12.6519	1.8032	17.3910	0.0018	-13.9729	7.4195	-2.0660	-5.0422	1.1727	-0.3814	0.2193	-3.5833	-1.6732
4680.0788	2.6997	2.5930	28.6439	11.7228	2.3238	10.7281	-0.0624	-5.8366	-0.7918	-1.8227	-2.3382	1.3027	-0.2912	0.2665	2.7171	-0.7888
4688.0789	2.9183	1.8514	41.5095	16.1633	3.0820	6.0623	-0.4048	-0.9139	-5.9840	-2.0716	-1.3098	1.5212	-0.0680	-0.2132	11.1612	-0.5304
4696.0790	2.9942	1.4883	49.9880	18.7755	3.7229	2.3003	-0.8343	0.0667	-8.2745	-2.2001	-0.6669	1.5544	0.1973	-0.8606	6.7771	-0.5583
4704.0792	2.3120	2.4152	40.7462	38.3143	1.2498	2.9636	-0.6112	10.0773	-7.9835	-2.4863	-1.2100	0.5640	-0.1564	-0.3236	-8.3465	0.3867
4712.0793	0.5585	-0.5988	29.2423	41.1333	0.8253	-3.2316	-1.9040	-6.8555	-2.6343	-2.3621	-2.8400	-0.1416	0.9556	-3.6698	7.2148	-2.2153
4720.0794	-0.1970	-3.2835	28.8406	32.0579	2.2894	-11.7556	-2.8245	-19.9263	-8.0582	-1.9322	-0.4587	-0.0242	1.8086	-5.9662	18.2881	-3.7535
4728.0796	0.8415	-0.7379	36.1128	38.1258	1.1834	-7.7057	-1.4283	6.5116	-12.7924	-2.0175	0.6228	0.1326	0.6294	-2.4115	9.9230	-0.4522
4736.0797	1.6947	0.4926	40.0445	36.7966	1.5359	-0.6636	-1.1571	3.8167	-7.2223	-2.4306	-1.7360	0.5591	0.3895	-1.7995	13.3254	-0.7514
4744.0798	0.8102	-1.4369	39.4011	32.3833	2.2579	-6.4202	-2.2825	-8.8631	-2.1800	-2.2096	-2.7592	0.3046	1.3295	-4.2774	14.4668	-2.5523
4752.0800	-0.2191	-2.1954	41.2463	25.8996	0.9060	-14.2175	-2.0864	14.6726	4.9280	-1.1484	-3.7117	-0.3204	1.3657	-3.1573	12.5975	-0.2704
4760.0801	-0.6249	-2.2399	30.8215	11.5575	0.6696	-14.0730	-1.7074	14.3364	8.1703	-0.3059	-3.3005	-0.4016	1.2459	-2.4479	6.8343	0.0959
4768.0802	-0.5741	-2.0145	21.6542	-1.3028	1.2602	-13.6387	-1.3467	7.9401	3.1573	0.2931	-0.4277	-0.2020	1.0464	-1.9350	-5.0452	0.1457
4776.0804	0.4477	0.0055	23.1870	-16.2151	1.3795	-8.3472	-0.0152	21.6256	3.4612	0.8720	0.3711	0.3653	0.1235	1.2437	-12.2145	2.3902
4784.0805	0.2083	0.1245	14.1079	-19.3206	1.4198	-6.6733	-0.1739	10.7774	5.0621	0.9813	0.4358	0.2145	0.2360	0.6419	-23.2283	1.4412
4792.0806	-0.7672	-1.0920	6.0093	-12.2201	0.5759	-10.8863	-0.5409	8.4626	2.1017	1.0495	1.3500	-0.3457	0.5177	-0.4317	-20.6518	0.9792
4800.0808	0.2312	0.5452	6.3966	-11.4579	-0.2332	-1.8328	0.7810	20.5196	2.2120	0.7680	0.2137	0.1731	-0.4491	2.2650	-0.0613	2.4426
4808.0809	1.1604	0.5949	14.6367	-11.1993	1.0948	1.4238	0.7597	13.2841	-2.0534	0.1779	0.4818	0.9147	-0.4629	2.0008	15.9481	1.6296
4816.0810	0.7182	-0.8656	14.1844	-12.9085	1.4615	-4.0999	0.5372	12.5146	-9.0679	0.4284	2.8516	0.9308	-0.2150	1.3319	25.8892	1.5245
4824.0812	0.4161	0.3853	-8.3842	-12.4077	-0.3639	4.3547	1.4073	8.4295	-6.0808	0.5622	2.1305	0.5590	-0.8543	2.5672	21.9425	1.5055
4832.0813	0.5701	1.2957	-16.8680	-9.8480	-0.9045	10.1620	1.6981	2.4419	-4.3393	0.3223	1.3349	0.5066	-1.1261	2.8734	18.6206	1.0287
4840.0814	0.1991	0.4187	-13.3081	-15.7350	-0.9076	5.0695	1.7081	11.5672	-4.1888	0.8491	1.8452	0.4591	-1.0081	3.1473	24.5248	1.9128
4848.0816	-0.0661	-0.3922	-9.6057	-18.8350	0.0192	1.7253	0.8686	2.2344	-0.5296	0.8805	1.1231	0.3998	-0.3736	1.4844	17.1009	0.6934
4856.0817	0.2328	-0.6092	-4.4646	-15.5644	1.1966	0.4940	0.2778	-8.3725	-5.0258	0.4673	2.2646	0.5953	-0.0415	0.1720	10.2207	-0.4340
4864.0819	-1.1444	-2.0665	-15.9521	-21.8944	-0.2525	-6.3563	0.5591	3.4158	-5.4539	1.5384	3.6329	-0.0350	-0.0342	0.7141	16.0897	0.8514
4872.0820	-2.0163	-3.0245	-23.3696	-29.2619	-1.2573	-9.1031	0.7964	11.0250	-0.7685	2.2810	2.9087	-0.3678	-0.0066	1.1839	26.6559	1.5405
4880.0821	-0.8915	-1.0378	-24.5685	-17.4542	-1.5483	2.1326	1.3379	5.1379	-1.6712	1.2114	1.5049	-0.0014	-0.6085	1.9808	31.1429	1.0028
4888.0823	-2.0618	-2.3368	-29.3338	-15.4494	-1.7546	-3.4413	0.2394	-4.3549	4.8219	1.4043	0.1970	-0.7260	0.2167	-0.3097	17.3587	-0.4178
4896.0824	-3.1878	-4.5237	-26.8551	-31.0128	-0.9035	-17.4271	-0.4022	0.7504	1.9287	2.7002	3.3499	-1.0291	0.8950	-1.2394	5.0913	0.2614
4904.0825	-2.2620	-2.5257	-31.6770	-20.4037	-1.6595	-8.9772	0.5994	3.4611	-6.0729	2.0485	4.7272	-0.7886	-0.0315	0.5564	5.1566	1.0153
4912.0827	-3.1024	-2.5166	-43.8246	-3.5793	-3.5052	-3.4202	-0.0045	-8.2655	7.2245	1.2953	-0.6171	-1.6197	0.3228	-1.1385	8.3815	-1.0305
4920.0828	-3.2072	-1.5794	-54.6626	-1.0883	-4.9976	1.2498	0.7908	-2.2368	8.1046	1.3899	-0.9763	-1.8549	-0.2655	0.3346	9.8645	-0.1715
4928.0829	-2.4782	-0.1670	-53.7979	0.3198	-5.1563	4.6614	1.5792	5.3421	1.9699	1.2927	0.7798	-1.5912	-0.9381	2.0752	4.5460	1.1202
4936.0831	-3.6549	-3.0346	-48.5284	-15.0969	-3.8081	-6.6931	0.2211	-2.0737	9.7261	2.1499	-0.1351	-1.7863	0.3213	-0.5286	6.2693	-0.1881
4944.0832	-2.4697	-1.0250	-57.7293	-18.1052	-3.5925	4.2468	1.3408	-9.4364	2.6989	1.8246	1.6622	-1.1271	-0.5864	1.2652	6.4657	-0.1505
4952.0833	-1.5863	1.6175	-63.5084	-1.9174	-4.4849	16.5621	1.7244	-17.5462	5.4745	0.6888	-0.6103	-1.1822	-1.1656	1.8194	-6.8428	-0.8941
4960.0835	-4.1255	-2.4130	-63.0644	-11.3196	-4.8382	-1.0956	0.0468	-14.5162	18.5375	1.9649	-2.8138	-2.2952	0.3987	-1.2566	-5.0347	-1.5853
4968.0836	-3.3868	-3.0134	-48.1745	-21.8648	-3.1939	-6.2113	0.3873	-3.9910	7.7391	2.3242	0.7928	-1.4777	0.2474	-0.2385	7.8501	-0.1578
4976.0837	-1.4734	-0.1657	-34.0554	-13.6845	-3.0722	2.8262	1.5241	10.3411	3.3463	1.4789	0.6341	-0.7157	-0.8075	2.5470	10.0087	1.6844
4984.0839	-1.8560	0.4931	-45.4394	-6.9441	-4.8687	5.2068	2.1960	18.3279	2.0052	1.5666	0.9505	-1.1748	-1.3351	3.7803	8.9890	2.6963
4992.0840	-1.9341	-0.7661	-43.6017	-3.3545	-3.3809	2.2150	1.1710	-1.3451	-4.0386	1.1027	2.4918	-1.0236	-0.6435	1.2244	8.5912	0.4509
5000.0841	-3.1748	-2.5500	-42.9735	-4.2343	-3.6657	-5.4916	0.1717	-2.0708	4.5060	1.5080	0.4976	-1.6713	0.2028	-0.6366	6.4074	-0.2523
5008.0843	-2.5862	-1.4465	-38.8887	-5.3017	-3.9021	-3.4616	0.8983	10.0122	2.2976	1.5776	1.1305	-1.4396	-0.3597	1.1688	5.6037	1.3184
5016.0844	-0.9280	-1.1562	-12.9137	-1.5464	-0.6398	-0.9845	-0.2423	-8.4084	2.0932	0.2675	-0.3338	-0.3801	0.2886	-1.0019	6.9423	-1.0362
5024.0845	-1.9918	-2.0716	-16.7940	2.5480	-1.7695	-4.7040	-0.7386	-5.6542	10.0516	0.4809	-2.5806	-1.0957	0.7076	-1.9233	5.8849	-1.2553
5032.0847	-0.2744	0.6420	-15.1959	1.6234	-1.9714	4.4015	1.1891	10.2733	-2.6193	0.2900	0.7048	-0.2314	-0.8146	2.1074	11.5746	1.4108
5040.0848	1.0553	1.0952	0.9323	-2.0812	0.2235	7.9475	0.8717	0.9127	-2.3768	-0.3618	-0.2126	0.7111	-0.6359	1.5591	18.5132	0.3302
5048.0849	-1.1762	-2.0127	-4.2211	-5.7841	-0.1396	-5.7010	-0.7414	-4.8137	7.0577	0.5065	-1.5472	-0.4110	0.7365	-1.6581	8.6253	-1.0053
5056.0851	-1.5794	-3.6291	-1.5203	-16.0646	1.1534	-13.6961	-1.2461	-8.7291	1.0934	1.0936	1.3897	-0.2779	1.2281	-2.7036	7.0357	-1.2741
5064.0852	-1.2968	-2.5043	-3.8864	-13.4261	0.4395	-7.9166	-0.8885	-7.0906	7.2466	0.8526	-0.9551	-0.3132	0.9228	-1.9325	6.8522	-1.1494
5072.0854	-0.6149	0.3173	-7.9698	0.7353	-1.2522	1.8368	-0.0380	0.8758	10.5488	0.1901	-2.9163	-0.5612	0.0534	-0.0092	-7.6194	-0.1106
5080.0855	-0.5471	-0.6999	-5.9902	-10.9726	-0.2944	-1.2426	0.1265	1.4612	5.2732	0.6683	-0.7838	-0.0994	0.0957	0.2143	6.3562	0.1513
5088.0856	-0.6601	-1.1774	-6.0009	-20.9009	-0.4835	-2.9623	0.6794	12.1702	5.0217	1.2918	-0.2140	0.0843	-0.1322	1.4571	20.5471	1.3982
5096.0858	1.1906	2.0606	-1.3029	-6.9079	-0.0744	7.4433	1.4597	10.0222	-5.6625	0.1211	1.7791	0.6484	-1.0898	3.0688	1.4958	1.8612
5104.0859	-0.7260	-0.5642	-16.7957	-8.1995	-0.5845	-0.6534	0.3267	-4.6588	-2.9581	0.6839	2.0128	-0.2437	-0.1130	0.2012	-1.4510	-0.0682
5112.0860	-2.7705	-3.2731	-25.7430	-15.5692	-2.0264	-10.2643	-0.1976	2.9249	7.2126	1.7996	0.0577	-1.1510	0.5887	-0.8479	11.9971	0.0890
5120.0862	-1.4015	-1.3234	-26.6905	-5.4220	-1.9773	-1.6667	0.8176	2.5914	-6.3457	0.9564	2.8732	-0.5386	-0.3726	0.8720	16.2920	0.6502
5128.0863	-2.1203	-2.1911	-33.3348	0.1211	-2.2176	-4.1349	0.1841	-7.2018	-6.6715	0.8552	3.0357	-0.9815	0.0629	-0.7420	11.0755	-0.5840
5136.0864	-1.9282	-2.4926	-13.1020	-4.8098	-0.9356	-8.0189	-0.8239	-5.2078	7.0251	0.8201	-0.9925	-0.8896	0.8255	-1.9686	2.8473	-1.0168
5144.0866	-1.1052	-1.2294	-14.2808	-7.4021	-0.6774	-2.3727	-0.1429	-5.5547	3.4729	0.6668	-0.0932	-0.4378	0.2781	-0.6701	2.7431	-0.6033
5152.0867	-1.6016	-0.3116	-33.2152	-2.6332	-2.6524	1.0438	0.7091	-1.2717	-0.1163	0.9209	1.3767	-0.9843	-0.3900	0.7398	-5.8494	0.3301
5160.0868	-1.4741	-0.2358	-23.3375	3.0473	-2.2352	-1.2626	0.1612	-0.2910	1.9417	0.6084	0.4840	-1.0747	-0.0877	-0.0168	-15.2325	0.1560
5168.0870	-1.9130	-3.2911	-4.2265	-4.6078	0.4585	-13.9987	-1.6275	-11.2533	2.0493	0.7439	0.8593	-0.8011	1.3582	-3.4652	-8.0866	-1.6912
5176.0871	-0.9900	-3.0813	8.4958	-13.3958	2.3130	-13.5707	-1.7690	-14.7917	1.3297	0.6480	1.1209	-0.0650	1.4749	-3.5206	-7.1720	-1.9483
5184.0872	-0.0472	-0.0731	-6.7464	-11.9064	0.7596	-0.0567	0.0086	-9.2449	-1.4909	0.4786	1.6226	0.1512	0.0631	-0.1755	-10.6808	-0.5051
5192.0874	0.1380	1.1416	-10.4798	-8.4798	-0.5140	3.1887	0.8888	3.7209	-2.4752	0.5515	1.7906	0.0246	-0.6244	1.7812	-11.8422	1.1229
5200.0875	0.9858	1.6692	3.8709	-4.0087	0.5157	4.2383	0.6322	3.7615	-2.8103	-0.0477	1.0499	0.4440	-0.5487	1.5502	-11.4600	0.9407
5208.0876	-0.1643	-0.9435	-2.1505	-11.4288	1.5317	-4.2012	-0.4970	-13.1220	-5.1221	0.4354	2.7886	0.2063	0.4316	-1.2268	-10.6441	-1.0232
5216.0878	0.6424	-0.1347	13.4920	-15.3804	2.8949	-6.8752	-0.6068	-6.9080	-7.6420	0.4647	4.0543	0.5780	0.4194	-0.7652	-29.1865	-0.1025
5224.0879	2.5689	4.3074	21.5428	2.4931	1.6298	8.2341	0.7205	8.1516	-4.2980	-0.7719	1.0995	0.8723	-0.9233	2.4979	-41.5722	1.7435
5232.0880	0.7745	2.1482	7.6628	5.5952	0.1234	3.1680	0.0429	3.7284	2.8552	-0.3772	-0.8178	-0.0527	-0.2651	0.6932	-30.8922	0.6334
5240.0882	-0.0614	-0.5707	13.2669	-0.4842	1.7525	-7.3485	-1.3488	-8.7927	1.3141	-0.0722	0.3605	-0.1088	0.8829	-2.2721	-28.2749	-1.1009
5248.0883	1.0025	0.8539	12.5065	-3.7044	2.3004	1.3650	-0.7639	-15.1121	1.1919	-0.4692	-0.1731	0.5200	0.4077	-1.2964	-23.6732	-1.4425
5256.0884	2.0028	2.7964	14.1061	-11.1844	1.5904	8.4247	0.8173	4.1732	1.8642	-0.1982	-0.4839	1.0409	-0.6982	2.2827	-13.7120	1.0906
5264.0886	1.0348	2.0340	10.0764	2.3967	-0.1172	2.4759	0.8304	17.1479	-3.4985	-0.1102	0.9620	0.2746	-0.7524	2.3578	-12.7466	2.2414
5272.0887	-1.7960	-1.7365	-10.8617	3.9451	-1.4470	-8.3275	-0.6978	1.3434	3.8242	0.5896	-0.2440	-1.1028	0.5938	-1.4835	-8.3005	-0.2402
5280.0889	-1.0510	-0.4145	-15.4447	-7.5867	-1.2761	-1.9568	0.2869	3.0845	3.3676	0.8864	0.3352	-0.5866	-0.0694	0.4736	-7.2604	0.5600
5288.0890	1.1603	2.8667	-3.6034	10.8161	-0.9410	8.4642	1.3339	9.5228	-10.2647	-0.5288	2.4464	0.1995	-1.2370	2.7566	-12.8455	1.7862
5296.0891	1.2104	1.8742	14.5895	12.9641	0.6651	3.5842	-0.1138	1.4413	-2.2561	-0.9721	-0.3770	0.2643	-0.2157	0.2194	-17.4105	0.1729
5304.0893	0.3749	0.9433	6.8843	0.7094	0.2636	0.5504	-0.1094	3.0077	3.6469	-0.1064	-0.9513	-0.0091	-0.0128	0.2268	-16.1549	0.3518
5312.0894	-0.5143	-0.5292	-5.0994	4.9176	-0.7891	-2.0461	0.0471	2.9467	-3.0062	0.0713	0.8378	-0.3176	-0.0260	-0.0647	4.1597	0.2446
5320.0895	0.7553	-0.0667	16.1477	4.4732	1.0069	-0.6053	-0.2031	3.4993	-2.3010	-0.5488	-0.3641	0.4965	0.0923	-0.1640	12.1489	0.0623
5328.0897	2.8757	2.9107	31.6580	9.2429	2.4752	7.4515	0.3190	3.9365	-8.3745	-1.4711	0.6437	1.3711	-0.5951	1.3402	-6.9862	0.6830
5336.0898	3.4383	3.7066	33.8568	11.4914	2.8445	10.6110	0.4316	0.9600	-10.0580	-1.8147	0.7945	1.6068	-0.7678	1.5553	-10.8755	0.5110
5344.0899	2.7125	4.4827	17.0854	10.0300	0.2394	14.8088	1.4539	14.2669	-2.0118	-1.2183	-1.2348	0.9877	-1.4085	3.6159	-7.6565	2.0252
5352.0901	1.1494	2.8932	2.6904	15.3276	-1.1169	9.1468	0.9574	10.8323	-1.9763	-0.8413	-0.6960	0.0766	-0.9822	2.2230	-9.8620	1.4144
5360.0902	0.6306	0.1882	14.8542	9.8179	0.9543	0.6171	-0.6935	-4.4593	2.0007	-0.8751	-1.8463	0.2379	0.3592	-1.2000	0.7718	-0.9621
5368.0903	1.6677	2.4634	16.6764	11.9724	-0.1756	9.0991	0.7591	13.7483	2.5526	-1.0591	-2.8038	0.5850	-0.7615	2.0672	8.9463	1.2832
5376.0905	3.2059	4.4111	25.0658	18.3590	0.0623	15.0259	1.8957	24.9947	-9.3778	-1.6517	-0.2821	1.3204	-1.7642	4.5216	14.9997	2.9986
5384.0906	2.5211	2.7909	18.4344	17.3538	0.5524	12.5074	1.1252	8.6559	-9.6612	-1.6677	-0.1197	1.1883	-1.1247	2.3853	21.9106	1.0154
5392.0907	0.4115	1.0910	-6.7290	23.8206	-1.3691	9.7563	0.2614	-6.9262	-1.8905	-1.3733	-1.8897	-0.1082	-0.4193	-0.1109	15.3565	-1.0791
5400.0909	1.7075	1.7331	11.6983	22.1492	0.8254	11.7384	-0.1949	-14.2458	-1.8993	-2.0216	-2.5362	0.6932	-0.1927	-0.7442	12.4464	-1.9211
5408.0910	3.3682	4.2658	23.1878	23.3615	1.0998	20.4503	0.7947	-3.3785	-1.5399	-2.5574	-3.5954	1.4142	-1.0525	1.7279	13.1509	-0.4675
5416.0911	3.4569	4.8469	23.0386	27.1903	0.4417	21.0679	1.1934	4.9452	-3.3579	-2.5670	-3.1729	1.3114	-1.3908	2.6874	11.3300	0.5199
5424.0913	3.5989	2.6885	37.9348	16.4047	3.2064	12.8209	0.1259	-6.1060	-8.5363	-2.4425	-1.2208	1.9565	-0.4880	0.5076	20.9585	-0.8531
5432.0914	2.0419	1.0840	24.8452	20.7230	1.5838	8.8051	-0.3067	-7.2213	-2.9443	-2.0945	-2.7004	1.0773	-0.0537	-0.7009	28.0560	-1.4659
5440.0915	1.7249	2.0661	14.2460	28.7668	-0.3021	13.0405	0.2405	-1.0781	0.4537	-2.1684	-4.0283	0.5659	-0.5145	0.3403	24.7068	-0.7969
5448.0917	1.7575	1.4362	21.5648	24.4961	0.7718	7.7343	-0.1413	-1.1667	-3.7415	-1.9563	-2.1731	0.7151	-0.2228	-0.2242	18.1466	-0.7173
5456.0918	0.3757	-0.9067	28.7640	25.7649	0.7471	-5.0518	-1.3991	3.5553	1.2236	-1.4759	-2.9514	-0.0066	0.7980	-2.3691	13.7052	-0.9325
5464.0919	1.7111	0.9002	29.6912	24.9865	1.3077	4.5016	-0.6340	-0.5958	-1.6886	-2.0189	-2.8661	0.7218	0.1413	-0.9925	17.9473	-0.9472
5472.0921	1.2426	0.4244	10.0544	26.5180	0.9959	6.3564	-0.5018	-16.6732	-11.4645	-2.0103	0.3475	0.5788	0.0364	-1.6677	18.2895	-2.1990
5480.0922	-0.7265	-2.9148	7.6971	28.1695	0.8358	-7.9217	-1.9820	-20.9714	-10.1792	-1.4341	0.8565	-0.3266	1.2676	-4.7764	18.4779	-3.3518
5488.0924	0.7946	-1.3263	22.1072	25.6454	2.1843	-2.1547	-1.6642	-20.0153	-9.6977	-1.9612	0.0090	0.5059	0.9363	-3.7795	18.3570	-3.0851
5496.0925	0.0356	-2.1011	28.2936	25.8378	2.0439	-8.3772	-2.5244	-16.4159	0.0200	-1.6873	-2.3579	-0.0518	1.5950	-5.0120	5.5226	-3.2140
5504.0926	-0.5756	-3.5275	39.9814	9.8545	2.4896	-17.0802	-2.9016	-2.2175	10.4018	-0.6684	-4.2435	-0.1269	2.1313	-5.0072	9.6452	-2.1004
5512.0928	1.8149	0.3700	33.8365	-0.1192	2.6375	2.0668	-0.5195	1.1459	4.2807	-0.9991	-3.0744	1.2128	0.3177	-0.4285	19.2147	-0.4988
5520.0929	0.8246	0.4010	19.2883	4.4629	0.9710	1.9603	-0.5230	0.9424	8.4869	-0.7311	-3.8355	0.3988	0.3112	-0.5932	7.1063	-0.5349
5528.0930	-0.2914	-2.0296	22.6944	-17.2986	1.6382	-11.6488	-0.7969	12.7789	8.2579	0.8603	-1.4684	0.2704	0.8487	-0.7041	9.1686	0.7912
5536.0932	-0.1303	-2.4053	16.8381	-29.5338	2.4774	-13.5260	-0.2509	10.9080	-4.0481	1.4662	3.3338	0.7082	0.5477	0.1049	10.6582	1.3518
5544.0933	-1.5264	-2.9208	0.9103	-14.8287	0.7094	-14.9564	-0.9790	1.5306	0.5558	1.2791	1.9454	-0.4571	0.9777	-1.7548	-5.5388	-0.0079
5552.0934	-1.3941	-1.5583	-12.6746	-14.0268	-0.9675	-6.6041	0.1669	7.0506	2.8079	1.3176	0.9279	-0.5287	0.1553	0.3031	2.4731	0.8671
5560.0936	-1.0883	-0.5621	-19.3763	-9.7672	-2.0988	-0.5472	1.0581	12.9282	1.2681	1.1273	0.7009	-0.4608	-0.5204	1.9062	13.5247	1.6592
5568.0937	-1.4359	-1.5924	-9.5368	-6.2814	-1.1581	-5.6718	-0.2355	4.4219	7.1775	0.8590	-1.1625	-0.6796	0.3867	-0.5037	4.7372	0.1660
5576.0938	-1.6101	-3.7463	-0.5947	-18.9119	1.3794	-13.9197	-1.3878	-10.4395	3.7036	1.1701	0.7642	-0.2545	1.3608	-2.9445	6.0608	-1.5104
5584.0940	-2.0523	-3.9473	-7.1510	-12.6606	0.4257	-14.7788	-1.2328	-7.5728	0.3722	1.1793	1.6516	-0.5973	1.2254	-2.8099	7.6552	-1.2018
5592.0941	-0.7568	0.6251	-22.0324	0.4575	-2.2382	4.0362	0.8752	3.8911	1.4044	0.4699	0.1133	-0.6074	-0.5920	1.4037	-2.6992	0.7680
5600.0942	-1.2082	-0.6228	-20.0394	-8.6474	-1.1809	-0.6462	0.0797	-5.2103	5.4013	0.8338	-0.2592	-0.6262	0.0990	-0.1997	-7.1222	-0.3631
5608.0944	-2.4494	-5.0973	6.9153	-19.4256	1.5558	-21.5810	-2.4329	-9.0107	12.2910	1.4354	-1.3430	-0.7358	2.1887	-4.6450	-0.8718	-1.9717
5616.0945	-0.1691	-1.5296	13.4349	-16.1769	1.2610	-7.5593	-0.3661	7.9937	4.5288	0.7558	-0.4791	0.3279	0.5064	-0.2290	10.9019	0.5870
5624.0946	-0.0213	-0.7161	1.2369	-13.5953	0.4488	-2.0193	0.3501	5.4921	-0.1561	0.6429	0.6999	0.3472	-0.0564	0.7703	13.8873	0.7161
5632.0948	-1.2269	-2.5979	-1.9888	-13.1442	0.7571	-7.2185	-1.1551	-11.6370	9.8678	0.6799	-1.9660	-0.2547	1.1116	-2.5058	7.8317	-1.7902
5640.0949	-1.0431	-0.8411	-16.9660	-6.5461	-1.5168	1.9561	0.2808	-1.3310	9.0394	0.5743	-2.3749	-0.4280	0.0166	0.1338	16.2116	-0.3439
5648.0950	-2.3283	-3.2333	-21.5172	-15.9514	-1.9513	-9.2316	0.3030	10.1215	2.9711	1.7237	0.7930	-0.7649	0.2588	0.1670	28.9045	0.8898
5656.0952	-2.6711	-5.2515	-10.3472	-27.8840	0.4799	-17.8294	-1.2044	-5.2199	6.3862	2.0166	0.7490	-0.5691	1.4742	-2.7621	21.5856	-1.0649
5664.0953	-2.3015	-3.4872	-13.1727	-14.6246	-0.7885	-11.9644	-0.7233	-0.0215	7.0037	1.4509	-0.2757	-0.8255	0.9246	-1.7005	12.0904	-0.4451
5672.0954	-1.6774	-2.1434	-10.0440	-7.1489	-1.9078	-10.4680	0.5463	22.8141	-3.2927	1.3976	2.3138	-0.6893	-0.0986	1.1916	17.4525	2.3872
5680.0956	-1.1458	-1.6414	-13.6967	-9.9330	-1.4593	-5.8749	0.9064	15.8840	-6.8947	1.2184	3.1705	-0.2767	-0.3711	1.5830	22.7383	1.9564
5688.0957	-3.0195	-3.7524	-27.2956	-14.7097	-2.2442	-12.9053	-0.0980	6.5161	2.5193	1.9666	1.6237	-1.2351	0.5395	-0.7056	15.3162	0.5381
5696.0959	-2.3500	-2.6148	-26.4546	-21.1369	-1.7346	-10.0662	0.4079	7.8889	-0.0350	2.1046	2.8747	-0.8783	0.1377	0.4697	5.4544	1.2031
5704.0960	-1.0725	-0.7614	-29.6519	-10.1220	-1.5470	1.3434	0.9722	-3.4846	-6.5253	0.9722	3.1972	-0.3230	-0.4955	1.0646	10.7264	0.2970
5712.0961	-3.1095	-3.4419	-34.5166	-1.5949	-2.9179	-7.4474	-0.4056	-6.0205	5.4922	1.1641	-0.4872	-1.4893	0.6386	-1.8313	18.2771	-1.1231
5720.0963	-2.3157	-0.8714	-37.4021	-1.3898	-3.9219	2.2412	0.5766	1.7040	12.6400	1.0055	-2.8942	-1.4104	-0.1735	0.4549	8.2731	0.0163
5728.0964	-0.1929	1.4369	-24.5366	-1.2006	-1.8364	9.3062	1.1115	-3.5895	0.9132	0.2093	0.0172	-0.2805	-0.8080	1.6617	-3.3424	0.2111
5736.0965	0.1860	-0.6371	6.2709	-4.4057	1.3791	-5.3730	-0.2856	-2.3597	-9.4081	0.1780	3.4722	0.2932	0.2007	-0.5144	-6.6542	0.0435
5744.0967	0.8692	1.6280	4.4992	6.1789	-0.1746	2.3901	0.7844	11.1197	-9.2134	-0.2618	2.4853	0.2369	-0.7428	1.8669	-9.0018	1.6801
5752.0968	0.6361	2.7243	-12.4675	10.6608	-1.7666	8.6486	1.4408	9.2004	-8.4577	-0.2901	2.2257	-0.1399	-1.2764	2.8119	-14.4764	1.7835
5760.0969	-0.2113	1.9465	-18.4235	10.0528	-2.1202	4.8864	0.9344	5.0710	-5.3576	0.0285	2.0014	-0.6521	-0.8698	1.7316	-24.6474	1.2257
5768.0971	-0.5088	1.6172	-10.8468	12.2437	-2.4574	2.6462	0.5191	11.7032	4.0110	0.0192	-1.0661	-0.9181	-0.5363	1.3110	-22.9475	1.3703
5776.0972	0.3068	0.1342	15.5807	-4.5137	1.3805	-4.8399	-0.6966	1.7747	3.6618	0.1037	-0.4094	0.0958	0.4562	-0.6975	-21.4817	0.1188
5784.0973	0.5597	1.5649	8.7712	-2.7620	1.0125	0.1259	-0.4547	-2.9858	5.2453	-0.0391	-0.6666	-0.0357	0.1611	-0.2480	-40.3060	-0.0359
5792.0975	-0.9034	1.5137	-4.4481	6.0369	-2.3985	-0.7587	-0.0173	16.2621	16.5229	0.4409	-4.0144	-1.2489	-0.0845	0.8489	-37.8059	1.5399
5800.0976	-0.0491	0.9419	7.4294	-0.0901	-0.5634	-2.1788	0.0246	14.6152	7.5090	0.2975	-1.6441	-0.3693	-0.0681	0.8800	-20.8884	1.4989
5808.0977	0.7514	2.7967	-6.1021	5.5327	-0.5091	7.6993	0.5753	-1.9498	-0.8278	-0.3405	0.4708	-0.1122	-0.6782	1.3132	-33.9221	0.4733
5816.0979	-0.9379	0.1028	-7.2223	-8.7870	-0.1732	-4.0490	-0.6732	-5.3242	10.3661	0.7825	-1.0633	-0.7607	0.5089	-0.9913	-40.0868	-0.3968
5824.0980	-1.0346	-1.3139	1.1474	-13.2749	0.8115	-9.5404	-1.0628	-4.4627	7.4242	0.9466	-0.1265	-0.4952	0.8995	-1.7313	-26.8443	-0.5280
5832.0981	-1.2961	0.4205	-23.7630	10.8393	-2.4110	-0.5075	0.1736	-0.9589	-2.3369	0.2884	1.5521	-1.1956	-0.2399	0.0084	-26.3636	0.2345
5840.0983	-1.3703	-0.2133	-22.8572	10.2123	-1.8420	-2.7881	-0.1042	-5.6203	-6.0749	0.2786	2.7671	-1.1098	-0.0272	-0.6967	-24.9068	-0.2525
5848.0984	0.2544	0.8792	-3.4214	12.8885	-0.0678	1.0724	-0.0563	-6.0631	-10.1364	-0.5602	2.7616	-0.1663	-0.2040	-0.3188	-19.0108	-0.2922
5856.0985	-0.1138	1.9176	-6.8813	12.9406	-1.9538	2.2887	0.6117	12.6281	-1.1518	-0.0917	0.4657	-0.6999	-0.6619	1.5707	-26.4017	1.6684
5864.0987	-0.3919	2.4359	-13.5716	1.8096	-2.6227	4.2897	1.0167	17.1329	8.2106	0.5719	-1.3748	-0.8770	-0.8336	2.5959	-32.8330	2.3104
5872.0988	-0.5979	2.6320	-28.9129	8.6703	-3.6057	9.1855	1.3995	8.9518	3.5986	0.2829	-0.5290	-1.0353	-1.1554	2.6570	-25.4535	1.6149
5880.0989	-2.7885	-1.0026	-37.0048	1.0798	-3.6485	-6.5225	0.1719	4.5960	2.5434	1.4222	1.6265	-1.8987	-0.0087	-0.0309	-27.2550	0.8066
5888.0991	-2.6316	-1.2987	-24.4200	3.0207	-2.4525	-10.5582	-0.7162	0.5265	4.3700	1.1710	1.1094	-1.8676	0.5591	-1.4664	-40.2058	0.1082
5896.0992	-1.4536	1.0758	-26.7209	13.9573	-3.3725	0.5641	0.4476	5.8151	0.4566	0.3673	0.7956	-1.5090	-0.4766	0.7453	-33.4031	0.9816
5904.0994	-2.1436	-0.4551	-34.4642	-5.2475	-2.8594	-3.1688	0.4121	1.2733	2.5592	1.3694	1.6021	-1.4160	-0.1684	0.4379	-24.7689	0.6666
5912.0995	-3.0589	-2.2071	-35.2872	-4.1462	-1.9633	-8.0648	-1.2183	-20.0858	9.8098	1.2171	-0.3235	-1.8397	1.0408	-3.1379	-33.9447	-2.1979
5920.0996	-3.4982	-2.9753	-33.8466	3.6366	-2.1012	-11.5848	-1.7698	-22.0746	8.6952	1.0010	-0.2931	-2.1478	1.3980	-4.3081	-34.4633	-2.7297
5928.0998	-2.0519	-1.0552	-16.8302	0.3825	-1.7435	-8.8827	-0.6602	1.0359	5.4551	0.9877	0.3915	-1.4459	0.5272	-1.2265	-33.1056	0.1002
5936.0999	-0.4461	2.3765	-12.2031	17.6185	-2.9184	3.8163	0.6126	13.5262	3.5904	-0.1338	-0.9791	-1.1239	-0.7087	1.6047	-34.5353	1.6700
5944.1000	-0.4646	1.4690	-18.4221	11.9616	-1.9744	6.1335	0.2659	-5.2317	3.1847	-0.2731	-1.0278	-0.7857	-0.3673	0.2256	-21.4159	-0.3562
5952.1002	-1.2391	-0.3305	-22.1782	1.0826	-1.2887	2.3897	-0.4727	-16.9976	9.2178	0.1867	-2.1431	-0.8520	0.3722	-1.5489	-13.7881	-1.9025
5960.1003	-2.2559	-0.0101	-39.2802	16.2536	-4.1373	1.8858	0.1751	-4.8802	4.1568	0.3119	-0.6797	-1.8330	-0.1863	-0.4466	-18.8337	-0.4922
5968.1004	-0.6725	1.1391	-25.8019	8.7504	-1.9560	4.0111	0.5630	-6.0781	-6.1061	0.0880	2.4716	-0.7839	-0.5585	0.5634	-24.1270	0.0245
5976.1006	0.7018	1.9231	-3.6060	-0.1719	0.5828	4.6273	0.1411	-9.2917	-3.1934	-0.2056	1.5828	0.0949	-0.3058	0.3245	-33.3149	-0.2840
5984.1007	-0.7598	0.3109	-9.9698	8.8642	-0.7165	-3.7544	-0.4433	-4.9874	-4.4742	0.0916	2.3298	-0.8373	0.1431	-0.9176	-36.6537	-0.2081
5992.1008	-1.7928	-2.0050	-10.7483	10.9143	-0.3234	-10.7856	-1.5867	-15.7818	-3.4654	0.1240	2.0538	-1.1871	1.0680	-3.5590	-28.5703	-1.9318
6000.1010	-2.8309	-2.6124	-22.9531	14.9072	-2.0547	-10.4966	-1.5956	-14.4751	3.6448	0.3173	-0.1761	-1.8575	1.1572	-3.8263	-21.1261	-2.1569
6008.1011	-1.4822	-0.2035	-16.0392	15.5474	-2.5263	-3.6519	-0.1566	5.0146	-0.0318	0.1546	0.3703	-1.3126	0.0111	-0.4289	-18.6774	0.4140
6016.1012	-0.0911	0.9369	3.5347	14.1758	-0.6963	-1.4237	-0.3296	4.7052	0.3013	-0.3957	-0.2739	-0.5634	0.0136	-0.2671	-25.1775	0.4062
6024.1014	-1.6815	-1.0534	-7.9104	9.5687	-1.0924	-9.6704	-1.1396	-2.4896	2.3261	0.3582	0.5195	-1.3287	0.7430	-2.1466	-34.5831	-0.5030
6032.1015	0.1798	1.1879	1.7048	0.4421	-0.0009	-2.1454	0.1653	6.6995	-4.1822	0.2470	2.2792	-0.2151	-0.2608	0.8169	-31.5562	1.2433
6040.1016	0.0464	0.6011	1.8026	3.4681	0.1765	-2.9420	-0.1338	1.8770	-5.3367	0.0456	2.2655	-0.2188	-0.0435	0.0087	-25.3645	0.5429
6048.1018	-2.3701	-4.6130	0.0867	-7.0061	1.7978	-22.4128	-2.6472	-20.3716	-2.8988	0.9564	3.3058	-0.9376	2.0889	-5.4863	-24.7083	-2.6400
6056.1019	-0.3785	1.4410	-13.7822	4.8908	-2.0642	2.7497	0.8545	10.7585	-0.3630	0.3164	0.6791	-0.6339	-0.7051	1.8214	-17.8251	1.5933
6064.1020	-1.7256	-1.8576	-18.2302	-9.8018	-0.5259	-7.4039	-0.5867	-9.3997	1.6267	1.0607	1.5078	-0.7998	0.6080	-1.5583	-13.8589	-0.8633
6072.1022	-1.3928	-1.5590	-12.9987	-2.8627	-0.2042	-7.9208	-0.7168	-9.4000	-3.2377	0.6733	2.5464	-0.7278	0.5818	-1.7526	-18.6990	-0.8439
6080.1023	-1.4718	-0.5325	-20.0748	13.4355	-2.4846	-1.3070	-0.0545	-0.2254	0.3516	0.0908	-0.0645	-1.1366	0.0025	-0.5650	-5.3623	-0.1958
6088.1024	-1.3791	-2.0626	-16.6830	-1.0333	-0.6598	-4.7803	-0.3760	-9.8358	-3.7665	0.4585	1.7377	-0.5200	0.4187	-1.4896	9.0382	-1.1212
6096.1026	-0.9369	-2.8036	-7.0037	-12.9828	1.7079	-12.8536	-0.6213	-12.2344	-18.7774	0.9520	7.6633	0.0659	0.6124	-1.8049	-4.5049	-0.7067
6104.1027	-1.4865	-2.4647	-9.2769	-3.7881	0.7042	-12.8720	-1.1231	-12.9591	-10.1521	0.7394	4.9409	-0.6216	0.8795	-2.6337	-20.3948	-1.1565
6112.1029	-1.4105	-1.6371	-14.2038	5.5526	0.2442	-5.9961	-1.5156	-26.2452	-1.2220	-0.0047	1.2918	-0.8520	1.0391	-3.7030	-25.7111	-2.9076
6120.1030	-0.3032	0.3728	-10.7812	10.7750	-0.2437	0.2348	-0.3749	-13.4770	-7.2912	-0.3634	2.3787	-0.4533	0.0713	-1.1805	-24.1010	-1.1154
6128.1031	0.5408	2.0543	2.6074	13.8111	-0.9101	3.5058	0.3930	8.9131	-1.8928	-0.5233	0.0594	-0.2580	-0.5491	1.1867	-21.4543	1.1511
6136.1033	0.1651	0.5972	5.8599	8.0716	0.3111	-0.5545	-0.5736	-3.7998	1.5482	-0.4419	-0.6457	-0.2046	0.2454	-0.9061	-19.9743	-0.5226
6144.1034	-0.2223	-1.8595	13.1784	-7.7173	2.5380	-10.3175	-1.4834	-13.0837	-2.7819	0.1927	1.8362	0.1801	1.1158	-2.8187	-13.7804	-1.5498
6152.1035	0.4619	-0.6908	18.4270	-9.4888	2.7623	-7.1968	-1.1001	-8.1538	-1.6262	0.0976	1.4073	0.4580	0.7826	-1.7396	-19.0153	-0.8335
6160.1037	0.9357	1.5264	3.6139	-1.6919	1.4301	4.0200	-0.2396	-13.1236	-1.3018	-0.3941	0.7043	0.3523	-0.0095	-0.3963	-27.6484	-0.9258
6168.1038	0.0940	0.0913	-0.3719	-8.7229	1.1420	-0.9197	-0.3945	-10.4765	0.7460	0.2404	0.7877	0.1152	0.2856	-0.7685	-18.7050	-0.8067
6176.1039	-0.5967	-0.7757	-1.0815	-6.2278	0.7323	-4.2780	-0.9115	-10.9268	5.4635	0.3323	-0.5638	-0.2997	0.7022	-1.7808	-18.6938	-1.2475
6184.1041	0.4486	1.3892	-2.4203	4.1035	0.5911	4.7635	-0.4328	-15.8666	2.4188	-0.5233	-0.6616	-0.0570	0.1106	-0.9506	-28.5443	-1.4509
6192.1042	0.7504	1.0322	1.4653	0.4864	1.3881	1.9609	-0.2334	-13.3528	-7.1296	-0.3688	2.4703	0.3119	-0.0152	-0.5622	-24.4376	-0.8746
6200.1043	0.4015	0.9490	-7.5755	3.1126	0.6615	3.7884	-0.1261	-16.9564	-6.7337	-0.3934	2.2285	0.0848	-0.0846	-0.6721	-21.3360	-1.2627
6208.1045	1.2394	3.6202	-7.5747	5.1997	-0.7259	14.0567	0.9904	-3.2227	3.1408	-0.6162	-1.3818	0.1497	-0.9809	2.0324	-24.5127	0.3193
6216.1046	1.1069	2.8350	1.9296	-7.9667	-0.0867	6.5723	1.1000	11.2582	2.1094	0.2592	0.1410	0.3138	-0.8986	2.8472	-24.3463	1.9836
6224.1047	1.4026	2.4144	2.2856	-16.6562	1.3972	6.6581	0.8002	-2.0031	-0.6208	0.3049	1.3729	0.7580	-0.6362	1.9725	-25.0423	0.7982
6232.1049	2.4187	4.0022	7.8908	-13.5795	1.8013	13.0594	1.0859	-3.3947	0.6056	-0.2619	0.2791	1.1541	-0.9789	2.6858	-29.5000	0.7774
6240.1050	1.3368	1.6219	15.0077	-6.6671	2.4711	-0.7582	-0.2692	-5.4467	-6.4923	-0.1242	2.9550	0.6154	-0.0094	0.0532	-38.8313	0.1556
6248.1051	0.4804	0.2798	9.3081	-2.1140	2.3377	-5.1460	-0.9753	-14.2159	-8.0877	-0.1224	3.5762	0.1809	0.5162	-1.7175	-40.1570	-1.0192
6256.1053	0.7077	1.3039	1.5856	-5.7191	1.2094	1.0986	0.0563	-6.2584	-5.1842	0.0698	2.5514	0.2807	-0.1710	0.3002	-29.6101	0.0545
6264.1054	1.2115	1.4366	7.1812	-12.4699	2.4413	1.1026	-0.0603	-10.8201	-6.5874	0.0956	3.2811	0.7015	-0.0809	0.1503	-33.6790	-0.2358
6272.1055	2.2148	3.8344	7.4910	-5.3727	2.0499	10.4310	0.5041	-10.8035	-4.0383	-0.5639	1.7036	0.8776	-0.6926	1.4099	-44.9935	0.0017
6280.1057	1.7967	4.6218	-1.6292	3.5720	-0.3209	13.8775	1.2840	3.3383	-0.2979	-0.5455	0.0545	0.3314	-1.2775	3.0239	-38.7983	1.3876
6288.1058	0.9046	2.4493	2.6113	-7.5518	0.2810	4.9730	0.6006	5.0352	3.8042	0.2034	-0.2255	0.1987	-0.5482	1.8085	-30.3835	1.1927
6296.1059	1.6804	3.7235	4.5913	-13.1146	0.1955	8.4408	1.6347	16.8363	0.0077	0.4110	1.0627	0.6333	-1.2969	4.1462	-28.1040	2.9481
6304.1061	2.3330	4.9850	2.7374	-3.8342	-0.3108	12.8186	2.3657	21.3005	-9.1095	-0.0538	3.0535	0.8064	-1.9849	5.4912	-27.4687	3.7863
6312.1062	1.0583	2.1241	5.6779	-4.7554	0.7766	2.8263	0.5185	4.2746	-3.6290	0.0580	1.8603	0.3510	-0.5312	1.5608	-28.7063	1.2044
6320.1064	-0.3817	0.0415	-4.9142	-14.9837	0.3586	-2.9218	-0.0362	-0.9819	3.4360	0.9029	0.8675	-0.1635	0.1246	0.1776	-22.4447	0.3455
6328.1065	-0.0159	0.9274	-13.1990	-21.1449	0.1885	3.1203	0.6240	-4.3431	3.8500	1.0072	0.8873	0.0948	-0.3237	1.2545	-20.0833	0.3843
6336.1066	1.1544	2.1407	-0.3217	-9.5753	1.2356	7.3905	0.3337	-10.4017	1.2090	-0.0854	0.3099	0.5354	-0.3547	0.7797	-25.4581	-0.3708
6344.1068	2.2979	2.6653	18.4659	5.7858	2.3064	7.8640	0.0862	-8.5087	-7.4678	-1.2132	1.1788	1.0532	-0.4041	0.4687	-19.1547	-0.4133
6352.1069	2.3827	3.0005	21.1958	2.3084	1.9923	7.8973	0.4253	0.9335	-4.5515	-0.9580	0.4911	1.0768	-0.6049	1.4655	-17.7874	0.6055
6360.1070	1.0499	3.2622	4.9213	3.7124	-0.8524	7.1792	0.9395	15.5648	4.8406	-0.1848	-1.4405	-0.0124	-0.8986	2.6975	-27.5623	2.1089
6368.1072	0.9214	4.3724	-9.9870	12.7594	-2.5597	13.5486	1.6292	15.5868	3.5939	-0.4321	-1.5536	-0.3645	-1.4937	3.6963	-28.5583	2.3303
6376.1073	1.3816	5.1738	-15.1411	9.3990	-2.1926	19.6664	1.7993	4.8428	5.5120	-0.6454	-2.2512	-0.0863	-1.6420	3.7457	-30.5207	1.4155
6384.1074	0.0738	2.8437	-12.7761	7.1736	-1.9440	8.5892	0.6313	3.0184	8.7468	-0.1221	-2.3301	-0.6647	-0.6657	1.5149	-34.3422	0.7087
6392.1076	-0.9905	1.1437	-12.2653	14.7474	-2.6135	-2.2891	0.2691	13.4851	-0.3162	0.2375	0.8162	-1.2622	-0.3856	0.8762	-34.3635	1.6508
6400.1077	-0.3040	2.4449	-12.1600	21.2126	-3.1627	2.3345	1.0785	21.1896	-6.1811	-0.1123	1.8685	-1.0431	-1.0862	2.5207	-30.7786	2.7559
6408.1078	0.2450	1.5565	0.6299	12.0316	-1.2251	3.5980	0.3514	9.0432	2.2661	-0.4153	-1.3044	-0.3322	-0.4330	1.0179	-11.6452	0.9334
6416.1080	0.8667	1.3391	8.8662	1.0292	0.3210	3.7756	0.2931	5.2275	2.1748	-0.3194	-1.1051	0.3290	-0.3050	0.9729	-4.3291	0.6203
6424.1081	2.1991	4.3033	11.1673	12.1248	-0.2572	11.7010	1.4060	15.3456	-5.7667	-0.9576	0.5408	0.5892	-1.4042	3.4924	-20.0803	2.3374
6432.1082	1.6325	3.2017	14.8459	16.1351	-0.2878	8.4189	0.6108	12.1582	0.6355	-1.1038	-1.7395	0.2864	-0.7905	1.9158	-15.1394	1.3734
6440.1084	0.6965	1.4217	2.9283	3.7393	-0.2536	5.3620	0.4556	4.0914	1.7090	-0.3711	-1.1252	0.1881	-0.4312	1.0944	-1.9837	0.5238
6448.1085	0.5633	1.4739	-11.1250	3.3624	-0.3873	7.9502	0.7034	-7.1907	-5.4195	-0.3544	1.2992	0.1784	-0.6313	0.9603	-4.4803	-0.2162
6456.1086	-1.4331	-2.0008	-12.7551	0.0184	-0.6438	-6.1932	-0.5891	-7.3587	-1.0499	0.4610	1.0041	-0.6428	0.5515	-1.6742	2.8875	-0.9854
6464.1088	-1.2975	-2.1251	-9.1506	-8.2274	-0.6209	-7.3416	-0.0935	3.5950	-1.0011	0.9170	1.3221	-0.3917	0.3141	-0.4237	13.2698	0.2758
6472.1089	0.3818	-0.0983	-5.2400	-4.2798	0.5484	3.7326	0.3335	-8.7568	-5.2482	-0.1121	1.3075	0.4785	-0.1953	0.1498	14.0358	-0.6705
6480.1090	-0.6937	-1.9935	-7.5703	-2.0567	0.3726	-3.3415	-0.4492	-12.1967	-4.9193	0.1098	1.4715	0.0032	0.4596	-1.6043	18.3915	-1.4617
6488.1092	0.3249	0.2260	-7.0779	1.9035	-0.4533	4.9929	0.7383	-0.5840	-6.0172	-0.2203	1.0438	0.3168	-0.5167	0.9888	20.5050	0.1285
6496.1093	1.3851	1.0663	3.4319	4.2447	1.0628	8.7119	0.4084	-10.6259	-6.9681	-0.9440	0.6013	0.8829	-0.4182	0.3633	15.3412	-0.9238
6504.1094	0.0596	-3.0506	20.4219	-7.8969	3.5532	-14.0569	-1.4891	-12.1271	-14.0609	0.0777	4.7448	0.6965	1.1715	-3.0381	7.5425	-1.4611
6512.1096	1.6053	-0.8137	33.2638	-3.6520	4.1504	-8.2305	-0.8202	-3.7870	-17.8768	-0.5227	5.1043	1.3192	0.4882	-1.2213	0.4668	-0.2323
6520.1097	2.5840	2.2208	26.8233	15.4127	2.2780	7.2484	0.1124	-2.6762	-12.1403	-1.7462	1.2546	1.2671	-0.4594	0.4851	1.9460	-0.1661
6528.1099	1.5963	1.5920	16.4509	13.1577	0.7237	4.3986	0.4742	7.3770	-10.0450	-1.0598	1.3100	0.7077	-0.5917	1.2062	5.9124	0.8877
6536.1100	1.3795	1.3056	17.0964	2.2095	1.0213	3.7674	0.2871	6.4288	-1.0472	-0.5994	-0.6825	0.7108	-0.3233	1.0250	4.0959	0.6808
6544.1101	0.7885	-0.2619	23.1911	1.2406	1.9008	-2.3073	-0.8858	-2.1659	3.8445	-0.5838	-1.9518	0.5161	0.5863	-1.2948	2.2797	-0.7633
6552.1103	1.6540	0.5958	27.6957	1.1981	2.5809	-1.9224	-0.2435	3.3972	-9.3958	-0.6619	2.0896	1.0176	0.0209	0.0826	-1.4451	0.4512
6560.1104	2.3312	1.7052	27.0518	-3.3107	3.0975	2.1174	0.1691	0.7075	-11.6128	-0.6978	2.9789	1.3780	-0.3292	0.9173	-9.3044	0.6197
6568.1105	2.5696	1.9062	34.8230	0.0999	3.5079	2.9647	-0.3060	-2.1473	-5.6516	-1.0906	0.6625	1.4114	-0.0411	0.1628	-11.9963	-0.0408
6576.1107	4.5957	5.5786	40.0723	14.5336	2.8066	18.5920	1.1182	6.3280	-7.8807	-2.3568	-0.8605	2.0781	-1.3750	3.1593	-7.1009	1.1837
6584.1108	3.1555	3.4090	30.1011	16.9916	2.3231	13.9199	0.0770	-6.9016	-2.1740	-2.2275	-2.4544	1.4153	-0.4989	0.5383	-0.1596	-0.8356
6592.1109	0.4810	-1.5456	28.0906	16.0591	2.7832	-3.7532	-2.4982	-24.5342	6.9457	-1.6439	-4.2275	0.3093	1.6312	-4.9884	4.3091	-3.9805
6600.1111	1.7468	1.2208	27.5145	26.1117	1.7074	6.2806	-1.0780	-12.0733	1.2433	-2.2566	-3.6602	0.6382	0.3904	-2.0087	4.6778	-2.1581
6608.1112	2.7442	3.0312	24.5291	26.9128	1.3724	12.2380	0.2347	-3.2756	-9.4131	-2.3616	-0.6688	1.0970	-0.6656	0.6052	4.9534	-0.4600
6616.1113	2.1545	0.9548	36.0832	26.7374	2.6861	3.1318	-1.1725	-10.4120	-7.0081	-2.3715	-1.2455	0.9723	0.4165	-2.0939	5.4338	-1.8534
6624.1115	1.2195	-0.5607	44.7550	30.4750	2.5722	-5.4287	-2.2350	-5.9607	0.4832	-2.2147	-3.3269	0.3965	1.2385	-3.8135	2.0972	-2.1230
6632.1116	1.4596	0.3351	42.2492	30.0630	2.0285	-2.6124	-1.6668	0.0088	0.2695	-2.1383	-3.2108	0.4189	0.8026	-2.5686	-0.2891	-1.2478
6640.1117	2.0677	1.6082	41.1729	30.5937	1.8785	4.9808	-1.3444	-3.4587	6.2838	-2.5227	-5.6528	0.6416	0.5178	-1.9645	1.1952	-1.6118
6648.1119	-0.2144	-2.1516	40.2916	14.3891	2.0352	-11.8258	-2.8065	-2.5935	17.2906	-1.0319	-6.7295	-0.2288	1.9514	-4.6336	-0.8707	-2.1971
6656.1120	0.1227	-1.7632	41.8726	4.1380	2.5183	-13.0769	-2.2645	4.5022	12.5744	-0.4910	-4.3667	0.0770	1.6112	-3.2963	-6.3836	-0.9130
6664.1121	3.1301	2.7769	51.9080	16.0221	3.1900	6.9377	-0.8461	2.8032	7.6653	-2.1876	-5.3708	1.3502	0.1941	-0.4097	-5.8829	-0.4929
6672.1123	1.5155	-0.9269	53.8539	9.5245	4.3028	-5.6479	-2.6909	-12.1167	13.4117	-1.7024	-6.2930	0.9034	1.7682	-4.3740	1.7023	-2.9110
6680.1124	-0.3265	-4.0679	42.2717	3.8992	4.0980	-16.5754	-3.5830	-19.8882	11.5094	-0.8639	-4.4916	0.2475	2.6475	-6.6626	8.4786	-4.0167
6688.1125	0.2425	-3.1469	44.6418	2.7824	3.9718	-13.5581	-2.9539	-12.4361	9.9044	-0.8932	-4.2128	0.5262	2.1690	-5.2313	11.5947	-3.0004
6696.1127	0.8828	-2.6676	53.3408	-16.5304	4.7570	-14.7048	-2.1224	3.3644	10.1352	-0.0300	-3.1566	1.1464	1.7332	-2.9395	14.6147	-0.8512
6704.1128	2.4449	0.6782	47.1461	-17.9938	3.8697	-1.6615	-0.0600	15.8833	3.6850	-0.1941	-1.6302	1.7852	0.1090	1.2648	14.3505	1.4831
6712.1130	1.6260	0.6847	31.8693	-11.6958	2.5293	0.4075	-0.2270	7.9897	7.9560	-0.2362	-2.8477	1.1119	0.1975	0.5278	6.2863	0.5546
6720.1131	-0.3777	-1.4245	7.4480	-14.1748	1.0506	-5.0871	-0.6391	-1.3432	8.8224	0.5752	-1.8746	0.1313	0.6784	-1.0208	6.2138	-0.5063
6728.1132	-0.1462	-1.4255	1.2838	-13.0789	0.7690	-3.0551	0.0874	0.5372	-1.5049	0.5404	0.8731	0.4155	0.1657	0.0218	21.8802	0.0401
6736.1134	-0.0383	-3.0227	21.1749	-20.1497	2.8853	-10.6624	-1.0443	-2.5611	1.7491	0.5746	0.0233	0.8012	1.0817	-1.8510	26.8123	-0.8141
6744.1135	1.1472	-1.1439	26.8989	-16.3124	3.3760	-3.8702	-0.6443	-3.6515	0.3667	-0.0385	-0.2571	1.2567	0.6175	-0.9003	18.9797	-0.6533
6752.1136	1.8444	0.1585	23.1027	-9.6937	3.0756	2.9962	-0.0575	-6.0836	-4.1455	-0.5837	0.2601	1.5046	0.0620	0.0134	21.3177	-0.6371
6760.1138	0.2048	-2.1372	21.6615	-14.6911	2.5198	-7.0656	-1.0216	-3.1559	5.7213	0.2134	-1.6583	0.7133	0.9712	-1.7227	21.2291	-0.9724
6768.1139	0.6484	-0.2197	19.8246	-5.3622	0.9756	-3.2400	0.0694	14.6045	1.2356	0.0829	-0.6592	0.5420	0.0232	0.8032	13.3416	1.2966
6776.1140	1.4477	-0.3252	29.2770	-6.4123	2.6262	-4.3956	-0.0405	9.8680	-8.9514	-0.2242	2.1619	1.1860	0.0426	0.5241	15.9076	1.0354
6784.1142	1.0144	-2.4343	39.4234	-15.4337	4.5177	-12.4472	-1.3528	-1.3806	-5.5405	0.0124	1.7358	1.3242	1.1324	-2.0598	17.5174	-0.6068
6792.1143	1.5294	-0.2635	34.5686	-8.1781	3.2010	-5.1544	-0.4839	6.6095	-4.2244	-0.2748	0.9097	1.1895	0.3467	-0.1490	7.0062	0.5492
6800.1144	1.0766	0.7060	8.9241	-10.7343	1.6964	2.0585	0.2528	-2.3529	-3.3589	0.0233	1.3006	0.8041	-0.1796	0.6867	-2.0554	0.1759
6808.1146	-0.6218	-0.0555	-23.3417	-12.9434	-0.6586	2.4172	0.6418	-8.2856	-2.5018	0.8386	2.2377	-0.1690	-0.3242	0.6797	-5.1257	-0.1551
6816.1147	-2.1009	-0.8535	-33.6379	-6.3967	-2.9626	-3.4425	0.7009	5.8958	0.1355	1.4355	2.0465	-1.2363	-0.3095	0.9417	-9.4621	1.1122
6824.1148	-1.7006	-0.4427	-25.5052	-4.2029	-2.3387	-2.0253	0.2805	2.0785	5.2098	1.0379	0.0833	-1.1082	-0.0744	0.3053	-14.6308	0.4608
6832.1150	-0.4480	1.2430	-22.4505	-1.2604	-1.6461	5.4774	0.7701	-2.8134	0.4132	0.3883	0.7521	-0.5040	-0.5885	1.1894	-17.0998	0.3286
6840.1151	-2.1245	-0.0857	-36.1737	-5.1798	-3.4155	-3.4114	0.9198	10.0803	-0.8078	1.5818	2.8196	-1.4638	-0.5392	1.5782	-25.3018	1.8321
6848.1152	-3.6486	-1.7602	-44.7482	-13.8072	-4.2221	-11.2399	0.4766	13.1808	5.7627	2.6067	2.3692	-2.2048	-0.0105	0.7682	-30.7119	1.9671
6856.1154	-3.2550	-2.7192	-40.3454	-22.2854	-2.3444	-11.9476	0.0467	-0.8056	1.9520	2.5189	3.5193	-1.5614	0.3804	-0.4385	-19.9849	0.5215
6864.1155	-3.6823	-3.8777	-47.3426	-22.3575	-1.8250	-14.1688	-0.4107	-14.5237	-3.9075	2.5013	5.4678	-1.5958	0.7389	-1.9269	-17.4277	-0.8814
6872.1156	-3.6600	-3.2010	-46.5774	-15.0937	-2.5265	-11.9053	-0.4321	-11.8077	0.9026	2.1910	3.5076	-1.8433	0.6700	-1.8165	-21.9220	-0.8091
6880.1158	-3.0643	-2.8113	-36.5240	-20.5480	-2.0759	-11.5587	-0.0572	-1.6022	2.0196	2.3009	3.0710	-1.4191	0.4450	-0.6529	-14.3215	0.2913
6888.1159	-2.0783	-0.4093	-40.9529	-5.7504	-3.1833	-2.1784	1.0104	3.4336	-5.4777	1.4938	4.0567	-1.2828	-0.5856	1.3529	-17.1673	1.2575
6896.1160	-1.0056	3.1142	-40.5086	23.3357	-5.5357	11.4852	1.9205	14.4345	-1.4110	0.0000	0.2970	-1.5639	-1.6448	3.3970	-23.1774	2.2413
6904.1162	-1.7907	1.6017	-39.4108	12.0944	-5.6771	6.5679	1.6864	20.3314	7.1452	0.7416	-1.5966	-1.7160	-1.2238	3.1108	-9.6672	2.4729
6912.1163	-2.9687	-1.9462	-39.6140	-9.1379	-3.6187	-4.4968	0.3112	2.5395	9.8350	1.6971	-0.7744	-1.6188	0.1203	-0.0101	0.1616	0.2786
6920.1165	-3.4797	-3.4744	-34.3681	-12.8587	-2.3434	-8.4647	-1.1070	-14.1189	19.1786	1.6087	-3.4187	-1.7238	1.2231	-2.9388	-2.5179	-2.1051
6928.1166	-2.6811	-1.1059	-43.2127	-8.1648	-3.6943	1.5936	0.2974	-6.0781	16.1918	1.3446	-3.1096	-1.5671	0.0823	-0.2030	-2.5302	-0.6901
6936.1167	-1.1967	1.4558	-44.0650	-1.6874	-4.3296	10.6586	2.0373	7.5176	2.6880	0.8872	0.0097	-0.9381	-1.3608	3.2902	3.3614	1.5680
6944.1169	-2.1552	-0.8788	-38.1144	-7.2264	-3.3923	0.6329	0.8200	2.3730	6.0994	1.3158	-0.2611	-1.1996	-0.3301	0.9362	3.8837	0.5111
6952.1170	-3.4577	-2.1097	-51.5841	-4.8786	-4.1786	-2.8038	0.1184	-8.3114	9.7268	1.5721	-0.7396	-1.9661	0.2272	-0.8807	-4.3177	-0.8486
6960.1171	-3.3559	-1.4091	-56.6306	2.3135	-4.9888	0.1011	0.5349	-5.9481	6.3237	1.3285	-0.1520	-2.0853	-0.1635	-0.1844	-4.7106	-0.4537
6968.1173	-3.3647	-1.6388	-52.7994	3.3147	-4.8931	-2.1654	0.4934	-1.8047	4.3068	1.3621	0.4519	-2.0785	-0.1352	-0.1329	-3.7010	-0.0561
6976.1174	-2.5311	0.2027	-49.5089	13.9221	-5.5941	5.0437	1.0636	4.2794	5.5656	0.6659	-1.1391	-1.9538	-0.7227	1.1799	-3.8470	0.5878
6984.1175	-1.8216	0.5733	-37.2189	10.2236	-5.2109	6.8322	1.4254	14.8524	9.2455	0.5770	-2.8701	-1.4496	-0.9287	2.3042	12.2060	1.5091
6992.1177	-2.9472	-2.7355	-38.2059	-2.6420	-3.8503	-5.4687	0.5333	6.6745	2.2089	1.4259	0.5572	-1.4426	-0.0195	0.1515	24.2588	0.5385
7000.1178	-3.9533	-4.1366	-49.4935	-4.5229	-3.8772	-9.1868	-0.1234	-6.6721	1.9790	1.7166	1.3466	-1.8743	0.5297	-1.6557	19.5895	-0.9370
7008.1179	-3.2452	-1.7179	-48.3271	-8.3838	-4.8608	-2.1727	0.9170	8.6521	10.4832	1.8897	-1.0391	-1.8157	-0.2709	1.0644	8.2449	1.0021
7016.1181	-2.6719	-0.6625	-36.1131	-8.1991	-4.9028	-5.4437	1.5399	30.6345	4.6580	2.1523	1.1301	-1.6901	-0.8025	3.1332	-3.4726	3.6894
7024.1182	-2.7718	-2.4095	-23.1377	-14.5639	-3.0685	-13.1877	0.5785	25.3632	3.1470	2.2830	1.9118	-1.3948	-0.0112	1.3355	1.2031	2.8201
7032.1183	-2.1584	-2.3778	-23.8396	-16.7113	-1.7156	-8.2395	0.2668	5.8516	2.0938	1.7470	1.6516	-0.8463	0.1885	0.1800	7.4184	0.7926
7040.1185	-2.3630	-2.6253	-26.9130	-5.3103	-2.1782	-8.8905	0.1249	3.3691	-3.9286	1.3393	2.8365	-1.0733	0.1907	-0.3908	9.1442	0.4393
7048.1186	-2.2036	-2.1634	-25.6571	-14.0582	-2.5777	-6.3741	0.6692	12.8995	3.8251	1.7240	0.6961	-0.9218	-0.0810	1.0022	17.4434	1.4273
7056.1187	-0.6963	1.2233	-30.4880	-11.2020	-2.9379	8.3696	1.8158	10.2515	5.3315	1.0567	-0.5159	-0.4507	-1.1259	3.2687	5.7125	1.7785
7064.1189	-1.2400	-0.0374	-23.4947	6.7289	-2.8103	1.3032	0.6865	6.1556	-0.1717	0.4186	0.3446	-0.9174	-0.4596	0.9419	1.5257	0.7801
7072.1190	-1.9773	-2.4667	-18.8492	-1.3517	-2.1692	-7.3886	0.1833	8.5600	-1.5530	0.9814	1.2074	-0.8670	0.1345	-0.1097	21.7003	0.6669
7080.1191	-1.6698	-0.9276	-34.5987	-3.3783	-2.9452	-0.3502	1.1820	5.7342	-6.6965	1.0984	3.1613	-0.8222	-0.6512	1.5259	12.5263	1.1454
7088.1193	-1.1933	0.1766	-31.9984	0.7971	-2.8727	2.9659	1.2074	4.3232	-5.1147	0.7323	2.3775	-0.7774	-0.7944	1.7228	1.5833	1.0646
7096.1194	0.1211	0.8901	-17.0108	-4.2049	-1.1731	7.3672	1.2298	1.0426	-3.3242	0.2391	1.0420	0.1292	-0.8308	1.9637	11.4101	0.6622
7104.1195	-0.8361	-0.8484	-15.6373	0.8435	-0.9574	-1.4374	0.2038	-3.3662	-5.7473	0.3365	2.1476	-0.3762	-0.0820	-0.1486	4.9005	-0.1606
7112.1197	-1.2670	-1.3695	-9.9200	2.7246	-1.1962	-7.0364	-0.1048	5.4826	-4.3790	0.5706	2.0705	-0.7041	0.1514	-0.3662	-0.9549	0.5559
7120.1198	0.6114	1.7296	-7.8322	0.4980	-0.8651	6.5158	1.2147	7.1933	-5.6530	0.0081	1.6422	0.1855	-0.9542	2.3669	-1.8502	1.4064
7128.1200	-0.6566	0.1275	-19.1499	-1.4957	-1.3769	2.3441	0.5580	-1.9998	-1.5184	0.4141	1.0667	-0.4089	-0.3550	0.6630	-2.1229	0.1578
7136.1201	-1.6939	-1.7324	-21.8720	-9.2444	-1.5593	-3.6627	0.1086	-1.2490	3.7865	1.0645	0.1605	-0.7149	0.1885	-0.2869	8.6187	-0.1354
7144.1202	-0.9688	-1.6213	-9.4515	-13.1917	-0.1537	-5.1037	0.0047	-0.2061	0.1038	0.9582	1.2531	-0.1808	0.2413	-0.2194	8.0488	0.0802
7152.1204	-1.0393	-2.1432	-5.1328	-8.7117	0.2997	-8.3915	-0.4321	-2.5106	-3.7614	0.7684	2.2757	-0.2197	0.5059	-1.0988	5.4627	-0.2782
7160.1205	0.0627	0.7802	-21.0349	1.7693	-1.1297	8.3536	0.9922	-7.7387	-6.5869	-0.1127	1.6575	0.0564	-0.7321	1.1388	10.0252	-0.2775
7168.1206	-0.3021	-0.0116	-21.9007	-4.7682	-0.3871	6.2367	0.3223	-18.3923	-1.7175	0.0885	0.7894	-0.0067	-0.1731	-0.2990	4.3012	-1.5440
7176.1208	-0.8526	-2.5079	-2.7869	-14.6546	1.8749	-7.5395	-1.2801	-21.7687	0.8183	0.5599	1.0893	0.0412	1.1273	-3.0072	-1.9016	-2.4270
7184.1209	0.8612	0.1148	1.8057	1.5632	1.9191	2.1498	-0.3178	-19.5953	-12.2003	-0.6407	3.2840	0.6534	0.0957	-1.1745	-3.5015	-1.6813
7192.1210	0.5374	-0.3941	1.2471	1.6163	1.2681	-0.8132	0.0203	-8.7380	-15.2565	-0.3224	4.3090	0.5345	-0.0797	-0.4101	5.9792	-0.5423
7200.1212	0.7926	0.3204	3.7385	-4.4306	0.6149	2.3334	0.6936	4.2052	-7.6067	-0.0395	1.9498	0.6703	-0.4724	1.3154	15.5447	0.7730
7208.1213	2.4538	3.6495	6.0053	17.0202	0.2934	17.3346	1.1364	-4.2235	-7.6016	-1.7403	-0.3444	0.9903	-1.2046	2.0600	5.0825	-0.0257
7216.1214	1.1724	0.7364	15.4935	16.2981	1.1072	3.8948	-0.4685	-7.2339	-3.8556	-1.3877	-0.8781	0.4982	0.0919	-0.9655	5.5076	-1.1414
7224.1216	0.2088	-1.3946	19.9945	-0.7086	1.5674	-5.8297	-0.9148	0.4820	2.3699	-0.2539	-1.3061	0.3695	0.7213	-1.4997	13.6722	-0.6104
7232.1217	0.9397	-0.1615	16.3787	5.5928	1.9514	0.1239	-0.7320	-10.4109	-3.7668	-0.8901	-0.0171	0.6310	0.4081	-1.4803	5.0307	-1.3913
