Time	Fz	Fpz	C3	C4	T5	T4	O1	O2	F7	F8	F3	F4	T3	T6	P3	P4
0.0000	-5.0006	-8.1421	-23.4914	-66.1202	-12.0872	0.1011	20.2827	47.2295	-5.1015	-6.4036	-10.3209	-7.3779	-9.1395	3.5629	68.4073	-6.8204
8.0000	-9.2377	-11.1267	-33.0480	-73.7121	-13.2289	-3.5410	16.6094	38.9031	-9.8567	-10.1463	-16.1253	-11.3365	-7.4026	-0.1837	58.3193	-1.4345
16.0000	-3.3979	-4.4345	-30.3865	-46.4950	-8.8707	1.3556	6.3263	27.0545	-1.4238	-2.1169	-5.5682	-3.3804	-8.3983	3.4210	55.5071	-4.8578
24.0000	3.3282	1.1941	-20.5388	-44.4632	4.4084	8.9242	18.4955	22.2974	6.3635	4.7883	7.0039	3.1860	-4.0146	8.0900	46.7003	3.1856
32.0000	-0.5247	-1.3855	-23.6335	-44.6927	6.5420	3.3742	8.0969	-3.3671	1.0335	1.7519	0.9666	0.9603	-5.7540	2.9300	43.0259	8.6449
40.0000	-5.9358	-8.4682	-22.5092	-44.9311	-9.4499	-7.9402	-1.0761	-16.0316	-5.6220	-5.2000	-7.5848	-5.3946	-10.8819	-5.2804	26.6730	-6.3485
48.0000	-5.5910	-10.6443	-11.9355	-57.9849	-7.8447	-7.8326	14.6880	-10.9416	-6.4983	-7.2063	-6.0352	-7.8315	0.9318	-6.5951	15.9947	-4.3682
56.0000	-7.6594	-8.1590	-17.3446	-66.0395	-11.1352	-13.7401	-35.7563	-67.2276	-6.4192	-4.1438	-9.1966	-2.9810	-16.8447	-11.0648	0.7560	-10.1502
64.0000	-7.8223	-6.1454	-21.9113	-76.6902	-17.2219	-11.9893	-50.1900	-65.6401	-4.3504	-2.7837	-7.9192	-1.7408	-27.7986	-10.6073	-24.8766	-9.2863
72.0000	-4.3002	-3.2663	-10.3509	-60.1314	19.0258	1.5189	49.2069	41.8725	-8.3604	-7.8624	-12.7984	-8.9682	7.5985	6.7715	-13.6336	19.8863
80.0000	-15.4228	-12.4121	-22.6090	-57.6142	26.2645	-15.2198	73.5887	51.2917	-26.7271	-22.6890	-42.0583	-23.2782	19.0287	4.3797	-12.0787	11.8777
88.0000	-19.6671	-16.1577	-28.4957	-83.9696	8.2941	-21.3005	36.4136	15.7055	-27.9427	-24.2389	-43.3413	-25.0489	20.8133	-4.8250	-35.3657	1.9567
96.0000	-7.9303	-3.9942	-11.2995	-66.5625	18.0566	-2.6617	35.2249	30.2893	-12.0021	-10.7183	-19.9203	-12.4987	30.4286	3.9723	-40.3484	14.4247
104.0000	-12.3202	-7.9844	-20.4477	-56.3240	-0.7021	-11.6208	9.0688	7.9294	-14.7296	-13.7997	-24.0779	-15.4470	21.2865	-4.0039	-64.4036	0.0106
112.0000	-4.5170	-0.3378	-6.0035	-69.1373	5.0022	-0.2749	10.0790	17.3752	-4.2696	-5.3799	-9.5206	-7.1422	15.7460	2.6610	-80.3258	6.5602
120.0000	14.2023	19.8652	24.9403	-65.0537	42.0562	28.5547	34.8988	50.9471	16.4336	14.2339	18.4168	12.7543	14.1923	24.2552	-65.3160	35.1962
128.0000	7.0174	11.5196	10.4470	-68.1823	19.1906	20.8059	4.2949	16.5655	11.5723	9.1470	16.8268	6.7762	21.7870	9.2970	-75.2716	33.5367
136.0000	10.3554	11.5454	10.0244	-54.9730	9.3858	22.3263	-3.1519	-1.2888	18.5850	13.5618	30.0920	9.8900	30.3780	5.1531	-85.3439	26.0763
144.0000	13.6823	13.0660	19.8102	-45.0520	18.2587	22.8846	18.3900	6.9288	19.8845	14.6612	32.2555	11.9056	17.4787	9.1777	-84.9457	26.8552
152.0000	-2.6186	-4.9629	2.5041	-58.9357	-8.7323	1.9512	7.0232	-11.5075	-0.1814	-3.8491	9.0267	-5.9518	8.3137	-9.9242	-94.5575	22.5383
160.0000	-1.5948	-1.8650	-1.6304	-58.1403	-2.1976	2.1128	7.2293	-8.0818	0.9335	-2.0373	6.1287	-4.0953	8.6960	-4.7829	-91.7133	16.3075
168.0000	0.0050	4.6374	6.7468	-66.5088	19.2664	7.7814	20.6493	23.1836	-0.5137	-1.1820	-2.2954	-2.4786	14.9811	7.0765	-80.0629	23.7723
176.0000	-1.8803	1.0922	9.1973	-54.6762	7.1263	7.0551	10.7685	22.9669	-2.2472	-3.2914	-1.2113	-4.5280	16.6026	1.1445	-63.8018	25.0074
184.0000	-0.6812	-1.9412	-0.1412	-24.8171	-9.3964	-0.8408	-0.8835	-7.3533	1.6650	-1.1017	5.2413	-2.3093	0.7613	-4.6488	-60.3231	0.9239
192.0000	-6.6275	-7.8697	-5.3168	-46.7690	-15.7372	-9.0624	-6.4508	-19.0264	-6.0322	-7.6059	-5.1354	-7.9572	-10.2179	-10.1590	-66.0257	-0.3291
200.0000	9.3512	7.0269	13.0768	-52.6354	0.7348	12.6593	-9.8622	-18.9695	15.0234	11.6754	24.1436	11.5804	-20.8050	2.9540	-35.9998	11.1986
208.0000	19.1539	14.6069	20.6022	-32.4122	16.9661	18.6910	7.7758	-22.1574	25.9232	21.7314	36.9843	21.6092	-19.8365	12.7240	-13.9189	1.5673
216.0000	1.8011	-2.4253	3.9145	-46.4373	6.5074	-2.2790	13.4324	-34.1077	2.2807	1.2055	7.2023	1.0224	-2.1824	-2.9682	-26.1544	2.3151
224.0000	-2.2952	-7.8439	-18.4011	-41.2235	-16.9365	-9.1987	-19.2289	-70.3456	2.5120	0.5432	9.8006	-0.5243	-8.1113	-13.9668	-29.5533	-9.1362
232.0000	-5.9633	-14.8142	-16.1041	-22.5250	-35.5702	-19.4150	-22.2810	-72.7272	-2.0104	-5.3289	4.1981	-6.4313	-3.8431	-21.1410	-30.1615	-31.6597
240.0000	-4.6749	-13.0152	14.3349	-41.8220	-16.0636	-12.2039	10.2492	-30.0337	-6.6105	-8.7928	-1.2024	-8.8205	9.2313	-14.2790	-19.6461	-10.9992
248.0000	5.7475	0.0541	5.1609	-60.4467	7.4575	4.7071	13.8936	-29.5184	8.1213	6.1159	16.1004	5.7979	-7.9135	0.1192	-3.4916	6.7566
256.0000	-1.2471	-6.5105	-16.9161	-46.4262	-2.0194	-8.0585	5.1524	-52.2043	1.0158	-0.0655	4.9850	-1.1765	0.7168	-7.1817	-11.8260	-8.7857
264.0000	5.4873	1.9327	12.7683	-47.7487	14.4471	2.5880	17.3678	-21.9996	5.8666	4.8191	9.3390	4.7169	5.8468	3.3628	-10.5636	-0.6705
272.0000	16.2155	13.8651	20.5467	-85.9185	28.6407	21.0783	25.0037	6.9107	20.0198	17.3072	25.4376	17.5157	-18.5038	18.9042	-0.2956	12.7141
280.0000	1.5812	-3.0283	-11.2093	-91.5155	-2.8317	0.6838	5.7962	-22.6768	5.8200	2.8884	8.2652	1.0740	5.2629	-0.1258	-7.7615	-9.2964
288.0000	-8.0530	-10.5122	-18.4340	-61.2497	-11.6881	-11.9073	-8.6952	-36.3877	-6.8207	-7.2423	-8.7970	-9.1198	27.6586	-10.2927	-10.3765	-15.6046
296.0000	-10.8461	-11.0217	-15.2659	-49.6427	-7.2365	-13.7341	-6.4718	-27.0737	-12.8718	-11.0815	-17.2696	-11.3596	11.4391	-10.1543	-8.1251	-4.3904
304.0000	-4.7625	-9.2317	-10.2563	-53.4493	-15.9004	-10.2002	-5.0086	-28.0313	-3.5002	-4.9843	-3.4342	-5.5144	-2.3696	-8.4400	-6.7958	-16.5635
312.0000	6.3655	0.3317	-3.9521	-63.1643	-5.6868	3.5429	9.4701	-9.2684	11.2307	6.9941	14.8732	5.8906	-12.4269	3.8709	1.5065	-16.6586
320.0000	-1.1759	-6.7898	-16.8852	-61.3639	-10.1467	-4.0435	1.2416	-31.5611	2.4419	0.0522	6.1436	-1.7019	5.5931	-5.9597	3.4544	-10.9099
328.0000	-3.0453	-9.1609	-14.9974	-52.2239	-23.9511	-8.1023	-24.3442	-54.4627	1.9181	-0.5518	7.1414	-1.9410	4.4280	-13.2333	-0.4088	-17.9044
336.0000	1.1890	-2.8465	-4.4752	-49.5197	-13.2231	-0.9445	-11.3833	-21.1348	4.7227	2.5236	7.6163	2.4634	-17.4029	-3.0767	3.6290	-10.1856
344.0000	-1.1303	-6.6241	-17.2324	-34.0856	-13.7273	-7.1702	-12.4597	-49.1123	2.7521	1.1700	6.6823	0.0552	1.2879	-8.6581	11.5500	-17.0659
352.0000	5.9968	-2.3498	-8.0225	-26.6349	-12.1137	-1.9165	-8.3718	-52.4779	11.9029	8.4909	20.0070	7.5540	-8.1596	-4.8257	18.6745	-22.4888
360.0000	4.1062	-2.0952	2.8057	-30.2816	-0.3956	1.4435	17.6547	-6.6985	4.7239	2.9941	9.5602	3.5222	-21.5173	0.9145	26.9516	-2.2724
368.0000	-3.8561	-7.8480	-20.6984	-19.8701	-10.6516	-8.8382	-12.3078	-46.2790	-2.0692	-1.6620	0.3425	-2.0219	-3.7134	-9.6116	27.2921	-9.0410
376.0000	0.7038	-3.3493	-17.0561	-9.4771	-15.2483	-5.8947	-27.7821	-56.4667	5.6457	4.6919	9.6469	4.3282	-9.9999	-7.8940	18.0425	-18.5355
384.0000	-0.9116	-6.2925	-6.5856	-8.5649	-10.7937	-8.0382	-4.9905	-38.4821	0.1589	-0.5118	3.8542	-0.2057	-11.5166	-7.9631	15.4232	-12.6455
392.0000	-6.3183	-9.7917	-23.8625	-1.8827	-6.6789	-17.0672	0.1062	-45.6695	-7.4805	-5.9035	-9.6947	-5.4538	-12.3390	-8.9040	17.9477	-18.0007
400.0000	-6.4377	-5.6218	-16.7895	7.6806	6.5892	-12.4797	12.1035	-10.1404	-10.3916	-7.3485	-17.5592	-6.7587	-0.2956	-1.3225	19.1212	-9.2288
408.0000	-5.1288	-5.5642	-1.9124	-9.5908	5.8423	-8.3134	6.1724	-16.1446	-8.9175	-6.2424	-11.7810	-5.4053	6.0803	-3.9377	19.7310	0.3437
416.0000	0.3100	1.0346	1.7193	-21.3751	14.2671	-5.2252	-2.9931	-34.1296	-1.9095	1.2863	-5.0497	3.7288	-24.7127	2.0276	12.5887	-0.3258
424.0000	5.0354	8.5801	7.3820	-13.9944	28.8004	2.2493	-3.1286	-31.5945	3.7036	7.4224	0.4287	9.5247	-12.5843	8.8900	7.3084	5.6005
432.0000	4.0868	2.8359	0.0631	-19.6890	9.6374	1.1974	-17.0908	-57.8201	6.6018	7.8009	11.4450	8.2628	-1.4277	-2.1113	7.9540	3.1627
440.0000	-0.2099	0.0785	5.6137	-18.0024	10.0680	-5.1856	-15.0379	-51.4883	-1.0069	1.6045	-1.0273	2.8626	2.5759	-3.3758	-0.0034	-1.0942
448.0000	-4.1169	-0.8293	5.2345	-36.7350	15.2490	-12.3528	-33.4735	-83.2204	-5.9835	-0.7849	-11.1100	0.9310	18.0838	-6.0092	-10.6314	-8.2799
456.0000	-8.7495	-10.8185	-16.7071	-34.2901	-12.8254	-21.1323	-42.5585	-106.5708	-7.6027	-4.9324	-7.0641	-4.0420	-3.1777	-19.2305	-19.6157	-16.0954
464.0000	-6.0662	-3.5706	2.1047	4.7983	5.6837	-11.6711	-7.7330	-29.6573	-9.5679	-6.5343	-14.4772	-5.7632	15.2807	-5.5305	-22.6971	-5.2355
472.0000	2.6570	10.4113	11.6281	-15.3328	37.1392	1.1246	0.2213	-13.8477	-0.5804	4.1366	-10.6092	5.4574	18.4109	12.8814	-11.8054	0.5421
480.0000	-5.7008	-2.3544	-13.4567	-10.2837	17.0657	-11.0674	2.6734	-34.9595	-8.9204	-4.8577	-15.5309	-4.4362	10.6230	-1.4010	-12.7534	-1.1980
488.0000	-12.2110	-8.7085	-2.9942	-2.9623	7.7112	-16.4829	0.2906	-26.8476	-18.2201	-13.9790	-25.2422	-14.0472	38.7895	-9.8097	-30.2055	0.4777
496.0000	-2.8455	-0.0482	6.2985	-26.0084	12.7261	-8.4554	-8.0822	-36.8089	-5.3141	-2.4834	-10.3778	-1.2752	5.7186	-1.1761	-31.7462	-4.3115
504.0000	0.9010	3.6159	10.2074	12.6608	14.7575	-2.2892	0.1836	-16.5977	-1.1572	0.7957	-3.4221	1.6173	7.3545	2.0102	-25.1288	0.9775
512.0000	4.9134	11.8466	28.8332	-14.2291	25.0667	7.5175	-13.5741	-3.7691	3.0148	6.0051	-1.3658	8.2039	-0.0362	10.0903	-27.5066	11.9791
520.0000	6.2722	12.7495	28.4277	-45.7041	30.6066	7.1191	-10.6560	-12.2350	3.8451	7.6641	-1.6404	11.6029	-34.0022	13.4350	-21.0218	14.9344
528.0000	3.6108	9.2179	26.7539	-27.4279	28.2387	6.5873	-3.6597	-3.3845	0.4473	3.9648	-3.7314	6.1397	3.0984	9.4378	-9.8368	15.5183
536.0000	2.6967	6.2880	36.5900	-17.4428	16.8533	6.9693	-9.5639	8.7106	-0.6972	1.8934	-3.7127	3.6342	22.8044	5.9356	16.9069	8.3394
544.0000	7.6035	9.4881	48.0180	-28.7359	22.3678	9.5297	-3.4106	3.4702	4.5514	6.3273	3.2465	8.8768	9.7186	9.7632	12.2612	5.6905
552.0000	3.2751	1.0613	34.1188	-7.3940	3.1335	3.8016	-2.1221	-2.8563	1.3459	1.2708	5.0279	2.3535	15.7598	-1.1317	11.8963	2.8204
560.0000	6.3753	5.5029	27.6338	-0.1526	6.6300	10.2234	-9.1577	-5.0013	7.0589	6.7866	12.7580	7.1670	17.6087	1.6256	16.4367	9.0412
568.0000	9.8407	9.2672	27.9497	10.6864	11.0963	12.2851	4.6867	15.3439	10.5398	9.3473	14.1015	9.9307	4.1150	8.8402	10.6891	2.8049
576.0000	-1.4021	-2.7724	1.6841	14.8333	-9.3576	-1.5035	-4.7478	-0.2177	-0.8276	-1.8609	1.0055	-2.8683	19.7176	-4.8283	0.1859	-5.5879
584.0000	-4.7719	-4.1175	-13.8978	11.1333	-11.5564	-4.4273	-16.0951	-13.8130	-3.5368	-3.3063	-2.9050	-4.1304	6.8657	-7.5733	-7.0134	0.0141
592.0000	-2.7324	-0.6296	-5.7814	22.3207	-8.0675	-3.3632	-18.8904	-9.2587	-2.0228	-1.4037	-3.0979	-1.3360	-1.1723	-4.0860	-12.4616	-2.4526
600.0000	3.0526	1.6406	0.1337	1.6517	-9.3153	2.1468	-22.3399	-25.9272	6.6958	5.5895	11.6615	5.8457	-14.5199	-3.4547	-3.7963	-1.5451
608.0000	13.5839	10.8188	5.9293	-2.1834	8.8093	16.3544	4.4229	-1.3225	19.0313	16.1586	27.4588	15.8377	-19.1654	9.8749	14.3371	5.8701
616.0000	11.0737	12.5005	8.1969	-13.9898	21.2136	19.0878	22.1347	43.5844	13.3013	11.7156	13.7118	10.7110	7.5514	18.0945	23.0776	8.3901
624.0000	8.1845	7.2641	-2.5807	-50.3497	8.3372	19.2665	14.0675	35.2246	12.8833	9.8761	16.8008	7.6530	11.8233	11.7043	27.1701	12.0783
632.0000	9.8092	5.5617	-9.8355	-28.5756	-0.6018	19.0916	12.2229	20.1698	17.5356	12.3577	26.9490	8.3434	27.9947	6.7852	26.0227	4.5881
640.0000	3.0074	3.2606	-12.9948	-18.5622	5.2071	7.3135	8.4176	14.7511	6.3552	4.6674	5.8958	1.9681	29.3930	6.3333	12.5928	-4.4427
648.0000	5.5056	4.9834	-20.0422	-28.8762	7.1591	10.3500	10.0011	6.5127	10.6234	8.4470	13.0713	5.9689	7.5660	7.6952	8.9319	2.8759
656.0000	12.0873	9.7019	-16.2857	-12.7365	9.5519	20.0011	14.3474	11.2519	20.1724	15.9731	28.9240	12.3052	16.6859	10.5989	17.2562	7.7870
664.0000	5.7736	7.6055	-13.6382	-20.7322	11.7029	10.0846	-3.7039	-4.4834	10.2842	9.7839	10.8118	8.1970	9.5602	8.4192	11.8930	2.5635
672.0000	3.1228	1.2520	-26.6722	-18.8585	-5.7774	5.1357	-13.3098	-28.5040	10.0595	7.9990	15.8539	5.6237	3.0517	-1.6401	6.4864	-0.4308
680.0000	-1.1623	-7.4154	-35.2442	2.3804	-24.9498	-1.1856	-7.3543	-27.2503	6.2281	1.9062	15.9454	-2.1336	17.8961	-11.7283	3.3278	-8.2169
688.0000	-9.1869	-10.6570	-35.4535	-10.7229	-28.7000	-13.3155	-22.1772	-25.2533	-5.5100	-7.0314	-7.4096	-9.2726	8.6122	-12.5975	-14.4185	-21.8013
696.0000	-3.1542	-1.6061	-35.2145	-20.5253	-15.0417	1.0095	-14.1596	4.0537	2.4230	0.4238	1.3898	-2.2482	2.0574	-1.5351	-13.5479	-4.0675
704.0000	-1.0830	3.0070	-37.6550	0.8298	9.5910	7.6645	18.7403	33.8824	1.5585	1.2377	-0.8716	-1.9164	13.8502	7.5427	-0.9797	14.3958
712.0000	-9.4472	-3.9864	-43.7974	13.6163	5.1596	-13.0109	8.4455	2.5825	-10.7238	-8.1712	-23.0156	-9.9684	15.4267	1.3432	-13.0476	-14.0621
720.0000	-7.8188	-4.5319	-41.7485	6.5017	-5.4430	-11.4879	-2.9319	-7.7979	-6.7307	-5.7328	-14.7825	-7.3863	2.1571	-1.9676	-17.0919	-14.6546
728.0000	0.5713	3.6508	-33.9556	-1.8574	4.2941	4.4236	5.9437	12.4589	4.2712	3.6616	2.2581	1.7652	-9.2028	6.2835	-10.9329	5.0070
736.0000	4.0134	2.6126	-25.8296	-3.3449	-9.1114	2.0980	1.3906	1.5840	10.4401	6.5277	10.9051	3.8619	-1.7178	4.1614	-19.5068	-19.8606
744.0000	0.9877	-1.8384	-19.7977	2.9666	-12.8077	-1.0460	5.9311	1.2841	5.5022	1.6981	7.7241	-1.0863	10.4066	-1.4445	-21.8478	-16.1450
752.0000	-3.0772	-1.1213	-31.5067	14.9353	-3.1531	-1.3093	-1.6856	-5.1900	-0.2872	-0.5532	-0.1583	-2.6373	4.4293	-2.3261	-19.1105	4.2898
760.0000	-7.1786	-8.6325	-42.8100	37.1726	-27.0977	-13.1028	-17.1462	-28.9063	-2.9209	-4.5760	-2.0129	-6.8573	-3.8287	-12.7434	-24.6925	-17.9712
768.0000	-10.4226	-10.7051	-29.0753	42.4088	-21.4997	-18.6604	-4.8628	-14.4032	-11.1957	-11.1491	-15.0222	-11.9405	-5.1746	-12.0888	-31.0631	-18.4095
776.0000	-5.8087	-1.4434	-7.9902	6.0869	3.3257	-7.3268	-1.2054	3.3204	-8.9153	-6.3201	-15.5065	-4.9768	-18.7952	-0.2048	-24.3601	4.2248
784.0000	-2.0414	-3.5718	-3.6691	-16.7101	-11.1793	-0.9919	-1.7418	4.9393	-1.6831	-2.5664	0.1350	-1.9725	-25.3628	-3.4769	-4.7632	5.4460
792.0000	-3.7769	-5.2643	-11.1477	-14.4985	-10.5465	-4.3975	5.7346	8.8173	-3.9473	-4.7990	-4.7680	-4.8800	-15.8499	-3.0063	-3.7976	-2.0224
800.0000	-3.7824	-2.2867	-8.5275	-17.7544	2.2605	-7.4298	4.8711	-1.6541	-5.7509	-4.4360	-11.6764	-3.4708	-18.2456	1.1206	-12.8282	-5.5041
808.0000	-5.6363	-5.9148	-16.5537	-9.5627	-4.5518	-8.6013	7.3445	-2.9655	-7.1082	-6.4149	-10.1702	-6.1759	-15.9084	-3.4399	-7.3958	-2.2611
816.0000	-5.9588	-3.9478	-29.3184	-11.7091	-5.1534	-6.2452	-3.0610	-3.9990	-5.0460	-4.3738	-9.3203	-5.2876	-6.4622	-2.2198	-9.7788	-2.3983
824.0000	-2.1830	-2.9834	-6.3554	-28.5629	-7.1432	-5.6028	-17.6746	-34.7758	-0.7031	-0.4600	-0.1539	0.0847	-14.1691	-5.5984	-13.6596	-4.3698
832.0000	-0.0345	-5.0309	1.2215	-22.4959	-12.2875	-4.1070	-7.0158	-31.9453	1.6205	0.0670	7.5112	0.4249	-15.7560	-8.1059	-6.7644	-3.5588
840.0000	2.6825	0.6452	-9.0400	-15.7679	-7.3932	4.6593	7.1814	15.9727	5.9481	2.9930	8.2145	1.7009	-7.9090	2.6147	-4.7611	-3.2514
848.0000	3.3604	2.4355	5.4521	-27.7486	-1.4719	7.1508	13.3815	33.9243	4.3445	2.0212	4.6880	1.9009	-14.5235	6.4963	-4.6535	2.5251
856.0000	3.7867	4.4944	0.8958	-42.8224	6.3895	7.7120	10.9282	24.8500	5.0104	3.7927	3.4034	3.8596	-16.3694	9.2775	-3.1312	4.1923
864.0000	7.1093	8.3288	-5.0128	-49.2486	8.3615	13.6149	-0.6868	12.3102	11.9246	10.0629	12.7888	8.9217	-3.9253	10.8325	1.8022	5.1355
872.0000	2.1447	-0.1099	-5.8999	-40.0634	-7.7664	5.2942	-9.1334	-9.4466	6.4193	4.1758	10.8759	2.9327	1.1628	-1.3331	1.4026	1.1788
880.0000	-3.2871	-3.7805	-20.3129	-36.2483	-12.9211	-2.8376	-9.9763	-6.3416	-0.0051	-1.5324	-1.2755	-3.0362	1.0424	-3.0278	-9.6481	-8.9056
888.0000	0.9436	1.6539	0.9918	-52.9751	0.4753	5.4390	-5.0241	6.1544	2.8383	1.9751	2.2995	1.5136	1.5113	3.1401	-4.5595	3.8247
896.0000	0.3047	-2.7331	6.9448	-57.9309	-6.0979	4.4441	-7.0473	-10.5557	2.1117	0.7855	7.3029	0.4560	3.3820	-4.0221	7.7022	9.0037
904.0000	-4.7464	-7.3883	-13.8127	-42.4786	-14.4639	-2.3567	-7.8607	-11.5818	-2.6292	-3.8645	0.0237	-5.3155	9.6853	-8.0993	6.0490	1.1419
912.0000	-7.7931	-8.7672	-4.0718	-36.5839	-7.5975	-5.9398	0.4769	-2.2368	-9.9012	-9.1436	-10.5873	-9.3602	9.6061	-8.0161	2.6647	6.6956
920.0000	-9.1515	-10.8782	-6.8408	-38.5077	-11.4198	-12.6224	-5.2623	-20.2338	-11.3059	-10.3541	-14.0185	-10.2289	6.4034	-10.2892	-2.0310	-6.8767
928.0000	-2.4273	-2.2809	-6.7542	-45.3709	-0.7026	-4.6203	-5.6196	-14.4066	-1.8803	-1.6178	-5.8862	-1.8460	4.3593	-0.1568	-2.8279	-10.8969
936.0000	2.2004	4.5500	-2.5194	-54.1894	13.5444	8.6555	9.9759	20.5727	3.1171	3.0564	0.2616	2.2700	7.3527	9.3818	3.1780	8.8663
944.0000	1.0849	2.7594	-15.1153	-50.5614	4.9867	9.3449	5.6281	21.1076	4.3956	3.0536	3.3873	0.7007	17.8778	6.4695	3.2436	7.3213
952.0000	1.0719	1.6068	4.3189	-49.2958	4.9991	4.6842	-3.2059	-1.3419	2.2815	1.9652	1.8834	1.3313	14.6513	2.6394	-0.4093	2.9242
960.0000	-4.1276	-5.3475	5.7082	-43.1657	-4.6378	-4.5957	2.6760	1.7004	-5.9426	-5.9618	-8.0942	-5.6499	3.6245	-3.1025	-3.5172	-2.8777
968.0000	-4.8458	-7.5937	-19.6909	-35.1084	-19.1462	-4.7321	2.8188	9.8994	-2.8747	-5.3007	-3.5032	-6.6969	-6.4979	-4.6408	-4.2794	-9.2520
976.0000	-0.8533	-3.1931	-13.4073	-47.2987	-11.0394	0.4552	-0.1666	0.7318	2.1752	-0.1047	3.4585	-1.0965	-11.4710	-1.3068	-5.6511	-3.1071
984.0000	0.2960	-0.9679	-5.2306	-55.4622	-2.8782	1.7625	4.5563	6.4630	2.2065	0.4571	1.2095	-0.3689	-1.7518	2.5219	-5.4640	-4.6421
992.0000	5.4055	5.1000	-1.3153	-59.6226	7.5938	10.1341	6.7362	11.5122	8.7292	6.8319	9.1254	5.7631	1.3522	8.8855	2.8380	1.8207
1000.0000	1.9113	0.2467	-2.5434	-58.7737	2.2876	5.2105	2.7972	-3.9220	4.1599	2.9481	6.2163	2.2068	0.9044	2.0880	5.4020	4.6893
1008.0000	-0.5949	-3.8093	-0.7052	-49.5668	-2.2787	-1.0162	7.5078	-5.3764	-0.2891	-1.2538	0.6407	-1.4673	-1.5301	-1.1155	9.7971	-2.5301
1016.0000	6.6631	5.2035	12.8096	-60.0915	20.2667	8.7051	7.9211	-16.7720	7.1889	7.7923	9.8601	8.5711	-3.3076	7.2310	22.6585	10.5777
1024.0000	-1.4331	-3.8801	-1.7319	-58.4448	4.3437	-0.3668	-1.1809	-29.1637	-1.1958	-0.4398	1.6074	-0.5770	7.7272	-3.9742	17.7824	8.1427
1032.0000	-3.2485	-6.5576	-6.0009	-46.8621	-7.0752	-3.2002	12.4452	6.1015	-3.6106	-4.8305	-3.7088	-5.3430	-2.1389	-2.6191	7.5231	-2.6621
1040.0000	6.6869	7.1951	9.0219	-56.6328	19.6443	9.9589	18.4811	17.5649	6.9065	6.6370	5.0841	7.2302	-12.3555	13.3797	9.2636	6.1964
1048.0000	-3.5282	-4.9908	-2.2595	-44.4092	-2.5222	-4.8374	-1.2584	-14.3901	-4.3546	-3.8184	-5.4733	-3.4203	-3.3310	-3.5660	5.1038	-1.3590
1056.0000	-7.7604	-12.3139	-1.8374	-29.0041	-17.8910	-12.0640	1.7813	-12.9838	-9.8890	-10.3779	-9.2729	-9.9887	-5.3893	-11.7911	-0.3256	-6.9585
1064.0000	1.9996	1.7477	8.7399	-38.0357	9.2205	2.2598	7.0091	-0.4621	1.4413	1.5554	0.2214	1.8924	2.3696	4.2908	1.1773	0.1492
1072.0000	-0.3924	1.0561	2.9885	-42.4295	6.8947	-1.0475	-7.4837	-14.8387	-0.3271	0.6255	-3.9050	0.7438	10.5140	2.1072	-3.8509	-5.1363
1080.0000	-0.0362	-0.5806	2.9942	-55.9830	-0.0329	-1.0216	-10.5387	-22.1577	1.1725	1.0654	0.6669	1.4437	-4.4316	-0.6966	-10.3056	-3.1275
1088.0000	3.5203	0.8478	4.8673	-58.2162	-2.8156	5.6061	-2.2812	-6.5372	6.3945	4.2907	10.1311	4.1558	-11.1500	1.3057	-4.2203	2.4144
1096.0000	-3.6634	-6.9864	0.8158	-42.3380	-11.7103	-2.3096	3.3984	2.5404	-3.6928	-5.1996	-1.6881	-5.8132	5.4044	-5.9539	-0.1407	0.4309
1104.0000	-4.4427	-3.4559	-2.2887	-51.4259	1.6285	-2.1134	-0.0474	-0.4102	-5.6425	-4.7120	-8.6653	-4.7365	5.8999	-1.2204	-3.4099	5.0331
1112.0000	2.9785	5.6541	0.3486	-58.8144	13.5724	7.0483	3.9058	12.5437	3.5229	4.1336	-0.3885	4.9386	-19.0221	10.4409	1.2514	7.7318
1120.0000	4.0802	5.4555	4.4190	-57.5650	14.3786	6.6566	12.1457	16.7346	4.1123	4.1584	0.4358	5.0169	-19.2267	11.4598	2.0678	3.9472
1128.0000	-0.1982	0.9464	2.2229	-57.5436	6.6736	-1.5454	-2.0290	-7.9751	-0.7724	0.1778	-5.4006	1.4735	-18.1133	4.3215	-6.0532	-2.8630
1136.0000	-8.0638	-9.6357	-1.8936	-40.3993	-14.5241	-13.3776	-7.1955	-14.3321	-10.3721	-9.8289	-14.5374	-8.5918	-15.5841	-8.2083	-11.9237	-11.4914
1144.0000	-11.9490	-13.5105	-1.8521	-30.4777	-17.0838	-16.6074	-1.2923	-6.0199	-15.8421	-15.2383	-20.8521	-15.0651	11.1537	-11.9988	-15.8895	-12.4659
1152.0000	-4.3668	-5.7527	14.8686	-20.3625	-6.5426	-8.6887	-4.5406	-9.5866	-7.5758	-6.7758	-10.0721	-5.3125	-1.0898	-5.5415	-3.9649	-8.5248
1160.0000	7.2701	3.1232	36.5625	-18.9645	5.5600	4.7452	11.7471	6.1474	5.2583	4.2112	8.5541	6.6276	-20.2658	4.7824	14.0256	-1.6978
1168.0000	10.4126	9.2225	32.8005	-53.6188	21.2237	9.9556	14.5778	7.2129	9.5479	9.1582	9.2051	11.3132	-18.2343	13.8564	9.3875	-0.0680
1176.0000	-2.3585	-1.5268	10.6392	-60.7105	6.3118	-10.0946	-20.2138	-46.8843	-4.2769	-1.4167	-10.8938	0.9690	-8.0861	-1.0021	-0.1981	-16.0266
1184.0000	-10.1356	-10.7819	-6.4248	-38.2570	-14.2191	-17.9810	-28.3061	-49.3708	-11.5994	-9.4515	-17.1315	-8.8222	12.6679	-12.7154	1.3342	-21.4553
1192.0000	-7.2589	-4.8174	-5.6369	-29.8911	-9.1400	-7.5915	-6.3265	18.9097	-9.4199	-8.4162	-18.4413	-7.7719	-5.4222	-0.3593	0.5060	-10.9157
1200.0000	-13.5807	-9.5614	4.2761	-21.6555	-9.0373	-14.9691	-0.0566	34.4037	-21.1066	-17.9659	-35.2331	-16.0168	-1.7364	-3.1605	-0.1638	-9.5851
1208.0000	-10.7457	-10.1075	6.9136	-19.4334	-8.0087	-12.6489	3.8011	16.3888	-16.9614	-14.7851	-24.8277	-13.5093	7.3986	-6.1370	7.8073	-6.1306
1216.0000	-6.2027	-6.7096	4.0155	-11.4956	-4.0116	-9.1029	8.7848	10.2498	-10.7728	-9.3391	-15.5223	-7.8213	-11.5281	-3.1110	6.5541	-3.3681
1224.0000	-14.6638	-10.9489	1.9458	6.7423	-1.4894	-18.1704	-6.7169	-8.6729	-22.4839	-17.5133	-31.9954	-16.2115	24.4710	-10.7290	-2.6646	-1.7594
1232.0000	-9.6655	-4.6028	5.4236	20.2964	4.2093	-12.1619	-15.1623	-12.5152	-15.8359	-10.6432	-24.0044	-8.7116	12.1737	-6.0519	2.3870	1.7085
1240.0000	-10.4555	-9.6083	9.1226	40.7043	-11.2152	-20.6845	-12.1618	-17.3552	-17.4540	-13.7435	-24.5489	-10.6427	-14.0556	-11.0561	-2.6627	-14.5012
1248.0000	-9.1503	-7.8632	17.5724	44.6013	-5.4737	-17.9000	-9.3240	-16.4265	-16.3483	-12.7689	-22.2608	-10.3857	8.6173	-10.4736	-10.4312	-11.6375
1256.0000	13.1632	15.6003	39.1439	22.5499	31.3470	13.5658	6.7879	4.7842	11.1631	13.0122	12.3642	16.0369	-17.5024	15.3192	11.7125	11.6379
1264.0000	11.5185	11.0014	52.4125	9.6731	24.4364	9.1075	-5.1647	-21.6681	8.9177	10.8405	12.7221	14.1036	0.3154	7.5226	21.4982	5.0463
1272.0000	2.4183	2.1493	44.6598	26.7586	3.7543	-0.4978	-26.1070	-31.9115	-1.0984	1.5474	2.3634	4.6678	7.6098	-5.5132	15.3791	3.5572
1280.0000	1.5947	3.3398	23.8078	50.8610	3.5616	1.3487	-6.9047	9.8058	-2.1302	0.1028	-2.0646	2.9595	-19.1142	0.8710	15.7287	8.6082
1288.0000	-2.4645	0.6812	26.9687	57.6030	7.5441	-2.5426	0.4844	17.8585	-8.7575	-5.6207	-12.0872	-3.7916	17.7824	-0.8283	9.7992	5.4568
1296.0000	15.0301	18.0244	58.9794	69.8030	30.5435	19.5049	3.8879	25.2400	11.8910	13.6024	16.1115	16.3546	8.9691	14.5368	24.1612	18.0166
1304.0000	19.8934	22.6653	47.0050	67.8385	37.4592	24.4098	11.9233	27.9993	19.4719	20.2024	23.7212	22.0586	4.5144	21.6605	34.6601	13.3476
1312.0000	3.3741	9.1043	15.5102	62.0774	23.7891	3.4945	-1.0511	5.3682	-0.4361	3.6738	-4.4671	5.5716	4.6947	7.9952	15.4305	8.6151
1320.0000	1.3827	6.1154	23.6982	101.0273	18.8149	2.6579	1.5728	10.5790	-4.9593	-0.1600	-4.4684	2.8788	-8.4673	1.7635	16.6718	24.6413
1328.0000	3.0804	4.1746	22.7187	124.2154	4.8624	5.9350	-0.2945	14.5010	0.1685	1.6188	6.7892	1.8740	28.2594	-3.2364	21.7074	15.9215
1336.0000	11.3943	12.4924	16.9532	126.2476	8.7185	12.3613	-0.7420	14.4560	12.3630	12.1700	19.7530	12.9873	-9.0433	6.2757	15.4748	9.5213
1344.0000	3.2545	5.8236	0.7909	201.5835	1.3561	-4.7251	-4.1861	-4.1766	0.7940	3.0819	3.8734	4.4531	-11.2424	-2.8894	1.1613	-2.5398
1352.0000	7.3140	8.9076	-6.6662	185.2129	0.1330	1.3180	-9.2467	-11.7268	8.6087	9.4201	15.4370	10.2537	-24.1764	-0.7995	0.9186	1.0503
1360.0000	-1.1730	0.2811	-31.4887	170.9772	-13.4855	-11.9255	-16.3648	-29.2571	0.5130	1.4114	2.5977	0.9883	-14.5016	-8.6152	-13.7351	-16.0606
1368.0000	-6.2113	-2.7394	-22.4293	176.2383	-11.7280	-18.9064	-19.1683	-30.4437	-8.2638	-5.3318	-10.7966	-5.0336	0.9872	-11.7043	-21.5740	-19.1294
1376.0000	-4.4208	-1.1612	4.3042	159.3365	-11.5156	-12.0013	-16.9315	-5.3138	-8.5539	-5.8770	-8.8159	-3.9640	-11.2692	-10.0241	-20.1913	-3.7065
1384.0000	0.8478	3.0542	1.1529	148.4788	-7.6330	-4.2345	-5.3305	11.1283	-1.0159	-0.1229	0.5780	1.1900	-20.9981	-3.1347	-13.0001	-1.8570
1392.0000	0.6328	3.8194	-5.6252	139.8448	0.9116	-2.2184	-2.6847	4.9199	-0.9383	0.8384	0.6484	1.2569	-3.8677	-2.1295	-4.1377	4.1299
1400.0000	-1.3523	-0.7000	4.2075	123.5559	-4.9086	-3.9025	-7.1122	-8.3499	-3.6437	-2.0418	1.5781	-1.5482	6.7489	-9.0487	-0.3073	8.1429
1408.0000	-3.0849	-4.9416	-7.5673	122.0638	-12.2065	-9.7408	0.7434	-12.1551	-4.7152	-4.3889	-0.2032	-4.8395	9.3339	-11.4101	-1.5787	-5.8456
1416.0000	1.9868	2.1181	-4.0662	112.6569	4.6486	-2.5458	13.0796	1.5355	0.2673	1.0727	3.1645	1.0820	-0.0256	-1.1876	0.3967	0.8483
1424.0000	12.3572	13.1198	20.1916	98.5097	23.1571	12.9478	12.8945	2.3698	11.6867	12.6950	19.9416	14.3025	-18.1316	8.2790	9.9256	21.3412
1432.0000	5.6409	5.3252	9.8592	90.9968	7.6538	6.4024	4.9859	-0.2934	4.9515	5.6285	12.6771	6.2579	-4.5620	-0.2726	12.2491	16.5709
1440.0000	-3.5743	-4.2625	1.2914	82.3548	-10.0272	-6.7765	-4.2775	-3.8166	-5.7407	-4.9588	-3.3540	-4.9424	12.3892	-9.1184	4.9614	-2.1156
1448.0000	0.5745	0.1677	3.6793	74.0548	-0.8158	-4.7925	-5.1667	-16.4781	-0.5973	0.4309	1.0418	0.7777	9.3044	-4.1310	8.0144	-7.6309
1456.0000	-3.4557	-3.2613	-13.6224	63.9122	-1.1374	-6.9426	4.7417	-6.5786	-5.2132	-3.7296	-5.3844	-4.0194	5.9348	-4.8327	10.5021	-1.6447
1464.0000	-6.9847	-8.1056	-13.0192	56.8629	-10.5454	-13.1305	-2.0069	-18.8144	-9.6429	-7.9681	-9.4961	-7.4327	-6.3583	-10.9833	3.4389	-3.6927
1472.0000	0.7884	-1.5137	0.7029	50.1392	-2.4981	-6.2272	-7.8555	-35.5168	0.4771	1.3391	4.1157	2.1055	-4.3166	-6.3057	9.2804	-6.9385
1480.0000	-2.3936	-1.6899	-13.8510	44.2891	1.5875	-3.5760	8.9111	5.5309	-3.5964	-2.6065	-4.9322	-3.2790	8.4512	-1.0687	12.3357	-1.0047
1488.0000	-5.6445	-0.7777	-13.5112	41.1754	7.6504	-4.9399	10.4421	23.7761	-9.5731	-6.6008	-16.8327	-6.2898	0.9215	2.2455	3.2607	5.1462
1496.0000	3.8161	7.2261	8.3420	29.8968	17.5374	4.1940	1.6160	2.6189	2.3314	4.4747	0.2260	5.4318	1.4794	7.1151	8.1440	5.3504
1504.0000	-2.0736	-3.1438	-19.9953	25.4415	-6.6018	-5.2470	-2.9691	-16.4613	-0.4200	-0.6973	0.2189	-2.0150	8.4327	-4.4938	5.0596	-9.2892
1512.0000	-10.0001	-9.7626	-33.2982	33.9817	-13.5811	-16.7906	-6.9229	-25.8298	-10.6050	-9.2395	-14.2999	-10.2334	4.6498	-11.1277	-8.1930	-13.7350
1520.0000	4.0455	6.5538	6.7972	30.6349	16.7364	1.4690	3.1224	-6.3300	2.6106	4.5739	0.6266	5.8243	-7.0493	6.4139	1.3817	0.9754
1528.0000	2.2140	2.0722	-21.4352	20.4724	-5.8917	-0.7906	-8.2006	-11.5121	5.9297	4.9943	6.0488	4.5053	-20.2826	1.5287	1.9465	-10.7334
1536.0000	-12.9262	-13.3319	-48.7049	25.0879	-38.1779	-18.6864	-31.4719	-28.6680	-9.4385	-10.1682	-12.1207	-11.9957	-7.4899	-17.2319	-16.8347	-22.1066
1544.0000	-4.9276	-3.3321	2.3454	25.3176	-9.2745	-7.5955	-12.5530	-3.6016	-6.8216	-5.7802	-9.3703	-4.9325	-3.3102	-5.8081	-17.4608	-4.3343
1552.0000	-1.2125	0.4457	0.3540	10.9195	3.7944	-3.4339	6.0064	8.5268	-3.5231	-2.3206	-7.3282	-1.0164	-19.1148	2.4868	-7.5355	-0.4567
1560.0000	-9.5464	-6.3899	-21.0270	14.4541	-5.4272	-10.3448	0.8864	10.7104	-12.5165	-10.2431	-19.5988	-10.1165	-4.4993	-3.9774	-2.2861	-0.6146
1568.0000	-0.4329	2.9302	6.2257	26.2892	7.4799	0.6900	2.5597	17.8125	-3.0608	-1.2819	-6.6450	-0.1970	-4.9531	3.8312	0.0461	5.5581
1576.0000	8.7055	7.5444	3.9043	20.7094	2.6843	7.9285	0.9351	2.1254	11.7409	9.9768	15.7012	10.4781	-26.0854	6.7331	0.8971	-1.3866
1584.0000	-0.4900	-3.8785	-19.0866	18.7072	-20.5757	-2.0904	-8.7372	-10.1979	3.6491	0.9380	8.7602	-0.3877	-11.8386	-6.8200	-4.1060	-7.3543
1592.0000	-8.3436	-8.6046	-22.9361	19.8587	-23.0628	-12.4078	-14.9472	-11.7454	-7.3759	-7.9425	-9.3824	-8.9269	-0.4976	-10.8802	-20.2719	-14.0122
1600.0000	-2.1668	-0.2187	-1.8687	12.1302	-5.4289	-4.8156	-8.1110	2.7431	-2.3967	-2.3095	-6.6275	-2.1861	-0.4705	-0.3152	-19.4576	-11.4724
1608.0000	7.0904	8.3141	21.3690	7.2223	10.5509	11.3061	4.1918	21.9851	7.3894	6.6916	9.1110	7.0380	4.3057	8.3202	0.4887	7.3109
1616.0000	8.4803	9.5327	10.2427	4.3682	11.3326	11.4711	-1.5164	5.1658	10.8335	10.1598	13.4214	10.3401	-5.0466	8.7682	4.0807	5.6036
1624.0000	2.8445	4.5659	0.5903	3.7083	3.9696	2.7258	-8.5486	-4.3184	4.1973	4.4149	3.1308	4.6513	-4.1370	3.8631	-2.4594	-2.7755
1632.0000	-5.8934	-5.2938	-7.8333	6.7150	-12.7587	-4.7314	-5.3330	9.2946	-6.5138	-6.6255	-7.7360	-7.0720	2.5623	-5.9741	-10.0636	0.5096
1640.0000	-4.8746	-5.0810	-15.1613	6.0005	-17.6042	-5.2660	-12.4209	-3.3977	-3.2394	-4.2245	-3.1029	-5.0690	-3.2122	-7.1164	-15.6229	-4.8124
1648.0000	6.7777	9.3612	14.5394	6.3578	10.6111	7.4926	-12.6863	-5.0892	8.4040	8.6669	8.1232	9.2748	1.7157	7.3595	-4.7717	-1.5828
1656.0000	7.9890	10.5275	21.8837	6.7493	16.6087	11.6637	4.8447	23.5416	7.9632	7.9262	7.0194	8.3608	8.9294	11.8868	5.5205	3.2904
1664.0000	3.9886	3.9877	7.6563	2.4207	4.4069	5.3073	8.4441	20.2175	4.4665	3.3549	3.7726	2.9030	8.7217	6.2749	6.1670	-4.7809
1672.0000	5.2363	6.8874	17.5061	5.0653	16.3626	4.6764	-1.6250	-7.7531	4.4321	5.7598	3.7189	6.6540	8.8586	6.2698	6.7996	0.5148
1680.0000	-2.4632	-3.3715	-3.8096	10.0343	-3.7873	-6.3939	-5.3065	-20.3763	-2.8121	-2.3182	-2.9197	-2.4693	8.1305	-5.1124	-1.3541	-7.6609
1688.0000	-10.7866	-13.2790	-24.4856	7.7443	-25.0135	-17.9373	-3.5270	-12.8179	-11.1554	-12.0755	-14.5415	-13.5299	10.6634	-13.0527	-15.8974	-23.3993
1696.0000	-3.0904	1.2169	14.6537	9.0062	12.1993	-3.1819	3.5474	11.6313	-8.0148	-5.0868	-14.1909	-3.6273	7.4954	2.4423	-12.7364	5.0520
1704.0000	4.6103	5.7074	33.6751	7.0164	14.8622	7.3941	4.3197	9.8087	1.3768	2.7791	3.4366	4.8229	-1.7379	4.4074	3.3230	16.2224
1712.0000	-2.0603	-6.2137	9.8795	-2.4504	-11.9292	-6.1164	0.5614	-11.2078	-3.1278	-4.2387	-0.1691	-3.8836	0.5861	-7.7376	-3.8740	-7.2749
1720.0000	-8.1893	-7.5036	2.2416	-4.7602	2.8399	-11.8700	7.7681	-11.6942	-13.3731	-10.8231	-17.0510	-9.9934	8.8269	-7.0781	-17.1180	2.7949
1728.0000	-5.7053	-6.3637	-7.6976	-1.4784	-0.3947	-7.8491	0.0416	-27.0092	-7.2472	-5.8992	-6.0645	-6.3819	14.9083	-8.8678	-11.7750	4.8899
1736.0000	-5.3139	-5.6199	-9.2486	1.0045	-9.8850	-9.5197	-13.6811	-28.0532	-4.7450	-4.6372	-5.7148	-5.6577	20.1906	-8.7469	-19.8564	-12.0564
1744.0000	-0.7490	2.7352	27.5849	-4.1009	13.5810	-2.5260	-4.5836	-5.0300	-5.1931	-2.4790	-9.8532	-0.5305	10.8003	1.9123	-19.3930	1.6663
1752.0000	1.3014	-0.3663	9.0601	-8.9908	-2.4858	-0.7877	-11.6810	-24.5020	2.1089	1.9413	5.0113	2.3456	2.3664	-3.5764	-1.0207	-2.8150
1760.0000	-14.2902	-15.1061	-44.5522	2.0229	-37.3324	-19.2412	-25.2693	-20.8756	-11.0918	-12.6158	-15.7760	-15.9555	27.9536	-17.0262	-19.2391	-30.3686
1768.0000	-12.1761	-9.2784	0.2326	9.3038	-15.3294	-15.6899	-3.5749	21.7523	-16.5144	-15.8313	-27.1828	-16.6030	35.9499	-7.1580	-31.7643	-22.0572
1776.0000	6.1458	5.3011	50.2545	1.6048	12.9745	3.2269	14.1152	18.9947	1.2550	1.4186	0.3297	4.1696	-2.3057	6.9698	-7.1817	-3.1813
1784.0000	-2.3319	-2.7490	19.1699	-4.7076	2.3436	-7.7899	6.3694	0.0664	-7.1667	-5.6404	-11.1621	-3.2402	-13.8743	-0.7546	-5.2048	-6.2160
1792.0000	-10.6394	-9.6539	3.8046	-1.6979	-6.4481	-18.1104	-3.0574	-11.8870	-16.5598	-13.7579	-24.4660	-12.0785	1.4288	-8.5321	-14.5445	-12.6319
1800.0000	-3.0328	-3.3898	13.5305	9.7254	-2.5261	-10.0953	-10.8075	-24.6239	-5.7289	-4.2772	-8.6107	-3.1355	11.4979	-5.4427	-5.6861	-15.2659
1808.0000	-1.9669	-2.6491	21.7542	15.6884	-4.3113	-8.6789	-14.7579	-21.5995	-4.5067	-3.4725	-6.9498	-2.5359	24.0291	-5.4913	0.1096	-19.3747
1816.0000	-2.5671	-3.3072	23.0463	9.8270	-6.9376	-8.0314	-14.0008	-14.9194	-5.3894	-4.5591	-7.2820	-3.2265	13.3059	-5.9915	-4.7434	-14.3179
1824.0000	-10.3529	-8.9945	2.1049	2.7035	-12.8187	-13.0929	-13.2687	-7.3678	-14.2206	-12.2820	-18.7166	-11.4239	7.4981	-10.7428	-15.7609	-4.1034
1832.0000	-10.3112	-9.8839	18.9555	1.3768	-10.0295	-14.4651	-7.9160	-5.0109	-16.4476	-14.2941	-21.3273	-12.9969	21.5238	-11.2875	-14.4723	-7.3579
1840.0000	4.2094	1.7657	42.0337	2.8314	1.5219	-1.2634	-7.7164	-14.6718	1.6201	1.6862	3.1276	3.9246	5.0431	-0.9192	0.5854	-11.2335
1848.0000	-5.8290	-6.2798	4.6805	-2.2543	-14.2693	-11.7348	-22.4479	-25.3391	-7.5238	-6.2625	-10.2229	-4.6641	-9.5059	-8.9684	-4.2292	-12.8074
1856.0000	-17.4362	-15.3469	-5.7590	-3.1286	-21.7191	-26.0615	-24.0424	-22.9556	-23.5823	-19.8559	-33.9561	-17.6978	-6.8495	-16.3589	-19.4864	-16.5878
1864.0000	-9.1770	-4.4463	10.2909	0.9413	2.5309	-14.9338	-11.6764	-7.6671	-16.0749	-11.3410	-27.0353	-8.1251	-13.2284	-3.3257	-12.5669	-5.7417
1872.0000	-4.8745	-0.6864	6.2478	-1.0450	6.4921	-7.8082	-17.2045	-18.2425	-8.8471	-4.5700	-15.6205	-2.0163	-10.8408	-1.4374	3.4899	0.6996
1880.0000	4.9695	2.7672	27.7523	9.0697	-1.4489	-0.3081	-23.7079	-37.4889	4.9984	5.6287	9.0464	8.1066	-13.6081	-2.9222	11.5448	-6.4858
1888.0000	4.4140	0.1306	20.8409	15.8344	-11.9047	0.6003	-17.3883	-23.1541	5.7125	4.3607	12.4993	5.8553	-16.2123	-5.2259	9.7223	-6.1481
1896.0000	-4.7585	-6.6487	-11.1225	5.6096	-19.3300	-4.1096	-7.8370	1.5362	-3.7185	-4.9457	-1.5649	-5.6757	-2.7774	-8.3725	-0.2775	-1.2893
1904.0000	4.2773	3.6402	8.4307	6.5576	-1.9291	8.1051	2.3078	19.8517	5.7288	4.0313	9.1902	3.8975	-6.0323	3.2261	0.7048	6.2249
1912.0000	-2.5021	-2.0740	5.9664	4.6014	-8.0703	0.1497	-5.1651	17.2788	-4.0045	-3.6360	-4.2904	-2.6070	-12.7501	-2.1746	8.9835	6.6007
1920.0000	-6.3568	-5.8348	-1.9190	-0.9538	-13.3982	-3.6590	-11.9761	9.1571	-7.8652	-6.9943	-9.0097	-6.4919	-2.5766	-6.6154	13.6244	4.8173
1928.0000	18.0039	16.7474	36.7793	3.9042	16.9723	27.1430	1.0076	21.9258	21.9691	19.5320	32.1462	20.0081	-2.4383	14.5439	31.2754	18.1552
1936.0000	20.3242	17.1369	31.0099	-2.4545	17.1426	30.8384	10.4507	27.4130	25.5037	22.0421	38.6250	22.2966	-15.6332	16.2862	42.4422	23.2923
1944.0000	10.4192	8.3371	4.5360	-3.9674	10.0077	18.5226	14.1267	22.9026	13.4756	11.6880	21.7095	11.6878	-22.3426	9.5166	34.9847	22.2445
1952.0000	7.8717	6.6263	-7.7395	2.7327	8.6411	13.6088	6.5910	4.5297	11.3075	10.4720	18.2780	10.3224	-23.1786	6.5209	30.8008	19.0121
1960.0000	-1.9719	-5.9772	-29.3121	-1.8091	-15.7794	-1.6138	0.2159	-12.1104	1.7217	-0.2048	7.3754	-1.7017	-15.4906	-6.9081	13.2409	2.0909
1968.0000	-5.6669	-10.5168	-9.3298	0.9202	-20.3430	-7.0882	3.5917	-6.8180	-5.3359	-7.3193	-0.4326	-8.6298	7.4967	-12.3896	-5.8042	-2.0799
1976.0000	-5.4729	-9.9362	-3.7809	3.3094	-21.4299	-7.3668	-10.6219	-22.4383	-4.9815	-6.1353	0.8253	-6.7158	5.5468	-14.5987	-1.1147	-1.0321
1984.0000	-0.3807	-4.2073	-30.0181	-4.3706	-20.1199	1.4615	-8.5786	-14.6047	5.6744	2.5545	13.2903	0.4254	-13.7853	-7.2201	-0.0045	2.1250
1992.0000	6.5094	3.6496	-0.1437	-4.6344	-2.0705	15.5834	11.1791	22.8605	10.9045	7.2205	20.8380	4.9675	9.0859	2.3518	4.1544	18.0558
2000.0000	0.1208	-5.6366	7.2309	0.1883	-15.6467	5.1889	7.7101	13.7610	1.6165	-1.7159	11.2270	-3.6671	24.4312	-7.9862	14.2604	8.0542
2008.0000	-2.8207	-7.3857	-32.5796	1.0222	-23.5190	-2.2196	3.3040	1.2454	2.1253	-1.7537	7.2019	-4.9119	4.2415	-7.6751	-1.0955	-7.8335
2016.0000	-4.0589	-4.7958	-21.2613	-5.7093	-11.5736	-2.2203	-3.2817	-5.0743	-1.7048	-2.9144	0.5262	-4.6978	4.9367	-6.2791	-13.9037	3.0706
2024.0000	-4.0732	-8.6341	0.8302	-11.6991	-16.4441	-2.2497	0.1301	-6.8743	-3.9850	-5.5320	3.2163	-6.1460	3.0969	-11.7462	-1.4688	9.9547
2032.0000	0.2537	-5.6389	-16.1225	-15.0397	-18.2985	3.2725	13.4230	11.9119	4.0460	-0.2410	12.2979	-2.3459	-9.0059	-5.2843	-1.0476	4.6594
2040.0000	-8.6010	-13.7427	-33.8502	-16.1403	-34.1203	-10.0082	-11.6262	-22.2013	-4.4241	-7.5484	0.8876	-10.1554	1.0742	-16.9857	-14.5375	-7.6537
2048.0000	-9.1555	-18.5234	-37.3463	-1.7229	-49.8412	-13.8263	-24.6937	-53.7930	-2.3480	-7.2286	9.8298	-10.7906	8.7359	-27.4757	-19.3634	-14.0116
2056.0000	-0.2552	-8.1690	-20.4126	4.4720	-31.2945	0.7653	6.0925	0.4760	6.2091	-0.4001	17.9121	-4.4418	13.9494	-11.6421	-22.7638	-6.5485
2064.0000	-1.8219	-4.2139	-1.2438	-10.3558	-11.4504	3.2080	28.4103	57.3091	-2.1109	-5.7613	-1.6786	-7.7823	12.2582	1.1956	-10.3298	0.1285
2072.0000	-3.3403	-4.6340	-27.6219	-16.0929	-12.5959	1.4685	19.4002	40.9175	-1.4402	-4.0977	-2.1858	-6.2341	-7.7357	1.0669	3.2122	1.3649
2080.0000	-9.1191	-12.8278	-38.2896	-13.1483	-32.1852	-9.5460	-3.2842	-3.3990	-5.1328	-8.6544	-2.7977	-12.0304	9.1128	-13.5762	-22.9897	-10.9302
2088.0000	-10.8571	-16.6774	-8.9297	-11.5264	-36.0154	-12.2043	2.6871	7.0639	-10.2763	-14.4405	-7.2437	-17.8268	43.3124	-18.1976	-29.6205	-16.4787
2096.0000	-8.6433	-11.1340	-34.4928	-8.7152	-24.4055	-6.3635	3.9624	10.8921	-5.5282	-8.6262	-4.7472	-12.8826	35.9332	-10.3387	-10.7789	-9.8814
2104.0000	-6.4759	-8.2415	-15.4065	-7.5083	-19.6812	-7.2186	-5.1198	-1.5200	-4.5703	-6.8069	-4.8949	-9.6292	34.8335	-9.1364	-18.2442	-15.0960
2112.0000	3.2240	-4.4183	53.2686	-11.9376	-15.3043	3.6163	11.7938	26.3524	1.2595	-3.2283	8.6398	-3.6883	41.7893	-5.7019	-1.5705	-10.4794
2120.0000	-13.2284	-22.1259	-17.8058	-14.2662	-54.7039	-17.2521	-27.0312	-32.3313	-10.1348	-14.2231	-2.8978	-17.0437	28.8297	-28.7341	-3.1722	-21.9475
2128.0000	-24.9010	-31.4272	-76.0588	-0.3184	-81.9089	-35.6975	-60.9187	-77.3455	-16.2837	-20.9265	-14.4595	-27.1492	45.0326	-42.2714	-47.4985	-50.4990
2136.0000	-5.0916	-9.3706	-33.9792	2.6299	-43.1867	-1.7769	-7.9439	23.0789	3.5014	-4.2905	7.5212	-11.2076	60.3364	-11.2399	-34.1150	-28.4003
2144.0000	-10.4185	-14.8570	-16.7451	-14.6634	-42.1540	-4.6307	0.7334	39.4825	-7.8892	-13.2124	-4.7675	-17.4103	38.7405	-14.8283	-17.8580	-8.7870
2152.0000	-11.8100	-20.2293	19.7330	-16.6035	-47.1267	-16.6875	-17.4712	-11.5065	-13.4813	-16.9968	-8.5432	-17.8995	34.3054	-25.4640	-15.5624	-21.8689
2160.0000	-0.7541	-5.5444	-13.1133	-9.8614	-23.6621	1.1832	-5.7134	4.7180	4.4769	-0.0359	9.1290	-3.7906	39.1274	-6.5936	10.5295	-17.3824
2168.0000	-13.0519	-12.2571	-74.5555	-1.9845	-36.6640	-9.9423	-14.7000	5.8219	-5.2136	-8.9032	-8.6102	-15.6168	42.3253	-11.9397	-23.3741	-21.4861
2176.0000	-8.9489	-12.1923	-9.1669	5.7302	-33.6669	-10.7756	-9.8130	2.9980	-6.7661	-10.8086	-5.9800	-14.7923	58.3213	-15.3141	-37.0523	-25.3972
2184.0000	2.0226	-3.7395	29.3749	-1.0587	-11.7094	4.2625	2.0319	7.7131	2.3325	-0.8303	9.9455	-2.5377	51.4875	-6.7483	14.7961	-5.7260
2192.0000	-1.0347	-5.7524	30.4969	-6.4430	-12.9666	-0.4277	3.4032	13.5809	-3.3774	-5.1778	0.9455	-4.9615	21.4209	-6.9723	9.5871	-2.5577
2200.0000	-9.9087	-13.4832	-3.7311	-9.0542	-26.8962	-14.3700	2.6715	11.8845	-12.5136	-13.8257	-15.2732	-13.7966	-3.0741	-11.3829	-7.3654	-16.2802
2208.0000	-20.6579	-20.7056	-75.9109	-3.4087	-34.7143	-25.1218	-10.4516	-20.0496	-19.1273	-18.6284	-26.2350	-21.8477	3.3066	-18.9361	-7.1007	-17.7536
2216.0000	-4.7827	-4.6509	-18.5021	12.1734	-6.8086	-5.7879	-0.8189	-10.6435	-3.5331	-4.1728	-3.5692	-6.5378	28.8359	-6.4555	-22.2866	-5.7007
2224.0000	4.5090	0.9855	9.6141	7.5030	-4.8511	4.2728	2.1110	-2.6817	6.9377	4.1935	12.6487	2.8150	20.0908	-1.2421	-2.2799	-6.4094
2232.0000	-3.1308	-9.3122	-9.7216	4.7727	-22.7800	-6.6976	2.9881	-4.0031	-1.5785	-4.4668	2.1488	-6.0935	11.6679	-9.4479	15.0879	-17.0299
2240.0000	2.0255	-0.3239	27.7453	6.8572	3.3855	-0.3672	27.7741	36.6447	-2.0472	-3.3819	-4.1167	-2.8389	12.2105	4.5668	-0.6243	-10.5683
2248.0000	-3.5876	0.8871	-35.0730	-6.2451	8.3644	-3.0295	14.6584	21.2189	-3.9022	-2.3394	-12.7554	-2.6589	-23.6931	7.9807	-1.9099	0.1534
2256.0000	1.0701	3.7500	-41.9385	2.3703	9.5541	3.2407	10.9912	3.2697	4.4242	4.7877	2.4140	3.4306	-23.0351	7.3792	3.3382	7.1506
2264.0000	5.9883	8.5934	7.0508	11.6090	24.9312	7.1505	24.8291	21.3491	4.6412	5.2679	1.9284	5.0945	9.4081	12.6719	-4.3569	4.1718
2272.0000	-2.1357	3.4176	-13.3353	-4.8574	21.5291	-4.0890	13.8531	7.6560	-5.2165	-1.8464	-15.6443	-1.1260	-5.7504	9.4232	-4.4041	-1.5055
2280.0000	18.1352	18.1133	49.1645	-5.2876	40.0394	19.0829	23.3702	12.4279	16.4458	17.0231	19.2905	19.7962	-12.5647	21.0484	23.5692	10.4692
2288.0000	12.3806	13.7378	3.4349	6.5747	28.2645	12.1681	4.0842	-15.8460	15.0465	15.9734	16.2631	16.3442	-4.0354	14.6105	28.7473	1.2309
2296.0000	-8.8903	-1.9991	-72.1340	8.7868	4.9602	-14.4915	-15.7889	-42.9106	-6.1007	-2.0901	-17.1297	-3.3145	-20.2402	-0.2113	-9.5482	-10.3751
2304.0000	7.2880	10.5779	37.4566	2.7084	33.2584	5.1889	16.4936	4.0166	1.7404	5.0320	-1.1310	8.9509	-26.4671	12.5917	-10.6870	14.0489
2312.0000	4.0886	7.1635	14.9759	-3.3944	26.2611	3.4535	11.1432	0.5466	0.1128	3.6596	-3.2706	6.7824	-30.3172	10.0487	12.7365	14.0696
2320.0000	1.5334	4.9841	-33.6959	2.9659	13.4077	-1.6884	5.9421	-8.5066	3.0951	4.8947	-2.8526	5.4386	-40.0353	9.4167	3.4945	-2.8942
2328.0000	13.8956	16.8837	21.1123	9.5495	33.7900	12.6497	18.1984	13.0378	13.3143	14.3607	11.1624	16.8541	-34.2579	20.8735	1.1955	4.5040
2336.0000	6.5288	12.6590	-25.7676	11.7469	28.6350	7.6050	3.9942	-4.0682	8.6688	11.4695	3.3145	11.9431	-27.5196	16.2903	15.7582	6.9587
2344.0000	11.1841	13.0435	-7.0144	11.9387	27.4716	10.3968	18.7460	3.4673	13.1463	13.6237	12.2454	14.1764	-26.4557	17.1636	13.5952	2.5936
2352.0000	17.3934	17.2992	45.2979	5.8495	40.5980	15.3242	28.5071	8.8545	14.7876	15.7392	16.8092	19.1503	-28.1376	20.7037	13.6284	9.2148
2360.0000	14.9043	19.7883	1.0145	6.7950	46.1418	17.8318	15.0283	-3.7430	16.3298	19.1125	15.7658	20.6425	-27.5922	22.9152	25.8170	18.9906
2368.0000	12.7686	16.0455	12.7434	7.1417	35.8037	14.3940	17.5972	8.4749	12.9612	14.3498	12.2698	15.7315	-17.9327	19.1882	10.2568	11.2601
2376.0000	4.8103	8.0288	17.9080	0.4859	22.7415	3.1184	6.7866	1.0154	1.9933	4.4094	-2.0113	6.6813	-14.9842	10.0844	-2.2381	4.0824
2384.0000	12.9096	19.1528	-8.9267	2.1404	36.9196	17.1584	-2.3819	-8.4334	16.4867	18.9899	15.0350	19.9725	-27.5764	20.5450	20.4645	15.9037
2392.0000	15.0598	18.5928	18.5341	2.5303	34.5713	15.0992	4.4152	-4.1475	16.3153	17.7700	15.8518	20.1444	-32.2088	20.0555	7.7713	7.6634
2400.0000	8.0379	10.0900	22.4515	2.0487	21.4599	5.5273	9.0981	4.4649	6.6058	7.4790	3.9233	9.3401	-13.2560	12.1962	-8.6382	-2.1777
2408.0000	14.8901	18.9799	-13.6104	10.4764	31.2565	20.4891	11.3591	13.7608	20.5464	20.0762	20.8836	18.8211	-6.9996	22.2062	18.1157	7.5878
2416.0000	14.2026	18.4153	0.2730	13.1903	37.6870	16.1653	16.8025	9.3268	16.1717	17.4332	14.5274	18.2576	-22.0200	22.4457	16.3650	8.7043
2424.0000	15.2273	19.5015	44.8034	8.3317	51.2107	17.1263	32.2767	27.5700	10.2886	13.3729	7.8110	17.1186	-23.0403	24.8004	13.1004	20.2463
2432.0000	7.8349	13.6952	14.4108	6.0842	41.2512	11.3343	25.6535	29.0436	3.6121	7.5516	-2.3598	10.1634	-22.5138	20.2440	23.5940	19.6957
2440.0000	-3.0347	0.2043	-5.3278	9.2693	15.9516	-6.0996	12.1706	1.7851	-7.6586	-3.8714	-14.9374	-2.0185	-16.2330	4.4380	12.4551	2.7452
2448.0000	15.1225	16.3321	44.8414	11.2117	39.8310	17.2232	21.5849	11.8481	12.3927	14.0233	15.0466	16.5832	-4.6792	17.9321	22.9206	16.5606
2456.0000	12.9837	19.6483	25.6471	2.6018	46.8449	15.8883	11.2022	11.5250	10.6406	14.5935	6.0139	17.7071	-22.0857	23.3807	19.8351	17.1947
2464.0000	-0.8439	4.3501	-16.0463	1.3988	13.6093	-2.8726	-8.1047	-13.6592	-1.5418	1.8808	-8.4734	3.4232	-27.0460	6.0133	1.3357	1.6362
2472.0000	9.0426	7.1581	-16.3379	14.9119	1.9303	9.6715	-11.6209	-30.0769	16.0740	14.1873	24.2713	12.8892	-11.1937	2.7887	11.9971	1.9170
2480.0000	4.2307	4.4735	-3.9792	12.6609	9.2365	-0.0575	-4.5870	-29.5446	5.8956	6.4525	6.8967	6.7026	-6.7073	2.4742	-5.3805	-4.8005
2488.0000	0.7924	1.9963	40.1956	-0.0828	17.7031	-4.0698	8.1287	-5.5697	-6.0179	-3.0832	-9.4418	0.1675	-1.2578	2.3192	-12.9963	2.0407
2496.0000	8.9367	8.7188	35.9289	3.8192	20.1423	8.4977	3.4015	-7.0343	6.5469	8.1164	9.9214	11.2494	-22.2433	7.4382	14.3575	13.0491
2504.0000	11.2711	14.0821	29.4599	7.5982	34.9843	8.4047	8.7247	-7.8091	8.0659	11.5197	6.3348	15.9058	-44.8597	15.9516	16.4067	11.4613
2512.0000	14.0937	15.3041	58.5647	2.7336	39.6060	13.5726	16.3136	5.6983	8.7227	11.7640	9.8499	16.7079	-28.4052	16.8588	24.4843	17.5459
2520.0000	1.0051	1.0604	-8.3975	5.3931	2.3500	0.3699	-6.0741	-16.8282	1.8490	2.8545	3.3907	3.5994	-19.8382	-0.2300	12.5486	5.6042
2528.0000	-6.9044	-2.6428	-46.8137	7.8539	-0.0791	-8.8052	-1.9481	-13.2663	-5.3390	-3.7888	-11.4033	-5.1845	-11.0905	-1.2759	-25.6830	-1.8794
2536.0000	3.0787	5.3721	26.8168	2.2425	24.1627	2.9377	17.7245	8.1100	-1.7560	0.5723	-3.6611	2.5051	0.3588	6.9248	-11.1753	12.5993
2544.0000	-0.3785	-3.2481	44.5772	-4.0313	3.2809	-4.8306	5.2320	-5.4898	-7.2558	-5.3495	-5.9277	-1.3991	-17.2804	-4.0651	8.7409	5.3792
2552.0000	-0.3029	-2.0034	14.7226	-1.1177	-2.6897	-3.4982	-3.2392	-10.2245	-2.8735	-1.8145	-1.5104	0.8846	-33.0601	-3.0120	5.8772	4.2087
2560.0000	9.4589	8.9352	32.7999	11.4831	21.5092	9.0633	10.0098	-2.7873	6.8848	8.3794	11.0277	11.6448	-31.4627	8.2509	14.4820	16.6617
2568.0000	8.9228	6.0496	46.7850	9.0817	17.2631	6.5367	18.0071	4.8431	4.7286	5.1985	9.1854	8.4343	-18.8284	6.1957	11.4599	8.9615
2576.0000	3.3615	4.4069	2.2430	-4.7206	13.1863	3.6439	6.1867	-3.7982	2.9067	3.9899	3.0496	4.9954	-16.5327	5.3081	2.1353	8.8225
2584.0000	-2.5265	3.6812	-10.1592	-2.1727	22.6055	-4.3446	0.3090	-15.2006	-6.1166	-1.0252	-13.6114	1.4653	-31.0632	5.6491	-6.9652	13.1307
2592.0000	-3.7890	-3.7517	24.7077	1.7373	0.0465	-9.6740	2.2139	-1.1265	-9.8238	-7.7336	-13.8778	-4.5519	-20.1170	-3.0337	-12.4213	-3.3233
2600.0000	-0.8402	-4.3091	14.9039	1.7913	-14.1696	-2.3134	-4.5130	0.0441	-1.4147	-2.8620	2.0871	-2.3303	-1.9014	-6.3775	-0.1824	-4.1862
2608.0000	0.3257	3.8183	24.8391	7.0549	18.2941	2.5299	6.0946	12.2666	-5.0014	-1.6737	-7.7233	0.8073	-4.7919	4.4480	3.8784	17.3201
2616.0000	0.5045	4.1805	54.1310	1.2724	24.3247	0.2524	11.2968	22.4378	-9.6440	-4.8238	-15.4785	0.2857	-15.0425	6.6342	6.8858	16.4134
2624.0000	5.9331	4.6182	46.9845	-2.9217	13.0174	4.5995	4.6740	4.4040	0.8860	2.6861	2.7060	6.9748	-28.9679	4.6955	21.6171	10.5977
2632.0000	16.4259	16.9845	68.8285	3.0444	37.7833	20.5447	18.6676	24.5146	11.5848	13.4135	15.9780	18.0583	-23.6435	17.9988	28.8415	25.9721
2640.0000	12.3516	13.4437	54.9630	-0.1180	29.1550	15.6883	6.7974	14.4264	8.6710	10.6178	11.0647	14.2878	-11.7755	13.6775	29.8757	17.6557
2648.0000	-0.0319	-2.2316	-0.0556	-1.0989	-12.3561	-2.1019	-18.5558	-21.3104	1.7228	1.2273	4.6478	1.7941	-12.0992	-5.4572	11.6938	-5.5088
2656.0000	-3.8304	-2.6190	5.1771	3.5046	-14.0553	-2.6547	-17.9919	5.0248	-3.8008	-4.1683	-4.8253	-4.1516	5.8934	-5.3352	-16.5773	-3.0610
2664.0000	-5.6981	-1.1727	14.3019	0.9530	-2.4435	-5.0237	-28.4069	-11.3241	-8.2969	-5.4765	-12.9212	-4.2792	16.8779	-5.2318	-13.2597	1.0533
2672.0000	1.5854	0.7795	23.5532	-0.4135	-1.4025	1.3476	-26.6007	-35.3492	1.3991	2.6682	6.6412	4.3105	1.8679	-6.4358	7.0833	7.6770
2680.0000	4.9212	1.2149	47.4643	1.5199	-6.8202	10.2734	-5.3899	15.8124	3.3802	1.8185	12.8972	3.5599	-0.5761	-3.5517	10.9427	17.2855
2688.0000	-6.9178	-8.6850	25.5211	0.9352	-22.5007	-2.7369	-7.7167	29.5539	-10.9454	-11.3656	-8.8498	-9.9441	-1.7332	-10.7253	2.5079	10.1248
2696.0000	-3.6933	-4.8311	-3.3716	-1.0163	-18.5892	1.8499	-10.8980	11.4116	-2.6784	-3.8361	2.1478	-3.9640	-12.7413	-7.8896	-1.3395	14.6163
2704.0000	7.3513	6.5993	12.7491	2.6782	5.0956	16.6661	3.5901	17.1784	9.9253	8.1234	19.2803	7.6123	-2.1627	3.5151	2.1746	26.5385
2712.0000	7.8304	5.1972	46.0232	8.1664	15.4898	13.2569	18.7998	17.8941	4.8198	4.3632	13.5935	5.4742	15.0520	3.0981	10.8977	24.0985
2720.0000	9.1651	5.4260	39.0447	3.5527	16.4955	16.2134	24.3636	20.4763	7.1142	6.2838	17.8743	7.1431	7.2868	4.3192	25.8354	29.2141
2728.0000	9.1524	6.3312	11.1360	2.5216	14.4909	19.6766	24.2281	24.0629	10.5687	9.0546	22.1093	8.3911	-0.8217	6.0343	31.0093	34.5733
2736.0000	3.9277	-0.6981	-0.3993	8.2322	-0.4428	11.6669	16.8143	8.3436	6.0200	3.7816	18.6662	2.1433	7.6191	-3.3531	19.2138	26.9821
2744.0000	0.6990	-1.8067	-22.5811	6.7596	-5.6994	8.5064	3.4177	-4.4722	5.2158	3.1810	15.7297	0.2903	12.8821	-5.7240	7.1233	22.6197
2752.0000	4.9582	4.4706	-12.4529	6.2308	6.2212	13.8875	12.0791	15.8234	8.8282	6.9346	16.2178	4.4510	13.5097	3.6084	8.2601	20.9661
2760.0000	1.3465	-2.9600	0.2248	5.9439	-11.3438	6.6010	6.2146	11.7361	3.4997	0.7707	12.3772	-0.8324	10.6507	-5.1280	13.9950	11.2246
2768.0000	-10.3403	-13.7966	-27.3267	5.0161	-36.2189	-7.8624	-25.1149	-18.4530	-7.3526	-8.8804	-1.0818	-10.7925	5.4668	-19.9391	5.3788	3.5793
2776.0000	-2.4632	-4.9765	-6.3776	7.5076	-18.6083	4.9430	-0.7965	22.8397	-0.5755	-2.9651	6.1901	-4.5760	6.3106	-7.1624	8.8102	13.9049
2784.0000	1.6242	-0.9109	-9.7669	2.9606	-6.0049	14.5767	31.5452	66.6806	3.1169	-0.2890	9.8621	-2.6713	2.8193	3.3043	25.0467	25.1666
2792.0000	-3.4932	-1.2495	-31.6934	1.4836	-2.8341	8.8428	18.2374	52.2380	-1.8733	-2.8480	-1.2693	-5.4252	2.4426	2.8114	12.5612	24.2171
2800.0000	9.6825	10.3757	7.8518	5.5461	14.7412	20.5673	19.9830	43.3409	12.1092	10.1061	17.7980	8.8682	4.7228	12.1589	12.6920	23.0398
2808.0000	2.7515	0.5126	-36.4615	2.0191	-4.5288	9.9465	16.8104	21.3691	8.2444	5.2883	14.2624	2.2218	-6.1004	2.9001	22.3803	11.9699
2816.0000	-15.2683	-17.0753	-59.6488	1.9029	-32.6984	-14.1329	0.6840	3.2683	-12.9891	-14.4864	-13.6558	-18.0502	5.4955	-16.1618	-6.7374	-3.2203
2824.0000	-6.3937	-11.6124	2.6176	5.7199	-23.0751	-6.4389	5.6902	5.1932	-7.3485	-9.7282	-1.7355	-11.0610	18.9432	-13.9908	-9.5392	-0.2792
2832.0000	-2.7733	-4.5580	-41.1471	7.7518	-10.0377	0.3589	8.5504	2.4754	0.8347	-0.5671	4.7226	-2.7711	-13.2924	-3.7422	11.7224	8.8855
2840.0000	1.4838	2.0133	-33.6511	9.2553	0.7034	5.5669	6.5534	6.1743	5.3388	4.5887	7.8264	3.1372	-20.2295	3.1991	10.2640	11.3401
2848.0000	6.8241	-2.1656	27.6719	3.3605	-14.0329	5.0918	-8.6190	-32.1352	9.5594	6.1636	24.7108	6.3109	2.8862	-9.7570	15.4529	1.5513
2856.0000	-2.9258	-12.2002	-22.3300	-0.2485	-37.8107	-6.6399	-17.8575	-43.5703	2.9966	-1.2803	15.8888	-3.0649	-13.2813	-19.3919	1.7223	-7.2787
2864.0000	4.6553	3.6043	-16.8739	1.4254	-7.6935	9.7288	10.0232	30.5903	9.4239	5.7599	13.4104	4.1911	-22.6748	5.3955	-10.0764	5.4381
2872.0000	7.3754	8.5439	-0.6058	-6.0841	10.0092	15.6185	16.8397	43.0138	9.8023	7.9391	11.3862	6.9841	-5.8309	12.4892	11.1034	12.4338
2880.0000	-4.8510	-4.9341	-38.8523	-14.1795	-11.6641	-1.2060	2.4177	7.1655	-1.4165	-2.7676	-1.3212	-5.2263	-2.2951	-3.1436	-0.8631	2.9110
2888.0000	-1.1885	-3.7270	-33.6901	-10.0229	-18.8358	2.3517	2.9150	9.6988	4.8619	0.7174	9.2425	-2.7693	3.1393	-3.5962	-15.2292	-2.5886
2896.0000	-5.1269	-5.7068	-44.2438	-2.3620	-19.7959	-1.0694	-1.1570	13.5070	-0.0871	-2.7294	0.4358	-6.3043	8.1049	-4.4372	-0.7724	-4.0925
2904.0000	-1.5292	-0.1278	-5.5087	-2.7557	0.9829	1.2540	4.6386	16.4405	-2.1930	-1.7590	-3.8959	-1.7196	-6.1280	1.7889	3.3891	6.4953
2912.0000	13.6196	10.8710	31.9132	-5.1177	12.9325	18.1532	11.0458	15.2943	15.3252	13.1992	24.0468	14.4480	-19.9197	10.2373	14.0031	15.5502
2920.0000	3.6773	2.9770	-17.9185	-1.2478	-0.5503	8.8178	3.4378	9.1373	7.7464	6.1104	11.8698	4.5866	-6.3946	3.4385	15.6328	8.6718
2928.0000	0.9484	3.2276	3.4158	0.3673	14.3902	2.0430	-4.9883	-16.5525	-0.0114	2.4263	-0.5253	2.9352	9.7746	1.8219	11.5755	8.9049
2936.0000	0.3130	-1.9430	-1.8689	-0.8303	-7.3101	-1.5532	-24.5757	-43.4954	2.6109	3.0697	7.7994	3.3464	-0.6812	-7.7304	19.3983	-0.4884
2944.0000	-13.5895	-14.5200	-41.5540	0.7499	-37.0527	-14.3884	-18.2093	2.8170	-11.4926	-12.7786	-15.1985	-15.0813	6.0840	-14.3914	2.0422	-17.3029
2952.0000	-6.3230	-1.5425	3.0490	-0.9567	3.3777	-5.0128	4.5644	33.6698	-10.7355	-8.6112	-21.1308	-8.2159	15.8458	3.2510	-2.3291	-5.1159
2960.0000	-7.6701	-1.3057	-35.9273	-3.8502	1.9157	-6.1878	-14.6627	-4.0401	-7.4545	-4.2300	-16.7228	-4.7270	-2.4419	0.7638	5.2861	-0.3861
2968.0000	-16.9877	-11.7771	-63.3605	-2.7797	-21.8913	-19.1497	-22.4107	-12.7147	-15.2312	-13.5403	-26.8291	-16.2658	12.6746	-10.4237	-20.6810	-18.1317
2976.0000	-6.2770	-4.0252	-0.3086	-3.3702	-1.9649	-11.7258	-4.7139	-6.9626	-8.7329	-7.5288	-16.8206	-7.8163	25.2062	-2.8270	-23.8154	-19.8270
2984.0000	-8.3571	-4.7503	-30.2974	-4.8429	-4.4306	-11.7875	-8.0656	-9.1526	-8.9713	-6.8990	-17.6713	-7.1097	-7.5257	-2.3686	-10.1890	-10.5410
2992.0000	-6.5414	-1.0846	-43.1345	-3.1812	0.5528	-6.6449	-2.5754	3.7792	-5.3826	-3.7043	-14.4064	-4.7174	-13.8336	2.7077	-15.3691	-3.9146
3000.0000	4.7032	5.9284	-2.5208	-4.2328	8.9381	4.2251	7.2401	6.8622	6.3846	5.5402	4.7030	5.1187	-4.0407	8.1208	-12.8154	-5.1016
3008.0000	-3.5144	-1.6300	-22.9687	-6.5970	-1.8684	-6.9016	-0.8712	-6.2149	-2.6290	-2.3047	-8.1626	-2.9771	-5.8107	0.6669	-17.1599	-11.8051
3016.0000	-3.8001	-1.0019	-12.9258	-5.1218	8.6501	-9.9364	2.7938	-16.3992	-5.3864	-3.4454	-13.3220	-3.5364	7.7545	1.5456	-19.3497	-14.5341
3024.0000	-7.9684	-11.1726	6.0919	-6.9753	-15.1596	-17.3524	-0.6968	-16.6776	-11.3335	-11.3827	-15.4985	-11.2234	19.1500	-10.5227	-10.9087	-26.4652
3032.0000	-23.4054	-23.4564	-50.4163	-6.6257	-40.6296	-33.0493	-23.4361	-29.9017	-24.9705	-23.7328	-35.4622	-25.4242	13.5274	-23.4015	-22.6033	-32.2832
3040.0000	-7.8188	-2.5396	-51.9765	-2.1250	-1.7813	-12.0885	-15.7103	-29.4596	-4.7857	-3.0480	-14.1283	-5.2412	8.1971	-1.6630	-25.7955	-17.1820
3048.0000	5.5871	5.2844	20.5982	-10.7293	8.7269	2.6796	5.4607	3.0329	5.5228	4.5044	3.8371	4.7057	12.1931	6.8111	-11.8627	-13.5628
3056.0000	-6.0144	-6.8634	4.3092	-17.7765	-10.1429	-11.0865	1.9130	4.6938	-8.7151	-8.8378	-14.5342	-8.5475	7.7905	-4.0307	-12.3217	-18.8833
3064.0000	-4.4520	-1.8875	-20.4529	-10.9651	2.7673	-9.1268	4.3760	-0.9221	-5.4174	-4.1077	-14.4089	-4.2287	-4.9414	2.8970	-8.5711	-15.6811
3072.0000	-0.5149	0.7001	16.8661	-8.3565	11.2207	-7.4098	3.6568	-7.1687	-4.9377	-2.4723	-12.2910	-0.1381	-5.8673	4.0232	4.5306	-14.0049
3080.0000	-4.4223	-0.5718	-31.9301	-3.3839	7.8385	-9.8272	-9.8782	-33.4945	-3.8894	-0.9307	-11.6227	-1.1530	-3.3736	0.7346	-2.2378	-11.4808
3088.0000	-0.4728	3.2243	-53.3982	2.6789	5.8372	-1.2320	-3.6132	-20.8690	5.6258	5.4251	1.6738	1.9807	11.2283	4.4020	-16.3385	-10.2205
3096.0000	-0.9965	-4.0760	12.2740	-1.6538	-8.1195	-7.5882	-13.0855	-36.4805	-0.9261	-1.4621	1.2675	-1.4831	19.0739	-8.3332	-11.9628	-15.8232
3104.0000	-2.9794	-6.4468	8.0477	1.2331	-10.0732	-13.9973	-27.4695	-70.4440	-3.6366	-2.1325	-1.0755	-0.3050	-7.2518	-13.3142	-2.9473	-14.9425
3112.0000	3.9519	4.2495	7.1489	7.4066	11.6463	-1.0199	-1.8019	-22.6717	3.3023	4.7394	2.5354	6.3385	-15.5091	3.7644	3.5816	-4.2503
3120.0000	1.1344	1.2466	10.0915	3.6766	6.6943	-2.3439	0.4238	-9.9220	-0.6913	0.5530	-2.2607	1.8685	-5.5645	1.5011	4.5537	-3.8761
3128.0000	-7.0155	-8.3216	-17.9675	2.5677	-15.1780	-13.4947	-11.3543	-28.6053	-6.9076	-6.6224	-8.6433	-6.8342	-4.5334	-10.0329	-13.1415	-13.9767
3136.0000	-4.0748	-1.5908	-14.8998	6.8219	0.6941	-6.7772	7.1577	8.9731	-5.1335	-4.5797	-11.6024	-5.1412	2.2246	1.4722	-20.8985	-9.7113
3144.0000	-2.0016	4.8850	-36.4515	8.6731	13.0697	-2.0652	3.3530	9.3137	-0.5634	1.1804	-10.9191	-0.3139	3.1445	9.6298	-13.9868	-8.0818
3152.0000	-2.8865	-0.7090	-9.6782	3.8522	-0.1945	-8.6366	-3.6277	-7.5285	-3.0559	-2.6078	-10.4302	-3.2825	14.8319	1.0522	-19.9283	-22.5551
3160.0000	-1.0915	-1.4733	33.8464	-2.5702	3.6339	-8.1718	6.5893	3.6098	-6.3201	-5.6022	-11.8559	-3.8974	15.5658	0.3509	-17.5870	-18.6596
3168.0000	-0.8999	2.5231	-6.0509	-3.6187	11.3203	-4.1674	1.7871	-3.9029	-2.6692	-0.3956	-9.4638	0.8726	-16.5791	5.4419	-6.6663	-4.1514
3176.0000	2.4778	3.4275	17.7423	-3.1583	13.8292	-0.1778	8.3819	0.0459	-0.5161	0.9745	-3.0932	2.7660	-8.3856	5.1803	-2.4172	0.2022
3184.0000	4.1363	5.2074	18.1098	-2.0489	16.7546	4.0343	9.9646	4.7971	2.1015	3.1496	0.8573	4.0512	6.2980	6.7245	3.5424	2.8921
3192.0000	-1.7944	3.6881	-60.3672	-2.6616	6.2162	-1.0292	-8.1281	-15.0221	3.8335	4.9041	-2.4946	2.5098	-11.1761	6.2529	-4.2193	-4.5169
3200.0000	-1.1443	0.3285	-23.6900	-2.3374	1.6409	-3.0565	-0.2036	-10.6756	1.3033	1.0119	-1.7719	-0.8042	12.0637	1.3979	-13.9613	-10.6245
3208.0000	2.8753	2.0256	36.3295	4.0423	10.1906	2.8104	13.8436	16.2653	-0.6840	-0.8982	-0.6509	-0.7235	37.4678	2.6579	-2.2497	-3.0793
3216.0000	1.3713	3.2993	29.9567	3.3877	15.8931	1.6589	14.0150	25.6667	-4.0014	-2.0441	-8.9081	-0.3426	12.9174	6.9193	12.9485	0.9089
3224.0000	3.8579	3.5846	34.5303	-2.1018	15.1138	1.9815	15.8903	16.7162	-1.3389	0.2148	-3.5176	3.1150	-12.7204	6.9297	15.6751	2.5610
3232.0000	2.6839	1.9346	12.3011	0.2391	4.1914	2.5828	6.2057	5.7387	1.7465	1.5877	2.9458	2.4126	-7.4511	2.3989	1.3025	2.9839
3240.0000	-4.1658	-0.2818	-30.4184	6.2113	3.3873	-1.4069	-1.5365	-0.1226	-2.6451	-1.5851	-6.2321	-3.5628	15.1601	0.3725	-8.2672	3.5366
3248.0000	1.9307	6.5527	-10.8167	8.7607	19.8802	6.0508	9.7153	11.1582	2.0495	3.6433	-1.0113	2.7275	12.7581	8.5447	-1.7108	10.7476
3256.0000	4.7021	7.7691	24.1716	2.0326	20.1616	7.0462	10.9143	20.0023	1.8459	3.2525	-0.5208	4.6466	1.4965	9.6459	-4.6317	9.4925
3264.0000	-6.4904	-2.7615	1.5447	-3.2285	4.4672	-7.3313	-4.0347	0.4784	-10.4415	-7.4725	-17.3250	-6.5589	8.8925	-1.6877	-6.4317	0.4193
3272.0000	-5.5397	-4.2940	-1.0300	-2.2190	-5.8041	-8.2971	-10.5060	-9.0547	-7.5963	-6.0338	-11.5921	-5.1315	-2.8362	-4.7257	-5.0575	-5.4195
3280.0000	1.1894	0.0093	13.2229	-5.1394	-6.4135	-2.0348	-7.8712	-8.0231	1.2868	0.3936	2.1106	1.4130	-12.5024	-1.7129	-19.1368	-7.0260
3288.0000	0.5927	1.8265	-1.7821	-1.5302	6.5043	-0.3312	-1.1293	-13.3352	0.8658	1.4392	0.8371	1.4209	0.3029	0.5826	-18.2550	2.8406
3296.0000	-0.5158	-0.7013	18.1783	4.0330	5.7063	-0.9138	4.7115	-1.2675	-3.7390	-2.5260	-2.8883	-1.2982	2.6018	-1.6640	-2.3748	7.8225
3304.0000	-2.2896	-3.5869	14.9635	3.2145	-5.8245	-3.0345	3.2296	9.2311	-4.8717	-5.0139	-4.5672	-4.2868	2.6628	-3.8154	-4.3801	-0.1339
3312.0000	6.1732	8.9732	13.4074	4.9305	19.1369	9.0841	11.3142	20.8267	5.4104	6.0107	3.6230	6.5021	2.0854	11.3619	1.5228	6.5424
3320.0000	9.4005	10.3876	39.5950	-0.7070	21.8776	12.6426	11.7985	23.2514	6.9013	7.5440	7.7395	9.4986	0.0745	12.0449	15.9237	10.2370
3328.0000	-0.2042	-1.4704	-10.0605	-3.5350	-8.6349	1.0639	-1.8066	2.5324	2.2104	0.5355	4.1557	-0.7471	3.7173	-1.8442	-1.8590	-2.6815
3336.0000	13.2097	14.3227	11.8367	1.1729	20.5963	17.9879	11.1748	14.8811	16.9569	15.0370	21.0971	14.2917	1.3767	14.7591	-7.0978	8.6051
3344.0000	17.2193	15.8975	52.8977	-6.6125	26.6145	21.5337	6.6999	6.0360	17.7212	16.8751	25.7058	18.7365	0.6375	14.0167	18.2791	15.0656
3352.0000	-1.8916	-4.8949	0.4879	-5.2774	-15.5555	-4.5152	-21.6615	-31.4147	-0.1281	-0.7695	3.8220	-0.7936	2.7095	-9.6405	6.5462	-7.1148
3360.0000	6.7880	6.6636	46.2769	4.0865	11.0773	5.5597	-7.4376	-6.7703	4.4828	5.0905	6.7107	7.3260	7.5019	3.3661	-3.0398	1.0816
3368.0000	5.1398	5.4825	30.5429	-3.1538	12.3783	6.8782	-5.8561	-6.8917	3.6376	4.8061	6.2500	6.3382	7.4447	2.9827	12.0994	9.1833
3376.0000	-15.3983	-15.3476	-43.2980	-4.0832	-30.1678	-19.5565	-26.0288	-32.9113	-14.3919	-13.4735	-17.8582	-14.6613	-3.7147	-18.1761	-13.1385	-11.1219
3384.0000	-3.0629	-0.9402	27.7936	1.9849	0.3973	-4.8872	-10.8204	-0.7198	-7.4830	-5.5116	-10.8005	-3.2714	1.1985	-2.9204	-18.4984	0.5724
3392.0000	6.9229	10.3432	15.5414	-0.9180	18.2130	12.5171	-4.0139	8.9600	7.4054	8.5441	7.9974	9.3241	0.6623	9.7041	9.9420	14.4312
3400.0000	2.5503	3.0706	3.4337	-0.1597	0.9340	3.6579	-9.6932	-6.4732	3.8866	3.8942	5.4389	4.2692	-6.4037	1.2300	2.1353	2.9835
3408.0000	1.9809	1.3729	64.3493	3.2202	6.0428	-2.1840	-13.0097	-11.0188	-4.6256	-2.3632	-4.6184	1.6840	8.2399	-2.6128	1.0975	-1.6664
3416.0000	-9.9054	-7.1581	-5.1014	3.8820	-10.8186	-14.4155	-25.7457	-22.0959	-12.8215	-9.7032	-19.8455	-8.4401	2.6040	-9.1066	-0.7701	-10.9092
3424.0000	-10.8231	-9.6290	-6.8526	5.4593	-18.8544	-15.6763	-19.9473	-14.6613	-13.4866	-11.8141	-18.5270	-10.7027	-8.8771	-11.7008	-18.9097	-9.5768
3432.0000	-1.5878	-2.5152	49.3129	6.5030	-2.7460	-6.5135	-15.4821	-14.4979	-7.7142	-5.5439	-7.7453	-1.6483	-5.3311	-6.7650	-4.1105	-1.1969
3440.0000	-0.4712	0.8849	14.9667	3.3669	-1.6404	-5.6361	-23.6681	-24.9561	-1.9538	0.0245	-4.9486	2.4595	-14.8193	-1.9142	-0.4720	-9.4883
3448.0000	3.6162	2.9708	29.2350	-4.7729	-1.9698	-0.0971	-20.5804	-22.0455	3.1450	3.4070	4.8181	5.8098	-15.2257	-1.2483	-10.2448	-4.9883
3456.0000	-0.4917	-1.3781	39.1820	-7.5614	-4.6113	-3.6560	-18.5402	-14.0064	-4.4492	-2.9108	-3.8748	0.6290	-16.2750	-5.0176	-0.1124	0.5666
3464.0000	-5.2064	-2.0274	15.6003	-5.2182	-4.3344	-6.6482	-17.8820	3.0639	-9.1391	-6.5686	-15.5839	-4.0399	-11.9222	-2.2604	-2.8512	-2.8310
3472.0000	-4.3576	-2.8991	19.5366	-4.6018	-8.4805	-4.7444	-26.8545	-14.4835	-6.3624	-4.8189	-7.7858	-3.5379	12.4746	-7.3858	-6.1817	-1.7123
3480.0000	-7.8207	-7.1356	27.9975	1.3172	-14.8370	-12.6727	-36.6482	-31.5225	-12.0908	-9.3709	-14.4897	-6.6767	6.6533	-13.5495	-7.2840	-7.4956
3488.0000	2.3530	5.6595	45.9083	3.1974	0.4325	2.0746	-27.8970	4.4164	-0.6996	0.9426	-3.8592	4.3407	-7.0617	2.1187	-9.4373	-2.4781
3496.0000	4.2547	5.9430	17.7209	-1.6588	-9.2931	8.6650	-31.1444	5.9636	7.0776	6.1458	8.9459	7.0926	-9.7746	1.7550	1.8527	1.2319
3504.0000	-9.2537	-8.3943	-7.9172	2.1841	-27.4576	-11.5742	-33.8108	-10.7762	-9.6406	-8.8066	-13.0628	-7.5730	-19.3517	-11.5673	-2.8736	-9.6831
3512.0000	-0.4008	1.4053	19.4301	2.3648	-8.8119	-0.8115	-22.5521	3.9165	-1.2141	-0.8525	-3.4319	0.9667	-12.0352	-0.9925	-9.9271	-4.9630
3520.0000	10.8212	12.6056	21.5606	-2.0079	5.0252	15.1786	-20.8126	5.3757	14.8473	13.5067	17.8685	14.2880	-10.1241	9.6015	2.4856	2.1985
3528.0000	10.8010	13.6749	21.8610	1.5612	15.9128	14.6094	-10.5321	8.5310	12.7009	12.9395	13.3926	14.3479	-12.1147	12.9051	12.5174	5.7518
3536.0000	8.4885	10.1686	15.4872	-0.3587	15.1202	12.5437	-2.3204	7.4696	10.0634	10.0540	11.5918	10.3133	5.3177	9.8769	14.6271	6.1964
3544.0000	-1.4935	-0.3892	-7.0279	-1.1599	-2.4861	-0.0304	-8.7902	-1.1275	-0.6205	-0.2502	-2.0001	-0.8682	10.6044	-0.6828	10.5103	-2.2718
3552.0000	0.8924	4.1833	-8.7217	1.9842	6.3117	5.0385	-4.6855	10.5912	2.0484	2.8674	-0.3815	2.3128	5.5663	5.1203	10.7983	4.5535
3560.0000	4.5322	4.9501	-7.3459	-7.8101	2.5799	9.6561	-2.6342	5.5517	8.3399	6.9585	11.5451	5.6362	3.4973	4.3694	5.3222	6.8795
3568.0000	-5.5649	-6.7023	-4.9813	-9.8777	-12.5793	-7.1376	-5.9023	-6.6154	-6.3742	-6.3774	-6.8158	-6.2096	-4.7574	-7.4084	-6.8104	-2.5839
3576.0000	-3.4290	0.1520	-29.0248	0.4620	5.4885	-3.5622	1.4321	-0.7197	-3.2659	-1.3252	-8.8045	-1.3824	-18.1345	3.0823	1.3798	2.2278
3584.0000	3.7172	7.0096	-34.6147	-0.2057	17.9062	6.4209	14.8579	7.6175	6.6274	7.3711	3.7468	6.2397	-17.7316	11.8046	11.6915	7.1114
3592.0000	3.5828	3.4306	-8.5240	-2.0584	13.9965	5.8200	23.4877	15.2043	3.6210	3.6148	4.1618	3.2048	-7.4211	7.5421	14.8681	9.0829
3600.0000	-1.1385	-1.2642	-31.9953	2.1779	4.5596	0.0725	17.5757	3.7020	0.3281	0.2844	0.3168	-1.2276	-7.4685	2.0391	9.9369	5.8310
3608.0000	-7.1309	-8.8449	-14.8788	3.4870	-4.4589	-8.4163	15.9496	-0.0070	-9.3584	-8.9933	-9.7560	-10.1909	16.0165	-7.3086	-0.1863	1.1567
3616.0000	0.2402	-4.7009	16.1222	0.5500	-4.0642	1.8089	19.3009	12.0671	-1.2309	-3.1968	5.0712	-4.1922	25.0851	-4.9766	6.4582	5.1902
3624.0000	5.6319	0.3578	-22.0056	-0.6713	-11.2690	6.6421	8.3862	-2.4555	12.1257	7.6762	20.8201	5.3339	-13.1764	-0.1155	3.5236	-1.9891
3632.0000	1.1300	-1.2421	-15.7983	6.4304	-2.3256	-0.5592	9.2105	-6.3401	3.1358	1.8354	5.7086	0.7506	-4.8478	-0.5827	3.2476	-3.2894
3640.0000	0.3920	-0.1066	-17.9998	6.7668	6.8746	0.6368	15.7930	2.1345	1.0999	1.0826	1.1064	-0.2763	7.8053	2.4762	14.0194	0.7309
3648.0000	-6.3013	-8.7997	-42.0900	-2.0859	-16.0601	-9.4001	7.4838	-6.9812	-3.8683	-5.3085	-4.4942	-7.3675	-9.2660	-6.4372	-1.1917	-10.3824
3656.0000	-6.0886	-8.3466	-1.7261	0.3264	-5.4012	-8.8747	12.4438	-1.1715	-9.0966	-8.8076	-9.7430	-9.2003	14.7971	-7.1909	-0.7659	-3.3353
3664.0000	7.5604	7.2939	-4.4228	3.1559	17.6864	9.8243	15.9166	0.1173	9.8057	9.2132	13.1860	8.1759	4.8491	8.5119	10.2623	7.7578
3672.0000	4.4149	2.3175	-36.8050	-0.5241	-8.0513	6.1643	0.2741	-7.1946	11.9973	8.6381	17.4694	6.0324	-16.9842	1.9593	-2.0190	-1.4461
3680.0000	-7.1209	-8.5197	-19.0912	2.5435	-20.3587	-6.4971	-2.1598	6.0057	-5.8156	-7.6469	-5.3708	-9.8679	17.4358	-9.2961	-16.1902	-6.2097
3688.0000	-1.3825	-0.4597	-3.0170	2.0487	0.2101	-0.3260	8.1276	12.1881	-1.5193	-2.2435	-2.4470	-3.2932	11.9879	0.2249	-24.0463	0.6675
3696.0000	8.9386	8.2349	-1.5399	-2.5467	11.5974	14.3703	13.4088	13.0545	12.3688	10.5480	18.2396	9.7332	-10.4224	8.9071	5.7092	14.7269
3704.0000	5.3671	4.7875	-14.9758	1.4443	5.8796	9.4992	8.2983	6.4721	8.9923	7.6967	12.9782	6.4299	-7.1376	5.7022	15.2143	8.9042
3712.0000	1.5352	0.8487	-19.4625	5.6184	-1.5136	-1.6603	1.9144	-14.1483	4.6298	3.3559	5.3280	2.2068	-7.6520	0.7527	-16.2856	-8.3759
3720.0000	9.7127	7.2680	10.5096	5.0072	12.8536	10.7967	13.4366	-1.2242	12.3079	10.3452	18.1760	9.2353	15.1789	6.9637	8.5983	1.0984
3728.0000	9.2908	7.3767	26.0241	-0.0306	14.8163	13.0388	18.5586	20.4746	9.5100	7.8949	14.1094	7.4035	21.7231	8.6241	16.0611	5.5448
3736.0000	-2.3589	-5.8303	-0.9930	-5.6516	-16.1565	-2.0071	2.2447	5.1280	-1.3880	-3.8126	2.5020	-4.8781	5.2710	-6.9267	-10.9208	-2.2222
3744.0000	-7.2916	-8.9415	-32.3273	1.1436	-20.1881	-6.1743	-5.7152	-6.5883	-4.7030	-6.0205	-2.7367	-8.3103	6.5649	-10.3564	-3.4520	-1.0974
3752.0000	-3.6987	0.4138	-19.4573	5.3311	4.4903	-4.3257	-0.3361	1.7801	-4.0480	-2.5224	-10.0513	-2.8407	-3.8731	2.1621	-17.7257	-1.3261
3760.0000	4.5421	5.3189	3.4037	-5.6278	10.4540	6.0976	7.4866	6.0438	5.3263	5.0348	5.9596	5.0742	-5.0944	6.4222	-4.4390	5.0674
3768.0000	3.8212	0.6153	-10.6651	-6.7933	-3.5274	7.8231	8.7203	7.3821	7.7684	4.9793	13.6885	2.6902	12.8385	0.9642	16.4140	2.5576
3776.0000	-3.8966	-3.9621	-20.7398	2.8193	-11.6691	-3.4154	4.7363	14.1981	-1.8946	-3.9347	-3.6764	-6.4891	19.1169	-2.4833	-19.0551	-10.4613
3784.0000	-0.9723	-0.0702	-5.7501	4.7674	1.7978	-0.3286	9.2096	14.5669	-1.1883	-1.5569	-3.5266	-2.6064	13.7694	2.0648	-5.7974	-3.5699
3792.0000	3.0525	3.7640	-4.6960	1.8468	11.8941	4.0015	13.8984	9.1194	3.0863	3.3797	2.2629	3.1830	-2.7917	6.5945	9.3219	3.4775
3800.0000	4.8407	5.5108	-15.9517	-0.1807	10.0424	8.6434	17.4721	15.6716	8.0301	6.3400	9.6697	4.2769	5.0186	7.9085	-8.4690	5.8354
3808.0000	5.6796	4.4504	1.4743	2.4089	13.0094	9.9172	14.2452	2.1675	7.3467	6.4957	12.7918	4.9853	21.1056	4.1698	13.4790	11.6783
3816.0000	-2.5418	-4.1987	2.7370	2.9145	1.6631	-5.9861	-4.1753	-31.1881	-4.3588	-2.6100	-2.5632	-1.9434	6.6184	-6.7429	12.9550	1.5123
3824.0000	-7.7892	-10.0216	-26.9920	-3.0213	-17.7831	-12.3726	-9.5503	-28.0992	-6.3079	-6.7534	-6.7009	-8.4056	11.7866	-11.5488	-3.7718	-14.1444
3832.0000	-10.0722	-13.0880	-11.4127	0.1811	-22.6982	-15.9938	-9.6323	-21.6259	-11.0421	-11.4351	-12.4114	-12.5699	23.2474	-14.8496	-6.1701	-19.0621
3840.0000	-8.6358	-9.0001	1.5796	8.9084	-9.0300	-13.7805	-4.7302	-14.0180	-12.7155	-10.8558	-16.0267	-9.9404	5.7442	-9.9998	-6.0934	-6.8540
3848.0000	3.5460	5.0809	-9.9165	4.8427	17.1159	8.5335	27.9005	34.0978	3.0251	3.3620	1.7512	2.8320	-5.7646	10.8782	20.9333	13.0115
3856.0000	-0.1174	-0.4117	-18.2910	-6.8677	5.8842	4.4879	31.0541	39.3592	-0.4532	-1.2247	-1.7286	-2.4429	-5.6640	6.5473	18.5651	8.7167
3864.0000	-9.4559	-9.4856	-46.3993	-8.0599	-14.7365	-8.5462	10.7012	12.7896	-8.0561	-8.8968	-11.5948	-11.5000	0.7477	-5.4164	-4.8446	-3.9365
3872.0000	1.1297	2.6863	-9.2829	-2.2912	10.4631	3.3510	21.3390	28.4879	0.6289	0.5375	-3.0570	-0.3037	3.6489	8.2130	5.4558	0.8433
3880.0000	2.7913	1.2257	26.6326	-6.7102	7.5712	2.1889	11.8788	11.1243	-0.3884	-0.0731	0.0883	1.4440	-0.4155	2.9513	12.2991	2.0084
3888.0000	-2.7690	-6.1544	-18.5334	-8.9579	-16.0499	-3.6878	-11.5937	-24.5511	0.3818	-0.9428	4.8125	-2.2196	0.6921	-8.9319	9.1469	-3.7989
3896.0000	-0.5341	0.0061	-16.0206	-1.3992	-1.2644	-1.2348	-8.8072	-18.1393	1.6935	1.8707	1.8981	1.1778	-1.3505	-1.3237	-1.1301	-1.9083
3904.0000	-6.3192	-3.6628	-19.4344	0.7336	-0.9005	-7.2018	-11.8655	-20.1345	-6.6947	-4.4818	-10.1950	-4.8673	6.9531	-4.9218	-3.2959	0.5156
3912.0000	-3.1726	-2.5792	-14.1726	-0.0421	-3.0913	-2.8791	-11.8161	-18.9781	-2.1475	-1.1664	-2.0968	-1.8609	9.3985	-4.5401	9.6278	0.6928
3920.0000	8.2245	7.2228	32.9494	-5.7810	6.8954	7.1519	-13.6883	-16.7650	8.6708	8.6189	12.7525	10.7657	-12.4086	3.6027	4.2871	1.5517
3928.0000	-0.2397	-0.1649	-20.7817	-10.5143	-12.4192	0.7411	-23.4105	-19.6994	4.7736	3.6564	6.5434	2.5353	-6.9023	-3.1190	-0.2668	-4.5686
3936.0000	-6.7546	-5.3389	-28.5587	-3.4183	-13.1511	-4.2557	0.8653	20.8493	-5.3287	-6.2935	-9.5731	-8.5962	13.7997	-2.5868	-5.5784	-6.8959
3944.0000	-1.3511	-1.0861	18.4062	-7.0480	4.3799	-0.7423	16.4890	26.2225	-5.2047	-5.0505	-7.8254	-4.4287	8.4237	1.9517	-10.1966	1.8063
3952.0000	-9.8047	-11.2690	-38.4233	-10.1779	-18.0048	-11.2574	-5.2701	-19.4389	-8.3028	-8.4115	-8.5814	-10.2211	1.0833	-11.7055	-2.0530	-3.2901
3960.0000	-18.0430	-18.4968	-45.6691	6.5568	-34.0228	-21.4027	-9.9334	-7.3520	-18.6032	-18.5158	-23.1927	-20.4121	2.8397	-18.7733	-20.1373	-11.4142
3968.0000	-7.0092	-4.9495	-14.5283	10.2220	-12.4023	-5.8147	-0.2750	20.3581	-7.6540	-8.0100	-11.4088	-8.9435	2.6880	-4.1298	-26.2214	-1.7173
3976.0000	0.0877	1.1556	-14.2641	-0.2458	-3.1014	1.8305	0.2985	10.6180	2.0583	1.2085	1.1935	0.4574	-9.0987	2.3027	-7.2642	0.0592
3984.0000	-2.4959	-3.6935	9.0644	-0.4896	-5.7674	-5.1009	3.1910	3.2473	-5.0654	-4.8297	-5.5531	-3.3347	-18.6336	-3.2925	-8.2245	-0.0978
3992.0000	1.7756	1.3154	-2.8819	0.5430	5.9363	2.1783	7.6545	-3.0803	1.9300	2.0666	3.8741	2.2044	-9.2666	1.5539	1.2529	7.3947
4000.0000	-1.8203	-2.6741	-23.1443	-2.7934	-4.5688	-4.7102	-2.0299	-17.6334	0.2071	-0.0092	-0.2904	-0.8664	-6.4493	-2.2643	2.3131	-7.5668
4008.0000	-14.2697	-16.2328	-26.9686	0.0381	-28.6804	-22.8915	-12.9601	-25.9314	-15.8985	-15.3280	-20.4514	-15.4211	-8.6374	-16.9323	-15.7206	-20.0461
4016.0000	-8.3379	-10.5329	-4.8832	6.9387	-14.4148	-12.8594	-0.3492	-11.7823	-11.1641	-10.5599	-11.7060	-10.1538	-1.8275	-11.5174	-6.7873	-4.6591
4024.0000	5.3501	2.8884	32.9810	3.9378	5.3913	3.8391	9.5454	7.2923	3.0659	2.4449	6.3067	4.2075	-7.7700	2.5917	0.3072	2.0488
4032.0000	10.1856	9.8778	15.8453	-0.5621	15.8699	9.8921	9.5631	4.9000	11.4558	10.6060	13.2538	11.3813	-12.0765	11.2673	3.8502	-0.1327
4040.0000	8.7722	9.1966	18.2375	4.3437	22.6537	8.7556	12.7189	2.5707	8.1370	8.8299	8.6994	9.7077	1.8902	10.9692	17.8413	2.8617
4048.0000	-1.3049	-1.4149	9.7835	3.4007	-1.9887	-1.3797	0.1034	7.9873	-3.0721	-2.7443	-4.1136	-2.2515	5.4719	-1.0991	5.3150	-1.5453
4056.0000	-1.7850	-1.3594	-10.7245	-1.2366	-6.6782	0.3685	1.2054	14.1249	-0.6246	-1.6415	-1.2581	-2.6662	1.6141	-0.4108	-6.7417	-0.3839
4064.0000	5.6046	4.0155	24.9867	-0.7790	6.3635	5.8736	7.7095	8.4887	4.8099	3.9116	7.6652	4.7161	0.9766	3.9360	0.6691	1.9412
4072.0000	-5.5946	-6.5742	-25.0183	-0.5587	-21.3838	-8.3315	-18.1307	-19.3550	-2.5036	-3.7352	-2.4990	-5.0106	-3.9347	-9.0720	-15.2719	-12.1624
4080.0000	-9.9231	-8.8943	-42.5205	2.6691	-21.9531	-12.8096	-16.6181	-19.2508	-6.9471	-7.5120	-10.1410	-9.7015	2.0127	-10.5526	-29.0733	-12.9092
4088.0000	5.1795	4.9512	34.0104	0.4791	9.7953	4.1896	4.7436	5.6237	2.8953	2.8958	3.9813	4.5542	-0.2308	4.2776	-11.7512	1.8442
4096.0000	10.5683	10.5130	28.4640	-6.1973	15.1525	11.8636	4.9236	8.3545	11.0927	10.3432	13.8871	11.8495	-14.4107	10.6598	-0.5886	5.3671
4104.0000	9.4614	8.1525	37.8836	-0.8377	17.1488	9.2737	12.1619	7.1430	7.4471	7.4257	10.8558	9.6913	-13.0754	8.4499	5.8306	7.7923
4112.0000	5.1471	2.6505	13.2825	3.5496	0.3048	4.1705	2.3688	-3.8039	5.7290	4.6615	10.6077	5.8354	-22.7350	1.2392	-0.0642	4.2420
4120.0000	1.0865	0.2662	-13.2733	1.0753	-7.0459	0.9368	-2.6718	-5.7418	4.5089	2.5128	7.0913	1.1788	-3.7242	-1.2221	-21.4756	-2.9135
4128.0000	6.5895	6.0976	71.2686	-0.0052	24.3463	7.6632	20.3076	23.1076	-0.5830	0.4100	0.3399	2.3946	43.8771	6.3823	-0.0023	6.5831
4136.0000	-2.5715	-0.9634	18.4609	-2.4825	7.4187	-0.5350	5.9759	17.1774	-6.8892	-5.0646	-10.3355	-4.3912	22.7601	0.7416	12.0994	4.1909
4144.0000	-10.7702	-6.8879	-25.0225	1.9070	-9.4110	-11.8280	-9.3737	1.1783	-12.4283	-10.4236	-20.2806	-10.7590	0.2863	-5.7183	-16.0178	-4.5979
4152.0000	2.2453	6.3076	43.2422	5.8874	18.4794	1.3572	-3.5466	8.7930	-3.7235	-0.3897	-8.9325	3.0039	0.4476	6.3152	-3.7170	4.4634
4160.0000	-1.6807	2.5406	-24.1226	0.1766	-4.7663	-1.5355	-20.9431	-5.9541	0.9617	1.9391	-3.6590	2.4050	-31.2503	2.3173	-9.2613	-2.3781
4168.0000	-4.0467	-0.3953	-13.1077	0.8538	-7.3316	-5.0297	-13.7444	1.0964	-3.4220	-2.9703	-8.4048	-2.7174	-16.5631	-0.7916	-32.9625	-4.4934
4176.0000	13.2308	15.3911	75.7682	-2.0155	30.1801	14.9590	-3.5473	7.8669	8.6674	10.7080	10.0644	14.9577	1.8418	13.1934	7.0846	11.9076
4184.0000	7.4478	3.7793	33.9313	-10.6011	-7.3176	5.2396	-32.4629	-37.1779	9.7532	8.8939	17.4139	11.0608	-12.8398	-3.4039	17.5699	-4.0216
4192.0000	-2.1972	-5.0312	6.4362	-1.6088	-21.7590	-6.3747	-27.6044	-27.8975	-0.2757	-1.6784	2.3664	-1.6588	5.3113	-10.3486	-7.4432	-16.0730
4200.0000	4.6481	11.5164	-4.2182	8.1574	20.2273	9.1098	-0.7216	23.0820	5.4861	7.0923	-1.1812	7.0061	2.6645	14.5861	1.3159	3.1755
4208.0000	4.8844	7.5116	21.6773	3.6492	10.9894	8.6595	-0.3043	21.9691	3.9119	4.3935	2.6644	5.3699	2.1812	8.1336	3.5221	6.1574
4216.0000	5.4130	0.9807	66.9809	-1.2037	-1.9139	5.4387	-5.1516	4.5985	1.3534	0.5798	8.1034	3.2247	15.0049	-3.3449	12.3869	3.0601
4224.0000	2.1357	1.6454	9.4825	-1.6598	-4.5307	2.7726	-18.9867	-12.5588	3.1770	3.4700	5.6653	4.6794	-12.7197	-1.4004	17.0462	1.9928
4232.0000	-7.8038	-8.5498	13.0575	3.1368	-22.0122	-10.9572	-25.8000	-12.6431	-10.3275	-9.5004	-11.5079	-7.9116	-3.0427	-12.6469	-5.7956	-7.5465
4240.0000	-8.0061	-8.1199	44.8183	3.1728	-12.6153	-11.6922	-15.1091	4.5964	-15.8444	-13.5825	-19.7918	-10.2834	8.3462	-10.5172	-5.2014	-5.5242
4248.0000	-5.7867	-2.2561	-23.0046	0.1432	-6.3419	-8.0207	-21.2128	-18.5278	-5.1870	-3.1427	-10.6479	-2.5985	-18.3462	-3.1382	-7.2373	-4.8498
4256.0000	-3.6264	-2.3195	-26.1970	8.2062	-11.9757	-6.7056	-24.2475	-32.2875	0.0362	-0.0371	-0.7746	-1.1928	-1.0662	-6.2947	-20.4583	-10.3482
4264.0000	1.0633	-0.0796	19.8543	8.2252	-5.5435	-0.9197	-9.0963	-4.3085	0.1625	-0.1665	1.6382	0.9481	-1.6252	-2.6018	-4.5030	-4.3856
4272.0000	3.2750	1.8878	27.3638	-0.5518	-1.4986	0.7788	-5.1786	0.9605	1.2970	1.4477	2.3479	4.2329	-28.1143	1.1219	4.1350	-0.8054
4280.0000	5.4354	5.1867	45.6938	2.3835	11.8013	2.2531	-4.3381	-8.1285	1.4363	3.0470	2.2003	6.5616	-12.6426	3.2178	2.0573	2.3647
4288.0000	6.9994	6.9043	40.3715	3.8698	17.0248	7.5663	4.1187	3.2442	3.5543	5.0788	5.9083	8.0142	-11.2213	6.0780	15.6985	11.9926
4296.0000	6.4757	6.9484	11.7104	2.0113	7.2089	10.6978	2.3345	17.9433	7.4367	6.9109	9.7462	7.6076	-12.9941	7.5057	14.3962	9.3865
4304.0000	5.5137	8.5688	28.0822	3.1563	13.3364	7.9308	-8.1498	8.6090	4.5400	5.5300	3.0772	6.6865	11.3154	7.5119	0.9360	2.6929
4312.0000	4.6271	3.7486	40.6078	0.4221	4.8828	4.5767	-9.5980	-5.9268	2.4440	2.9914	5.6729	5.1726	2.3817	0.2433	4.9705	4.5756
4320.0000	-2.9406	-6.0795	4.2631	3.9982	-19.5445	-3.5619	-9.1388	-0.1246	-2.9699	-4.2003	0.4733	-3.6647	-12.4779	-8.3995	3.8739	-1.3367
4328.0000	-10.3524	-9.0004	4.1215	11.2060	-14.5614	-13.9997	-17.4320	-7.7318	-14.6324	-12.2731	-19.8057	-10.8381	2.5156	-10.8416	-4.7531	-6.9670
4336.0000	-2.8252	-2.8344	17.8487	12.8667	-7.2654	-5.7045	-20.1204	-19.4632	-5.1247	-3.5943	-4.7417	-1.7337	-3.0788	-7.3588	-1.4206	-1.1921
4344.0000	0.1070	-0.8519	-8.4862	19.2420	-15.9595	1.2581	-14.9878	-2.5974	3.4063	1.5770	7.3813	0.8247	-7.9018	-4.6508	-7.7977	-0.9736
4352.0000	-0.7967	0.9049	10.5739	21.2101	-2.0907	1.2013	-8.0138	9.4675	-1.9665	-1.3697	-2.0914	-0.8729	5.3018	-1.2421	-3.3580	4.6718
4360.0000	10.0137	9.7970	19.5400	10.4866	10.7840	13.7990	-3.0308	4.1551	11.7272	11.2944	17.3394	12.5121	-16.7128	7.7685	18.7626	12.7905
4368.0000	15.7583	13.6148	-1.4988	2.7468	7.1867	20.9208	0.6382	4.1501	23.7127	19.8637	33.3676	18.7429	-20.8099	12.1355	13.3428	7.1794
4376.0000	18.0847	15.1345	24.9642	-2.5553	20.7732	24.9721	12.3447	5.7266	23.3102	20.0286	35.2894	18.8778	12.9414	13.0468	17.6143	14.9242
4384.0000	4.0680	0.1721	-20.6027	-8.4723	-1.3298	9.1659	2.3495	-17.7867	9.6010	7.4531	19.7804	4.8156	11.5228	-2.5297	24.9913	12.9766
4392.0000	-16.2522	-19.1901	-55.7297	-3.6948	-35.5209	-18.7745	-16.0136	-31.9674	-13.6977	-14.3205	-13.0722	-17.4169	12.0623	-21.8889	-2.0087	-9.2060
4400.0000	1.0735	-1.3481	17.1440	-0.9648	-1.7989	0.9168	4.8150	3.6544	0.0135	-0.8713	2.5960	-0.9135	15.4726	-1.9753	4.3383	-1.6194
4408.0000	7.2867	7.1369	-8.6317	-10.2213	9.1966	11.7795	10.4998	15.4167	10.9628	9.3107	13.2404	8.0999	-3.8826	9.8027	16.1401	4.6077
4416.0000	-4.2429	-0.9611	-31.5556	-9.0512	1.4964	-2.0002	-4.4743	-3.8206	-2.4644	-1.3532	-6.4911	-2.8725	5.5094	0.4833	0.1610	1.6570
4424.0000	10.8214	12.4906	16.4820	-3.3557	26.3075	15.1601	4.1455	-3.1235	12.0452	12.9392	15.5295	13.6495	-0.8981	11.9221	17.8229	16.0864
4432.0000	7.8584	8.5133	-41.3683	-4.9757	11.3798	12.9116	5.1041	-7.4779	15.5607	14.1132	19.6763	11.5477	-13.6428	9.8791	20.0116	9.1212
4440.0000	3.3843	5.0948	-25.1143	2.4277	13.4886	7.5039	16.0715	11.1035	6.6171	5.9171	6.3232	3.1804	19.3568	8.1273	6.2347	3.7410
4448.0000	13.7955	11.2557	43.1768	2.4304	24.9678	17.1861	29.5992	29.9845	12.3076	10.9927	17.4553	11.8228	11.9452	14.1946	27.5190	8.7528
4456.0000	-3.1134	-4.6199	-32.2383	-2.8504	-3.6025	-3.7224	14.7598	4.6644	-1.8668	-2.3578	-3.2429	-3.9719	-2.9640	-0.3758	20.4915	-4.6999
4464.0000	-0.5104	4.3458	-26.1266	8.8250	27.1203	0.9816	25.3807	11.4183	-1.7328	0.8670	-8.8974	-0.7441	21.6100	10.4079	9.1255	4.1198
4472.0000	13.9687	14.7558	23.3040	2.0120	37.0863	17.1584	29.8940	20.6047	13.1330	13.7595	14.6701	14.7361	-2.1968	19.3511	29.6857	12.7367
4480.0000	-2.0057	-4.2129	-31.4260	-12.1987	-9.4963	-2.3759	-0.4474	-11.3957	1.1252	0.2897	2.6325	-0.8133	-16.6621	-2.9161	19.8014	-2.3081
4488.0000	-2.2222	-1.5786	-16.8938	1.5797	1.2433	-1.9458	-0.6749	-10.4282	-1.1738	-0.7080	-1.7677	-2.0643	15.2772	-1.7742	3.4664	-0.6769
4496.0000	2.0973	3.2223	-16.2689	5.1984	5.3979	4.9104	10.3111	15.3041	4.2236	3.4044	3.5161	1.7823	6.6087	5.7304	3.9489	0.8065
4504.0000	-8.6196	-3.1430	-64.1274	-1.0922	-5.5316	-4.5326	4.3335	24.0172	-5.5516	-5.0994	-14.6067	-8.2033	-2.4514	2.7549	-5.2656	-2.4244
4512.0000	-5.7068	-1.0790	-17.1504	4.4986	5.1300	-3.7541	5.2130	19.8375	-7.5524	-5.6489	-15.5022	-6.4469	14.1175	2.6831	-1.6896	-0.5841
4520.0000	-0.7592	0.0490	-4.6919	4.8660	3.0013	-0.4644	9.8761	14.8836	-1.4987	-1.4469	-4.2332	-1.9961	7.6349	2.7679	2.6334	-3.1378
4528.0000	-5.5592	-0.8553	-41.0973	4.7819	1.0791	-4.8613	1.6657	8.3339	-3.9856	-3.0269	-11.7958	-5.0300	5.1662	2.7920	-10.9645	-6.0771
4536.0000	-12.0766	-11.2008	-32.1718	4.7642	-21.7127	-15.7256	-13.3579	-10.1878	-12.0901	-11.5788	-17.7291	-12.8795	7.0200	-11.2452	-12.2410	-15.3272
4544.0000	-9.4515	-11.8111	-24.2260	2.2376	-23.5537	-14.1889	-5.6278	-12.0327	-9.6301	-10.0806	-10.8782	-10.4844	-13.2893	-12.0623	-7.7672	-10.8531
4552.0000	-1.0010	1.0185	-5.6744	3.4757	11.4938	-2.1096	13.1134	4.7571	-3.3912	-1.5725	-6.8124	-0.5983	-16.8032	3.8547	-4.6329	6.3836
4560.0000	-0.9790	-1.0699	-5.1393	1.5680	8.3692	0.6254	18.8623	12.5318	-2.9391	-2.0830	-3.3756	-2.2027	0.8375	1.9449	13.7625	9.1007
4568.0000	-3.4645	-3.1331	-34.4966	-0.5588	3.2357	-1.4788	13.2827	-0.2237	-2.3209	-1.7786	-2.9128	-3.6368	3.7516	-0.4230	14.4904	6.5845
4576.0000	-8.8500	-9.4937	-17.8659	-6.8869	-7.6144	-13.2827	0.1469	-20.1846	-10.6420	-9.4239	-13.6761	-9.9868	9.4895	-9.1928	-7.3662	-7.1803
4584.0000	-12.8650	-17.4633	-1.1144	-12.9647	-24.3984	-18.3348	8.8992	3.3252	-17.5721	-17.9745	-20.0918	-18.1196	13.6265	-15.4252	-2.3694	-14.3837
4592.0000	-8.4846	-5.7886	-32.1232	-7.7032	-0.4181	-8.4816	20.1842	29.4894	-11.0924	-9.6453	-20.3509	-10.0844	-13.5913	2.1447	2.9384	-1.9822
4600.0000	-1.1753	3.7984	-27.0936	-8.0966	12.9471	-0.1465	14.2440	20.2630	-1.1406	0.1591	-9.2612	-0.1785	-18.5501	10.0592	-12.3273	1.3563
4608.0000	5.7210	6.5336	16.8451	-9.2389	18.0581	8.9769	23.6251	29.5150	4.3676	3.9006	3.5891	3.7691	11.7453	10.6258	-0.3030	5.9230
4616.0000	-2.3471	-0.5303	-0.7252	-5.4550	8.4175	-0.2651	16.1341	24.3971	-4.9693	-3.9976	-9.6337	-4.4367	16.5226	3.9007	6.9809	1.6354
4624.0000	-9.1797	-10.7101	-19.0568	-9.2209	-19.7589	-11.0060	0.4497	2.7113	-9.4417	-10.4998	-11.6535	-12.0269	11.3660	-9.7304	-14.5568	-10.4828
4632.0000	-7.9131	-8.8666	-13.3636	-9.6153	-13.6104	-8.9871	6.9791	9.5278	-9.0468	-9.8586	-11.5326	-11.1116	11.2120	-7.0650	-17.9029	-6.4927
4640.0000	-15.7446	-10.3210	-55.6584	-6.6096	-12.7735	-16.4291	-1.9611	11.0027	-16.3807	-14.4976	-29.0094	-16.5807	4.3879	-5.3343	-21.1868	-10.3104
4648.0000	-5.4740	-2.5833	-21.4710	-6.7990	-6.7408	-5.8807	-4.2365	7.0101	-4.7161	-4.7008	-10.6265	-5.8012	2.2758	-0.7379	-23.8847	-8.3990
4656.0000	-3.8990	-4.1230	17.1426	-6.0534	-5.1112	-6.9822	-1.4286	3.3224	-7.6533	-6.8173	-10.5971	-5.1777	-4.6659	-3.7224	-10.3369	-4.8122
4664.0000	-18.8585	-17.1597	-31.3451	-4.7444	-25.7264	-21.7707	-3.0463	13.3937	-23.1006	-21.3748	-33.2223	-21.7202	-1.2527	-13.6242	-12.5754	-10.9241
4672.0000	-0.7020	0.8255	8.0947	-5.1944	5.9746	1.7230	17.5863	35.9668	-3.5522	-3.3333	-7.5615	-2.9796	1.0397	5.4932	-1.8377	3.2463
4680.0000	-5.1921	-3.4346	-8.6151	-11.9222	0.7413	-6.7449	8.4723	15.4423	-8.1985	-6.6208	-15.4492	-5.7895	-11.9687	1.6639	5.4984	-4.5776
4688.0000	-26.6766	-24.2343	-62.2531	-12.7318	-37.3661	-31.2060	-8.9007	3.3375	-29.5680	-27.8636	-43.5240	-30.1718	12.8624	-19.9857	-22.8213	-21.6735
4696.0000	-10.3670	-8.9683	12.6092	-10.0761	-8.8049	-11.3097	4.0032	23.1033	-16.2585	-14.9623	-23.5423	-14.4686	22.5618	-6.4357	-15.6138	-6.3968
4704.0000	-9.2567	-5.8760	-28.3667	-16.2913	-9.5450	-9.5755	-2.3555	16.9432	-10.3904	-9.1113	-19.9050	-9.2349	-14.4422	-0.9315	-4.0912	-7.6664
4712.0000	-8.3326	-5.2872	-46.8779	-12.8419	-11.9793	-7.1289	1.5652	15.3557	-6.0693	-6.5711	-12.8923	-8.7431	-8.6273	-1.1197	-22.1720	-6.2237
4720.0000	10.4868	7.3170	52.8174	-10.1960	14.4689	12.8047	21.6655	26.5297	7.7016	6.1844	13.4985	8.1990	-3.6629	8.3303	3.4821	11.2201
4728.0000	5.8848	3.8121	-6.5325	-15.7651	6.3945	9.9280	20.0408	21.1382	7.5630	6.1760	11.3491	6.3817	-31.9646	7.8465	23.1703	13.1045
4736.0000	-2.9628	-1.0099	-35.1767	-8.1320	7.4121	-1.9198	10.4907	-6.7474	-1.8369	-0.6807	-3.7031	-1.7117	-13.4003	1.4673	-4.4943	9.5650
4744.0000	-6.7634	-9.6152	25.1985	-4.5221	-4.1276	-15.0061	-1.8245	-31.7092	-12.6960	-10.7595	-13.3181	-8.9340	15.0412	-12.2785	-11.9128	-7.8607
4752.0000	-3.4454	-8.1474	3.6131	-5.3590	-12.1199	-10.6439	-0.7654	-26.5621	-4.5464	-5.2030	-2.6560	-4.9348	2.4893	-9.5900	-2.3873	-13.9412
4760.0000	4.3663	3.9793	-7.2047	4.5898	14.1865	0.7054	7.0774	-25.8619	5.5428	6.1173	6.9070	6.0564	-5.1926	3.7680	-1.3516	-0.8395
4768.0000	9.9286	7.9727	19.7305	6.0487	21.4167	7.9979	22.0021	-1.3516	9.4959	9.0421	12.8870	9.6788	-0.8957	9.5282	8.0237	2.0119
4776.0000	22.7889	15.1227	54.0056	-1.7341	23.8372	25.7009	41.1327	29.4034	24.4484	19.6529	38.2299	20.4029	-7.4021	17.2076	24.1530	10.4204
4784.0000	8.7104	2.2828	9.6398	-2.5943	2.3057	9.1093	15.0971	-9.6866	11.6774	8.5966	22.6286	7.7369	0.5828	0.6933	15.1479	5.1761
4792.0000	-4.8679	-5.8428	-38.4633	2.8993	-6.2737	-4.3472	0.9874	-21.4719	-1.5033	-2.1597	0.6989	-5.4787	25.4278	-7.2015	-1.7535	-0.5806
4800.0000	10.6160	7.8259	34.4049	1.1479	20.3981	14.3133	17.8956	2.9719	10.2498	9.3307	18.6776	9.3795	22.2098	6.2977	15.0774	15.3516
4808.0000	1.6932	-4.2220	24.7884	-5.3119	-5.6822	0.4018	0.5466	-19.0250	0.4663	-0.3701	9.0233	0.5365	3.9992	-8.0122	17.5544	5.8012
4816.0000	0.1706	-2.9849	-19.9436	0.3545	-6.7386	-2.3248	-3.0148	-29.1241	3.4685	2.3154	8.2218	1.0868	-3.6367	-5.2331	3.6089	-3.0894
4824.0000	17.5748	15.8357	20.1922	4.1575	27.9457	18.0966	13.4395	-9.1492	20.7604	19.6947	27.9243	20.5903	-17.3752	15.7921	20.6724	7.9005
4832.0000	10.7299	7.1379	28.1029	-4.8676	11.7737	12.0239	16.9981	13.6426	10.7236	9.2284	16.6216	10.5766	-15.7884	8.6899	24.8395	6.7913
4840.0000	2.0721	-2.1791	17.9339	-10.4135	-1.7416	1.9169	11.9983	4.1771	0.9357	-0.4117	5.5994	-0.1280	4.0273	-1.9547	10.1792	2.2035
4848.0000	2.9241	2.1426	-6.5691	-4.9668	4.5089	3.0861	-1.5920	-16.5893	5.1813	4.8693	7.9947	4.1967	2.6879	0.9447	5.7513	1.7503
4856.0000	18.1487	18.2295	25.9217	-0.0546	32.3389	23.5950	21.6774	18.5776	20.6148	19.2795	26.9382	19.8883	-11.8906	19.8742	13.4694	17.2755
4864.0000	19.2272	16.4481	51.2852	-7.2468	37.2189	22.2324	32.0073	14.6720	18.1143	17.3495	26.5252	19.6082	-13.0247	18.3136	23.3188	20.0438
4872.0000	-3.1099	-2.8734	-28.3405	-6.4725	4.1859	-4.1584	7.0887	-16.7777	-2.0369	-1.2867	-3.0670	-2.7698	6.3934	-1.5603	2.1739	0.5157
4880.0000	8.4848	8.0241	19.9775	3.1388	26.7478	10.5918	30.3171	14.8759	7.1954	6.9357	9.5988	6.3898	24.7067	10.6991	5.4990	8.5300
4888.0000	8.2333	4.8393	42.8652	-0.8955	24.5826	7.9412	28.3238	7.5204	3.7118	4.4801	7.6702	6.0361	18.1108	7.0101	35.1737	8.1539
4896.0000	-15.7326	-13.8036	-49.7079	2.4149	-16.7831	-17.5184	-10.6965	-17.6952	-16.2938	-13.9968	-22.8557	-15.9383	14.9557	-13.1081	6.5045	-6.9102
4904.0000	-2.3643	-2.2401	21.2331	7.9774	0.3716	-2.9063	-1.5750	0.1561	-5.6618	-4.7320	-5.8565	-4.0809	20.1763	-4.1609	-7.3732	1.4956
4912.0000	8.0408	4.5879	64.4264	-5.2235	11.1827	6.5615	3.0042	-0.1271	3.4550	3.8324	8.3586	7.1888	2.9786	2.4854	18.6515	4.3594
4920.0000	8.3117	8.8459	19.7594	-9.6346	11.2767	10.8818	-10.0252	-6.3612	9.9371	10.0486	12.9134	11.1309	-5.5585	7.0152	15.4035	6.1484
4928.0000	8.4428	8.0845	23.7300	-3.0419	7.2147	9.9204	-22.6966	-26.7899	11.2074	11.0900	16.8043	11.6768	10.8740	2.3854	13.4714	2.5546
4936.0000	-5.2752	-6.6776	-5.9520	4.3615	-19.2766	-8.7302	-38.7695	-48.7266	-3.5157	-2.6420	-1.0857	-2.5478	8.5907	-13.9993	11.5103	-9.0579
4944.0000	-2.5480	-3.1583	2.6945	14.6632	-16.4359	-3.4930	-28.8531	-23.0827	-1.2387	-1.2361	1.7496	-0.8234	-1.3190	-9.3872	-1.8712	-2.3235
4952.0000	-3.2241	-2.8568	15.0147	11.9334	-12.9601	-4.1568	-15.8945	4.0341	-4.7896	-4.7044	-5.8623	-3.7062	1.0154	-5.4660	-9.1947	-5.2670
4960.0000	-9.2894	-6.5849	-0.7021	3.2173	-13.0681	-12.4375	-15.4264	2.1917	-12.6719	-10.7893	-20.0152	-9.4478	-6.9363	-6.6053	-16.1177	-9.0247
4968.0000	-2.0688	-1.4727	11.5480	0.7371	-8.8496	-2.9447	-18.5065	-8.6583	-2.5313	-2.2814	-2.7687	-1.4842	1.0267	-4.8168	-12.7736	-3.1153
4976.0000	-7.7292	-6.4292	-8.2928	-5.2472	-18.7411	-7.4476	-24.2173	-8.6633	-6.8283	-7.0258	-9.2285	-8.2883	24.5737	-9.6663	-17.6124	-9.5795
4984.0000	-6.6204	-5.3455	6.9171	-8.2278	-12.3418	-9.6373	-25.7382	-22.1140	-8.0315	-6.7837	-10.8571	-5.9661	7.7749	-9.2554	-20.3487	-7.8637
4992.0000	-1.6745	-3.5303	-1.6171	1.5374	-17.2235	-5.6287	-32.6092	-44.1877	0.8571	0.6188	5.0787	1.3284	-14.1901	-10.6412	-9.2373	-5.6273
5000.0000	-10.8850	-8.0966	-48.3393	6.3895	-26.5778	-12.0780	-37.3122	-32.5381	-6.2335	-6.0944	-8.8475	-8.1797	-1.6954	-13.1432	-28.2931	-9.1954
5008.0000	-4.8190	-3.1565	13.3451	-2.3614	-17.3469	-9.1003	-47.0655	-45.3669	-4.1126	-3.2608	-4.2460	-2.1294	4.7830	-12.3516	-40.8984	-9.6206
5016.0000	8.2804	5.1190	51.5017	-1.8022	-13.6659	5.3958	-50.4883	-49.4771	11.4179	9.7065	21.4062	11.9068	0.1867	-7.5872	-16.4352	-6.7917
5024.0000	7.0489	6.5838	11.9662	1.1112	-12.3020	11.5001	-31.6252	-7.2154	12.7559	10.1761	20.0012	10.1777	-11.5934	-0.0960	-6.4921	3.5642
5032.0000	-8.0228	-9.4745	-23.7825	-6.8913	-37.4450	-9.7883	-34.7256	-19.2146	-4.0323	-6.0402	-2.6241	-6.6576	-21.9372	-14.4119	-24.1213	-10.9304
5040.0000	-11.1993	-11.4708	-20.7610	0.7102	-31.0263	-14.6913	-24.5836	-14.5358	-10.1051	-10.9608	-12.6660	-12.0364	4.2632	-14.7014	-29.5537	-15.9722
5048.0000	9.6903	11.7488	46.2103	8.3616	21.3188	16.0592	9.5554	31.9668	7.5652	7.5802	9.9683	8.7344	17.3069	11.2995	-0.9823	15.7134
5056.0000	15.4577	13.9608	57.1529	-3.6181	19.0651	20.5871	7.7005	24.5063	14.8234	13.5813	21.8067	16.0100	-9.0580	13.1650	18.8217	14.8878
5064.0000	6.9349	7.1473	15.9722	-4.7633	6.5853	8.8601	-2.2734	10.7465	7.8347	7.3961	8.8921	8.5600	-14.7841	7.8194	15.0321	1.9981
5072.0000	-0.3304	2.4176	-12.2598	-0.0947	-2.2766	-0.0238	-21.9006	-15.5221	1.8586	2.9083	0.1289	3.3514	-15.7729	0.3523	0.1672	-0.2837
5080.0000	-3.5928	-0.5224	-18.9820	-2.7060	-9.7083	-5.6281	-31.3057	-29.8308	-0.7340	0.1196	-3.3651	0.1058	-11.8850	-4.4711	-22.6724	-6.6170
5088.0000	5.1678	8.7862	27.0855	-1.8330	17.3860	7.5094	-11.3027	-5.5558	4.3977	5.9651	3.5772	6.8429	19.9947	6.1720	-6.8825	5.7383
5096.0000	-2.6512	-2.8469	14.9128	2.1300	-12.4420	-3.9607	-36.8856	-35.4304	-2.1938	-1.2900	0.0791	-0.6682	18.0958	-10.3731	2.4457	-4.7629
5104.0000	-10.0675	-10.6272	0.3557	11.5483	-37.1429	-16.0901	-48.1627	-33.6452	-9.3453	-9.6472	-10.6078	-9.1535	2.8639	-18.5600	-27.2381	-21.8007
5112.0000	1.0879	3.4823	37.5653	15.9406	-4.8582	1.2356	-17.1955	18.8669	-1.3812	-1.2627	-4.0765	0.5966	5.5391	0.9768	-18.9691	-6.1206
5120.0000	-4.4634	-1.5418	-5.6281	10.8427	-18.7913	-5.8740	-27.1854	5.3179	-3.7536	-3.6541	-8.6770	-2.6174	-23.5397	-3.1744	-18.8217	-10.9128
5128.0000	-8.0487	-3.6307	-21.3563	11.1997	-20.2808	-13.6259	-32.7948	-13.7086	-7.2273	-6.1706	-15.4243	-5.0414	-33.6872	-5.6235	-40.5018	-17.1010
5136.0000	-4.9221	-0.6426	0.0693	10.2395	-5.0628	-9.0691	-27.6884	-20.2545	-6.2270	-3.7895	-12.3656	-2.1523	-11.3270	-3.6815	-24.0043	-8.3556
5144.0000	-6.7868	-4.6076	-11.0376	2.9013	-16.0958	-10.9515	-33.1647	-28.7580	-6.5357	-4.8993	-10.1296	-3.5846	-21.5663	-8.5982	-16.2854	-8.2126
5152.0000	2.3181	3.3197	29.4785	-1.7740	3.2074	1.5290	-10.9364	-3.3928	0.0136	1.0875	0.3318	3.7660	-18.5524	0.8408	-11.6676	5.5749
5160.0000	8.5115	10.0821	59.4887	-1.2365	25.5090	11.4556	6.7776	15.8164	3.1782	5.3074	4.5543	8.8320	-0.3523	9.4460	8.9535	17.9960
5168.0000	13.3332	16.1260	44.7935	-2.3069	30.8166	17.8647	6.0036	18.1727	11.5073	12.9426	12.8710	15.9016	-15.1239	16.7859	14.7551	17.8217
5176.0000	9.6790	11.2180	6.3943	-4.4088	14.4405	15.0405	1.5969	10.9215	12.8780	11.9673	16.0029	11.8445	-8.2297	11.2428	4.6345	11.1749
5184.0000	2.3197	3.3807	2.9176	3.1492	4.4299	6.1570	2.8362	11.5181	3.3529	2.6594	4.8328	1.7260	13.5803	2.8393	-7.5032	6.4747
5192.0000	16.5498	18.1723	40.1036	4.3808	31.8219	22.9721	11.1244	20.6370	17.1691	17.0212	21.9522	18.4227	-1.4732	18.2588	16.4644	18.4497
5200.0000	9.0465	10.4090	-20.4297	0.4859	13.0483	15.2055	0.4369	0.2632	15.3524	14.0796	19.3088	12.0122	1.4404	10.4726	18.2664	8.9523
5208.0000	-7.0106	-5.5763	-32.6306	9.3715	-5.5268	-6.8040	5.3044	-0.1221	-5.8551	-6.0942	-8.7352	-9.0569	28.6451	-4.7683	-18.3917	-5.1137
5216.0000	-2.0687	-1.9423	9.2327	7.4065	11.1243	-2.2043	18.2998	7.3827	-6.1706	-4.6068	-7.4203	-4.4368	19.3077	-0.1644	5.3842	6.2524
5224.0000	-12.0555	-11.5545	-52.5263	0.7018	-9.9163	-11.8291	10.9629	0.1796	-12.4622	-11.1167	-16.4242	-13.0189	-3.7982	-7.8548	11.7630	3.2836
5232.0000	-2.2346	-0.5899	-22.9015	0.4458	4.9551	0.0303	24.6361	27.1761	-2.5923	-2.9009	-5.3030	-3.9510	-11.9346	4.2902	-17.4337	8.0990
5240.0000	16.5003	17.6559	13.9224	-8.6186	30.9178	22.4394	16.5163	11.0874	20.3370	19.0170	25.8585	18.8547	-8.9126	18.7989	2.8460	17.0985
5248.0000	2.1761	3.8421	-31.3859	-2.2266	7.3492	4.6424	-3.3061	-16.9800	7.0567	6.8470	8.0928	4.4274	11.1921	3.3237	3.8179	2.3810
5256.0000	-0.3105	-1.3791	3.4896	6.9603	3.6268	1.7209	17.6990	17.0404	-1.7184	-2.2210	-0.4434	-3.1661	19.3728	0.1948	4.1327	4.8517
5264.0000	-5.3852	-7.8749	-26.2373	-1.1425	-12.4037	-3.6883	6.0542	0.0887	-3.9930	-5.0083	-1.5627	-7.0829	10.0495	-7.3776	13.0449	2.0599
5272.0000	-16.7875	-16.2278	-58.0628	4.3410	-26.5979	-21.2370	-10.3040	-22.0340	-15.7428	-15.2265	-21.3274	-17.9517	9.6968	-16.2950	-20.6860	-14.6635
5280.0000	-1.3207	-1.5522	0.7016	7.6751	0.1660	-3.2542	11.1971	10.1321	-2.7964	-3.0559	-4.7152	-3.2239	3.9814	0.3202	-10.0524	-5.1249
5288.0000	3.8268	3.4017	-12.5883	1.3372	7.3943	4.0705	9.3524	0.2933	5.8077	5.3521	6.5257	4.6689	-6.0127	5.4958	14.3663	-0.3246
5296.0000	-3.4078	-3.0719	-7.7100	4.7822	3.3073	-8.6053	4.0958	-14.7250	-5.5660	-3.8497	-9.2617	-3.1705	-5.7158	-1.7020	-0.4982	-6.6454
5304.0000	-7.0181	-8.1631	-6.4699	3.7560	-8.1758	-11.8882	-1.0487	-13.6266	-9.8456	-8.4140	-12.4166	-7.6813	-4.0837	-7.8575	4.9610	-6.6824
5312.0000	-10.0694	-10.8949	-45.4931	3.7865	-21.0524	-14.4969	-13.4742	-29.1243	-7.7548	-7.6119	-9.7363	-9.2682	-5.4338	-12.0080	-3.5804	-12.1791
5320.0000	-2.7979	-4.8499	-12.9241	5.8542	-10.5421	-8.8489	-2.4417	-20.5693	-1.8999	-2.7070	-1.8248	-3.0628	-7.9462	-5.8312	-16.9915	-12.9927
5328.0000	-1.3090	-2.1774	-22.6737	1.2643	-5.9691	-2.6406	0.1882	-9.4389	1.2411	0.2827	1.7747	-1.0959	-2.0731	-2.0170	-3.8045	-5.5339
5336.0000	-0.9614	1.2178	-48.6831	1.8624	1.2540	0.1004	-5.1833	-20.5932	4.6158	4.4275	4.1600	1.6975	-0.5881	1.0128	-5.9141	-0.1489
5344.0000	1.8054	0.0258	-18.6088	3.9222	-2.0714	-1.3098	1.6657	-20.3787	5.0516	3.7252	7.6774	2.5857	-7.3089	-0.8628	-9.9999	-5.9882
5352.0000	-2.7342	-6.1936	-2.4586	5.3421	-9.7179	-5.2845	14.9868	9.7589	-3.7652	-5.3325	-2.8353	-6.0769	5.5903	-4.3894	-1.7374	-7.7875
5360.0000	2.6277	1.3315	15.5616	1.3961	9.8754	4.5296	26.6920	30.1678	-0.1653	-0.5801	0.2629	-0.3623	6.4697	5.3342	11.3482	5.9118
5368.0000	-1.2008	-3.2687	-21.7194	-4.5143	-8.0248	-1.9578	6.3220	0.9709	0.9378	-0.4607	1.6902	-1.6558	-8.1199	-1.3200	7.7392	-5.3537
5376.0000	-8.0866	-9.5963	-41.9111	5.2908	-22.1874	-11.2808	-2.6616	-6.5369	-5.1368	-6.8440	-7.3002	-9.5722	7.0984	-8.5836	-8.6820	-17.8719
5384.0000	7.0709	4.8485	23.5397	6.7655	10.6556	7.1594	16.0612	11.3820	6.1220	5.2004	9.5930	5.8333	2.0509	5.8247	10.4031	2.5944
5392.0000	6.2853	3.0662	5.6157	-1.1146	1.9144	5.0902	3.5800	-7.7088	7.8257	6.8175	12.7505	7.8029	-26.0220	2.9131	19.8673	1.9673
5400.0000	1.8727	1.9348	-22.3938	6.6044	-2.7265	1.1943	-0.0854	-1.5506	5.3709	4.1740	5.3001	3.1003	-12.8282	2.9397	-0.7217	-6.1505
5408.0000	11.6591	10.4158	11.0708	5.5433	10.2498	13.6876	10.7696	12.9007	15.3950	12.5296	20.2259	11.7637	-1.7267	10.7819	-4.6720	-0.0971
5416.0000	0.2639	-5.3322	-9.6597	-2.3133	-22.9862	-3.8900	-5.2430	-14.0790	4.1081	0.4084	9.5936	-0.6279	-12.6012	-7.4134	-10.4500	-14.7567
5424.0000	-9.2390	-10.6705	-28.8552	2.4547	-24.3505	-14.7787	-5.8443	-5.8387	-8.6578	-9.5761	-12.5196	-10.4396	-10.8518	-9.5494	-14.0375	-19.0663
5432.0000	-5.0835	-0.9525	-31.9396	0.5430	-3.0837	-4.9092	4.8696	23.5343	-4.3190	-4.1596	-13.1157	-5.4599	-5.4625	4.1909	-16.1537	-9.8552
5440.0000	-12.2950	-8.7445	-50.7208	-2.2525	-18.3917	-11.5630	2.5499	26.4603	-11.0423	-11.6237	-20.7296	-14.5436	7.4482	-3.6519	-24.4985	-13.7069
5448.0000	-11.2719	-7.8669	-29.6661	3.3243	-11.3695	-10.6326	9.0050	33.2912	-13.2611	-12.7631	-22.8038	-14.2311	7.4417	-2.5462	-17.5493	-7.9693
5456.0000	3.9536	4.6793	7.7187	1.0443	7.2098	5.7674	21.9191	38.7080	3.2028	1.8389	1.2788	1.9185	-9.4336	9.3707	-12.2715	0.8486
5464.0000	11.3636	8.2080	12.3721	0.2255	10.2177	16.5234	27.6081	33.4428	13.9417	10.4447	20.9642	9.4485	-2.7595	10.9599	10.2574	9.3060
5472.0000	10.5617	11.7096	8.2338	9.9150	28.1127	17.9083	29.0128	34.6574	10.5957	10.7965	13.1934	10.8129	-3.3435	16.1404	34.6335	20.8691
5480.0000	14.3609	16.7116	34.2660	13.8485	42.7838	19.5146	39.8206	45.2644	10.9032	12.2436	10.7829	14.2497	-10.2429	23.1155	28.3094	20.6655
5488.0000	15.6319	14.0274	21.3768	10.7789	28.8608	21.6563	32.5237	30.9289	16.8885	15.3868	23.2319	15.1387	4.1451	17.5696	36.6924	15.2025
5496.0000	2.7048	1.7970	-31.4974	11.9197	-0.8889	4.1929	1.6285	-6.6899	7.7456	6.3373	10.3518	3.8868	5.0419	2.2055	20.7055	-3.1834
5504.0000	-4.6082	-7.1140	-10.9261	12.7808	-14.5575	-8.9466	4.9660	-0.1328	-4.6355	-6.1150	-5.3959	-7.3637	10.9273	-6.5585	-10.3152	-15.6980
5512.0000	-3.4085	-6.0645	-2.0185	6.2591	-8.3894	-2.1318	14.2908	17.7028	-4.4767	-5.7986	-2.8566	-7.2134	21.3004	-4.7089	6.9474	-0.8484
5520.0000	-3.3538	-2.9162	-20.6387	2.7370	-2.5286	-2.6383	-0.9326	-6.5369	-2.2295	-1.9280	-2.8578	-3.3603	11.8538	-2.8448	6.0037	-0.3753
5528.0000	3.7145	2.7273	9.4308	8.3941	5.7365	1.7497	0.8615	-11.2007	4.2872	3.8710	5.9920	3.5078	16.3675	1.4114	0.6243	-5.8994
5536.0000	-1.5079	-0.2045	-22.7860	6.8925	-1.5938	1.7506	1.2809	8.0607	0.7238	0.3172	0.0923	-1.6239	11.9792	0.6650	5.5711	1.5102
5544.0000	-14.5355	-12.0206	-49.1578	-2.0772	-21.6956	-15.2277	-8.7718	-0.4934	-13.8620	-13.2897	-20.6667	-15.4151	2.4222	-10.6706	-21.4993	-7.7140
5552.0000	-5.3730	-6.9149	6.1816	1.2115	-8.2258	-10.0042	-1.3003	-10.8544	-7.9517	-7.5754	-9.5045	-7.3625	13.6094	-7.6964	-9.3915	-10.2065
5560.0000	5.7070	5.7810	14.0740	5.5313	15.2087	6.6580	10.1480	5.1720	4.7014	5.3918	5.9418	6.3100	-3.2138	6.8873	17.1112	6.8406
5568.0000	2.4965	1.8277	-5.4591	-1.7559	1.7610	3.7241	2.1543	-3.1769	4.1584	3.5613	7.0072	3.3598	-10.7234	1.3756	0.9946	6.0048
5576.0000	-3.9542	-8.1326	-9.3725	-1.9495	-16.8380	-7.2717	-15.4432	-41.0495	-1.8012	-2.8460	4.0636	-4.1085	15.6659	-13.7564	-3.0557	-5.8477
5584.0000	-3.7425	-6.8296	3.9085	0.6663	-6.9882	-8.1062	-4.9431	-29.1579	-5.1936	-4.6501	-2.5582	-4.3405	8.5279	-9.8184	3.2238	-3.5336
5592.0000	0.9110	-3.6306	11.8871	-4.6149	-3.6796	-0.7870	13.5629	1.3265	-0.3242	-1.6043	3.8287	-1.3667	-0.0606	-3.1092	9.0871	-0.3815
5600.0000	-2.4916	-6.4954	-13.9908	-1.1907	-9.7887	-2.6217	11.8221	-0.4855	-1.3116	-3.1970	2.3671	-5.2198	16.5560	-5.9515	8.1404	-3.0614
5608.0000	-1.2176	-1.2703	6.3574	2.3089	8.4819	-1.0652	17.0362	9.3076	-4.1922	-3.3499	-4.9470	-3.2383	10.3138	0.6175	-0.3808	5.8191
5616.0000	-1.4269	-1.7836	0.4303	-5.6091	3.5635	-0.9475	7.1540	0.4629	-3.0481	-2.2039	-2.8923	-1.8208	-2.0305	-0.8627	7.2620	6.6342
5624.0000	-13.4554	-14.0878	-41.4511	-2.9945	-24.3305	-16.6815	-15.1134	-25.0311	-12.7370	-12.0304	-15.4720	-13.5411	2.2459	-15.3339	-2.4111	-9.0944
5632.0000	-6.6068	-6.1755	-3.2430	6.7083	-8.9852	-9.5771	-8.1422	-10.3574	-8.7593	-7.5213	-11.1134	-6.9038	-1.9045	-7.5516	-10.3939	-3.2736
5640.0000	4.5692	5.8196	-6.9005	4.7514	7.6222	7.2079	2.9071	6.4833	6.6824	6.3717	7.7726	6.1526	-12.1946	6.4686	3.6096	6.6372
5648.0000	-1.7932	0.3080	-33.9621	2.7852	0.3688	-1.5021	4.6528	5.0474	0.6163	0.5415	-3.1064	-0.9502	-7.9194	3.3744	-2.4746	-3.9448
5656.0000	-6.9143	-5.7105	-9.8393	7.0346	-3.3172	-12.4511	-3.0413	-13.2026	-9.6320	-7.6199	-15.4416	-7.0190	-0.7109	-4.7982	-5.9101	-10.5958
5664.0000	-7.2204	-6.2595	-17.2457	5.8314	-6.7361	-12.2358	-6.3317	-17.8898	-8.7611	-7.0612	-13.1771	-6.6288	-9.3124	-6.2221	-8.9070	-7.7035
5672.0000	3.9418	6.5400	1.9873	3.0491	14.6981	4.5805	12.0254	14.8009	3.2360	3.9194	0.6978	4.8230	-19.2554	9.3787	-9.9700	5.9284
5680.0000	11.3288	14.8685	18.3728	6.6173	32.5588	14.5502	8.4818	6.4462	11.0599	12.9639	10.9317	14.5339	-10.0865	16.3321	18.1682	14.1916
5688.0000	3.9952	4.9790	15.7939	5.0509	17.7566	4.3143	4.9098	-2.8124	1.8483	3.8910	1.2786	5.1068	5.7152	5.7374	26.1251	5.5947
5696.0000	9.4272	7.8416	57.1967	2.2218	22.0798	12.5076	26.2029	36.5619	4.1722	4.3821	6.8143	6.7178	9.7759	10.5881	24.6919	11.9425
5704.0000	11.5482	12.5207	43.0025	9.7538	29.0664	18.0410	21.2110	36.2878	8.3871	9.3828	10.9123	11.3101	3.5726	15.0715	35.9353	20.0697
5712.0000	3.6450	5.3127	7.9839	4.6178	15.4752	7.5483	13.6159	22.2087	1.9783	3.1364	1.1330	3.8588	-3.6793	8.2349	21.6299	12.0527
5720.0000	4.0302	3.2969	-7.0366	-7.8108	3.6863	8.5712	10.1275	12.3430	6.9199	5.0377	10.5177	3.3529	7.5602	4.1416	0.4270	7.0701
5728.0000	-3.2116	-3.2533	-34.1456	-2.1787	-12.8593	0.1428	-8.5025	-8.1001	2.2158	0.0080	4.6927	-3.7827	26.7609	-5.5248	-15.3440	-2.5161
5736.0000	-4.8558	-4.5042	-2.3977	-3.6580	-8.4453	-3.5104	-0.5383	10.5922	-5.4532	-6.0176	-7.0397	-7.2393	22.9796	-4.4574	-12.9544	-3.3019
5744.0000	7.2026	6.6750	35.4373	-11.1055	19.2788	10.5993	9.7099	5.5941	5.1031	5.7233	8.8469	6.9237	12.6656	6.2531	14.4268	14.1884
5752.0000	7.4972	6.4930	39.5484	-5.9570	21.1987	8.4763	4.4927	-12.6209	4.4715	6.2953	9.4836	8.9180	-4.2990	4.2920	18.8788	17.7578
5760.0000	-0.6772	-0.2998	12.1504	-11.7291	4.9890	1.1308	10.5932	19.4310	-4.0522	-2.9064	-5.4343	-1.1051	-19.4916	2.4886	9.0100	11.0344
5768.0000	-8.0968	-5.5495	-27.6171	-21.2044	-4.1238	-3.4879	4.3673	17.2431	-8.4987	-7.6049	-13.1766	-9.0653	7.7067	-2.0751	1.9271	6.7565
5776.0000	-5.4834	-5.9537	20.1704	-17.8284	-4.9695	-4.4715	-1.7729	5.6630	-9.4667	-8.5457	-10.4175	-7.7829	17.9456	-6.5283	-2.3484	3.8312
5784.0000	4.4116	3.1257	35.4126	-11.7364	2.7355	6.4066	2.0549	19.3368	1.9129	1.7750	3.7589	4.1456	-14.9578	3.7025	14.4666	6.8821
5792.0000	2.1151	3.4839	-2.4992	-5.7560	3.7811	2.4353	-8.4052	-4.4845	2.9908	3.8448	1.6401	4.7489	-17.1566	3.9048	13.4100	0.6155
5800.0000	1.9120	-0.6318	41.9413	-8.3468	-1.9817	-2.1952	-4.3516	-3.2804	-1.6812	-1.6353	-1.0647	0.8102	0.3344	-1.8893	1.2443	-8.1893
5808.0000	9.8594	6.9106	45.9617	-11.3199	10.3022	12.3512	10.1656	20.0868	8.7049	7.1508	13.2381	8.2380	13.5544	7.5306	21.7805	1.8065
5816.0000	7.9671	9.9389	20.2180	-7.7616	26.5571	11.9744	1.8015	-5.4670	7.8159	9.4924	8.9745	9.6658	26.8458	9.6523	27.6734	10.0635
5824.0000	2.1644	3.2683	37.7696	-15.3010	15.2933	1.8948	-6.1493	-11.8400	-1.8820	0.6553	-2.6878	2.8487	15.9051	1.6368	9.5117	5.5132
5832.0000	-5.0070	-3.5885	-11.3776	-21.3809	-6.6180	-3.4689	-7.5153	3.3230	-4.9225	-4.4693	-8.4378	-4.9574	4.3829	-2.3855	0.1278	-2.0745
5840.0000	-14.9597	-11.2229	-48.3663	-17.5077	-17.3629	-17.2139	-16.8238	-14.6965	-14.4493	-12.7501	-23.9438	-14.5137	6.8584	-9.8152	-19.6151	-12.6926
5848.0000	-13.6327	-12.9151	3.7033	-18.8483	-20.0426	-20.9452	-20.2725	-21.9553	-18.2762	-16.2694	-25.2528	-14.6324	-1.9081	-14.6715	-34.3411	-14.4532
5856.0000	-3.8923	-4.5113	25.8385	-19.8289	-11.3712	-7.3510	-17.5827	-12.4862	-6.7391	-6.2106	-7.7666	-4.0235	-8.3898	-7.4550	-23.0251	-4.8466
5864.0000	-0.5093	2.9336	-4.2759	-20.3213	3.0408	0.3344	-13.4569	-7.3406	0.6227	1.3926	-2.7724	1.5714	-4.5647	2.4049	-20.7115	0.0287
5872.0000	-3.5898	0.8125	3.6889	-27.7529	5.6727	-4.1691	-5.0694	5.6926	-6.0495	-4.0905	-13.9130	-2.7571	-9.2909	3.2255	-24.5936	-1.2688
5880.0000	-8.1411	-6.1061	17.7077	-30.1448	-5.9801	-12.5439	-14.2089	-6.5656	-13.6891	-10.8133	-21.3650	-7.6340	-18.8005	-5.3227	-15.0287	-5.2996
5888.0000	-12.8666	-9.9460	-26.7870	-21.1220	-18.6254	-17.0331	-29.0001	-28.1664	-13.5324	-11.2100	-20.9499	-10.6217	-15.2395	-11.3572	-20.6021	-9.6849
5896.0000	-13.3919	-11.1427	-5.5390	-18.0258	-16.4380	-17.1798	-13.8285	-4.1351	-17.6856	-15.5237	-25.8039	-14.2571	-7.1068	-10.7080	-26.8356	-7.4934
5904.0000	-6.3637	-6.2368	53.4659	-22.9798	1.5492	-11.4625	-0.8270	5.3051	-16.9380	-13.1760	-22.9398	-7.9265	-16.3072	-5.0477	-2.6846	1.4793
5912.0000	-1.4382	1.8075	5.6939	-15.4440	16.5957	-4.2735	-4.4428	-19.7650	-5.4117	-1.0061	-10.6872	2.1359	-28.2662	3.1085	10.7743	7.9624
5920.0000	-4.3613	-1.4202	6.9004	-5.5341	14.9750	-7.6270	4.2539	-9.9951	-10.1137	-5.7221	-16.5785	-3.1986	-10.7597	0.8000	7.4952	5.3992
5928.0000	-5.0065	-6.1255	70.5192	-4.7828	7.9495	-9.3231	4.8258	6.3116	-17.4795	-13.1995	-21.3510	-8.3181	17.6626	-6.0241	20.3336	2.6146
5936.0000	-2.4727	-1.6293	29.6692	2.8248	5.3091	-2.3603	-2.4759	7.5637	-8.1945	-5.3821	-11.0340	-3.0366	9.1865	-1.3624	25.9297	4.2058
5944.0000	2.3934	4.4551	4.3610	9.4104	8.2186	4.2687	6.2704	21.9284	1.0274	2.0328	-1.5898	3.2970	-18.6078	7.2789	14.4757	5.4818
5952.0000	8.3953	6.6561	45.7327	6.6008	9.2820	6.7344	3.4419	7.5877	5.6507	5.6224	8.6601	8.7755	-20.1780	5.8625	7.2988	3.0243
5960.0000	-2.7853	-6.3140	18.8136	6.4264	-16.2843	-9.1973	-17.5367	-26.4408	-4.5854	-4.5183	-2.2375	-2.6080	-10.6167	-10.6581	-0.8436	-10.3693
5968.0000	-16.8103	-18.1198	-32.8175	9.2690	-38.9636	-24.0335	-30.2712	-33.5183	-17.1383	-16.5367	-20.5385	-16.9396	-6.7884	-22.1471	-17.2196	-18.5871
5976.0000	-5.8731	-5.5070	-7.0669	13.8271	-15.0454	-11.3260	-26.8672	-37.1188	-5.4914	-4.6462	-5.9505	-4.2181	-3.5446	-11.1685	-24.4963	-9.2911
5984.0000	7.5723	7.1137	47.0412	13.7886	11.0365	2.2481	-12.5493	-23.4809	5.0820	6.2653	7.3477	9.6515	-11.1571	2.5752	-7.4795	-2.7684
5992.0000	8.9534	8.7319	49.3415	4.6369	9.9103	7.4436	-8.7628	0.3360	6.8058	7.2621	8.8126	10.6766	-17.4553	6.3940	3.6456	1.1707
6000.0000	9.3235	8.4868	27.5137	2.0626	4.9851	10.3191	-14.3995	-13.7817	11.6659	10.5516	17.9338	11.6230	-6.4332	3.5191	-5.8262	4.5769
6008.0000	8.3979	5.7366	27.7536	6.7244	4.1496	9.1656	-2.9302	-7.8866	9.7256	8.2110	17.2284	8.8431	1.4042	1.8126	1.5076	5.0721
6016.0000	7.9678	7.9410	28.5325	5.6315	10.9084	13.1087	7.7696	25.8156	7.4892	6.7812	11.1098	7.6697	-0.3819	8.0619	12.4019	12.3235
6024.0000	8.2325	10.8697	21.3486	5.4041	16.6608	13.5040	-0.5158	16.3837	8.5824	8.9968	9.9567	9.9101	-1.6049	10.4332	7.7369	12.7790
6032.0000	9.9133	11.2913	19.3732	8.0819	17.4436	13.7101	-0.1686	6.9827	10.9888	11.2499	13.8496	12.2507	-6.4889	10.5730	17.0651	10.7694
6040.0000	10.1020	11.3345	3.1745	5.9422	17.3110	16.7362	9.0932	18.3796	13.0289	12.2307	16.7582	11.6949	-2.7891	12.3291	19.0678	14.1910
6048.0000	6.2574	7.9205	-15.2423	8.0633	12.1116	11.7566	11.1409	15.6409	10.1895	8.8370	12.1468	6.6485	10.4490	9.3272	1.6772	7.5898
6056.0000	9.9116	8.8396	10.3091	11.8446	12.2892	13.8850	17.0428	20.9403	12.2533	10.0604	17.2205	9.1165	5.9975	9.7976	5.7884	6.6292
6064.0000	10.8110	8.1128	14.8515	6.2267	12.9924	14.2345	19.7413	16.6654	12.5432	10.5276	19.2679	10.3431	-4.1474	9.2638	18.9025	9.6717
6072.0000	4.5940	4.7671	-42.7492	7.1793	6.3476	7.6744	11.8681	-0.1870	10.8428	9.0986	13.4191	6.1061	-4.7614	6.8988	9.4111	3.1400
6080.0000	5.6662	6.0039	-45.4375	13.3707	-0.4196	9.3542	5.5057	2.1914	14.2410	10.8801	18.1371	7.0102	-2.5156	6.3940	-10.7991	-0.4258
6088.0000	1.9838	-0.0790	-12.6140	10.0865	-7.4643	1.3630	-2.2299	-11.1867	6.0176	3.5733	10.3202	1.4869	11.9213	-2.4875	-12.5945	-6.4839
6096.0000	-1.9088	-2.7506	-28.8270	10.9807	-4.6528	-3.1588	-2.7533	-20.1229	1.3783	0.7257	2.6078	-1.7250	18.7186	-3.9331	4.3974	-7.3082
6104.0000	3.8902	3.3623	-21.9846	13.8916	-0.3668	6.4595	9.6384	12.9543	8.1059	5.8642	10.5118	3.7158	-0.5808	4.7857	3.0226	-0.5702
6112.0000	3.2288	2.8198	-3.1070	8.7125	-2.1963	5.0399	11.3635	27.4466	4.6301	2.6632	5.1993	2.2172	-13.4135	5.2910	-4.3778	-0.5637
6120.0000	4.1729	4.8223	3.8209	7.0895	6.7599	7.3144	5.4390	14.9578	4.9065	4.5393	6.0101	4.4271	-0.8838	5.7076	9.9830	5.7544
6128.0000	9.9733	7.0863	32.7835	7.1506	6.3505	13.0525	6.0070	11.7197	10.8882	8.8187	18.4717	9.2836	4.6925	5.0984	10.6368	7.3591
6136.0000	0.5524	-3.0250	-11.3232	4.0335	-17.9333	0.5916	-3.4638	-1.3853	4.2035	1.1348	9.7640	0.0002	-12.3666	-5.0239	-8.0140	-3.0801
6144.0000	-14.8052	-13.7595	-81.0508	4.3885	-33.7656	-13.5205	-16.8313	-14.3638	-8.5069	-10.0509	-10.4079	-14.7280	3.5352	-15.0541	-23.3650	-7.1648
6152.0000	-10.0224	-9.0038	-31.8856	6.3949	-18.3135	-9.7498	-6.2277	-1.1854	-8.3674	-9.3589	-10.9169	-12.5424	31.6435	-10.1204	-29.3363	-8.9109
6160.0000	4.9106	3.5551	14.4502	2.7723	1.0259	4.4016	5.4714	9.7335	5.5929	3.8929	7.5313	4.0200	-1.5761	3.7260	-8.4344	-4.1068
6168.0000	2.3835	2.0263	-14.3608	-4.4569	-5.3124	4.9634	-6.9417	0.8378	5.9302	4.8008	8.3196	4.3682	-19.1850	1.7362	10.5597	3.1754
6176.0000	-1.3915	-0.3323	-14.0146	-3.3519	-4.6859	1.7134	-11.2097	-5.3138	0.8992	0.8251	1.9786	-0.0928	2.0134	-2.0813	1.3955	5.1330
6184.0000	7.0782	6.8696	1.3886	-0.9777	6.7249	10.5774	1.7563	3.3572	10.0714	8.8283	14.5990	8.6308	-12.4707	6.0390	1.7639	9.7059
6192.0000	4.0541	0.4223	4.3683	-8.9542	-5.5058	5.7066	7.9072	10.0615	6.0153	3.4763	11.2521	3.0542	-8.4470	0.8632	7.6660	1.7414
6200.0000	-6.8993	-11.5058	-12.8030	-8.8213	-22.0189	-9.6796	2.9245	-5.1814	-6.4403	-8.5836	-4.6168	-10.3737	16.9203	-11.6404	-4.1826	-12.4630
6208.0000	-11.5163	-11.9116	-62.9181	3.2038	-26.8285	-13.6347	-10.7724	-18.9272	-6.7612	-8.1906	-8.8017	-11.9535	7.3855	-12.4210	-17.1766	-14.3160
6216.0000	-6.3406	-4.7144	-35.2110	8.5120	-16.3671	-7.1856	-12.8830	-5.3957	-3.0399	-3.9713	-6.1851	-6.2797	7.7399	-5.4391	-20.6890	-12.1998
6224.0000	4.3249	2.7561	26.4314	5.5543	1.2962	2.9055	-0.0821	2.2423	3.7045	2.6614	5.7842	3.2215	10.7311	1.3412	-4.6072	-5.8038
6232.0000	0.7510	-1.2233	-13.6707	0.9579	-4.0792	0.4639	3.1650	-3.2257	2.6354	1.7404	4.6212	1.0565	-7.1505	-0.4602	16.1266	-2.1183
6240.0000	-2.6017	-4.3380	-27.3668	1.3054	-9.3432	-2.0745	10.7044	11.0044	-0.7971	-2.1672	-0.5554	-3.6519	-8.6456	-1.4349	10.6340	-2.6509
6248.0000	1.7641	-0.8965	-2.8230	2.0139	-3.4041	2.9402	17.1107	19.5191	2.6277	0.4342	5.2031	-0.6571	1.7754	1.3683	3.2334	-0.7750
6256.0000	-6.9631	-6.2480	-40.3836	-0.9778	-8.6230	-7.5449	0.0192	-6.0723	-5.1442	-4.9518	-8.4829	-7.0633	6.0563	-4.3206	3.8684	-6.5149
6264.0000	-6.9971	-6.1974	-29.4543	3.3962	-4.9268	-10.6039	-2.5798	-21.4003	-6.8847	-5.6649	-9.9647	-6.5499	-0.0186	-6.1318	-8.9910	-5.2841
6272.0000	-0.2360	-1.9668	2.4403	2.6671	0.3298	-1.7520	9.9268	-4.1101	-1.0417	-1.5164	1.3708	-1.5283	-2.0377	-2.4365	-13.1126	3.2358
6280.0000	-10.7217	-9.1404	-22.5926	-7.7334	-10.3712	-11.1713	0.0200	4.4106	-12.5559	-11.4349	-18.2432	-12.4370	11.3538	-7.1476	-8.9124	-3.9424
6288.0000	-10.9296	-7.0193	-22.0314	-4.8166	-5.2613	-12.2603	-4.8476	1.0867	-13.3737	-11.0796	-22.1010	-11.5621	9.9038	-4.9751	-15.2192	-5.5768
6296.0000	-1.9387	0.7046	-13.5861	0.6179	6.1044	-1.8308	0.9460	-3.2112	-1.9661	-0.7875	-5.1556	-1.2406	2.3790	1.5939	-9.1823	1.5836
6304.0000	-3.4677	-3.0623	-14.6127	-1.6288	-3.6904	-5.3405	-8.7057	-19.5197	-2.8229	-2.0167	-3.8993	-2.4117	1.6331	-4.2174	-0.7885	-3.3760
6312.0000	1.7826	2.2644	-11.1885	0.3215	0.6297	1.5063	-5.4913	-10.5308	4.1701	3.8806	4.8737	3.5135	-8.9383	1.4731	-3.2127	-0.7827
6320.0000	8.0105	10.0366	-18.7678	0.3338	13.3033	12.3335	5.7602	6.5200	13.3196	11.8853	14.8690	9.9583	-0.5546	11.3196	-1.6243	4.4735
6328.0000	2.9968	-0.5025	2.7384	0.6205	-7.4176	1.8948	-3.5001	-14.9250	6.1179	3.5419	11.8554	1.9936	18.2659	-3.6680	-7.7295	-7.2911
6336.0000	-3.9944	-9.4269	10.7138	5.7743	-19.3266	-8.2554	-4.8879	-18.3135	-4.8877	-6.3995	0.1880	-6.6102	13.7014	-13.2791	-3.3541	-8.6352
6344.0000	-6.6290	-6.1824	-6.9869	7.9431	-1.1536	-7.2150	4.4279	1.1006	-10.0813	-7.8984	-12.8790	-7.4281	3.1181	-4.8726	17.3071	3.7997
6352.0000	4.3209	4.2892	12.1677	7.8683	13.0587	5.2456	10.8607	6.9483	2.7125	3.6589	3.8546	4.8639	-9.4927	5.5433	18.5106	8.9190
6360.0000	12.7769	10.6236	11.5143	2.7295	14.2908	15.6984	10.7934	3.2037	16.4252	14.3014	23.7207	13.9715	-6.4195	10.3011	14.7530	7.5773
6368.0000	3.8698	0.7097	0.2254	-3.4067	-2.5648	5.2791	-0.7451	-10.9765	6.9676	5.0002	13.2825	3.5729	14.9566	-1.5982	9.5753	0.4395
6376.0000	1.9229	-1.1537	12.0365	-3.6084	-4.0794	3.1675	6.2081	5.0470	2.3632	0.4945	7.0747	-0.2055	13.9271	-2.2187	-0.4841	1.2949
6384.0000	-4.8375	-2.4177	-37.7123	-5.6150	-4.1734	-2.0574	-0.2499	3.0095	-2.1404	-2.2606	-4.8290	-4.5212	4.0258	-0.9095	-9.9494	1.7454
6392.0000	-21.3544	-19.1246	-75.2587	-4.8040	-36.7943	-26.5145	-33.0615	-47.2676	-18.3083	-17.2099	-24.4792	-20.0914	-0.5717	-22.7564	-41.6667	-14.4244
6400.0000	-6.4788	-7.2398	-2.4312	-0.5716	-14.6323	-10.8493	-9.9560	-18.6876	-7.3198	-7.5538	-7.5525	-7.4652	-1.4563	-10.3960	-38.0359	-6.1620
6408.0000	10.2996	12.7313	29.7159	-2.8641	29.3505	16.1416	20.4912	31.0484	8.7214	9.2567	9.1470	10.1186	7.2966	15.7434	9.7345	15.8731
6416.0000	1.4907	3.6117	-8.3084	-2.4270	9.1144	4.0922	4.8214	8.5752	2.0936	2.6976	0.3783	2.3248	-0.6146	5.5394	6.1296	5.1842
6424.0000	2.6143	1.0669	12.3980	3.2234	-2.4909	-0.7847	3.1125	3.2504	2.3333	1.1734	2.4813	1.9125	-9.6392	1.5232	-10.2420	-9.3743
6432.0000	1.3719	1.7722	2.7687	7.9019	-0.4860	-0.4721	2.9459	12.5914	1.1208	0.6859	-1.6918	1.0508	-6.5135	3.8727	-0.3914	-9.6555
6440.0000	-1.6806	2.8771	-43.9536	13.0290	4.2519	-1.0774	6.9618	15.5182	0.9904	1.3939	-6.1211	-0.1838	-15.4621	7.7977	-6.4636	-5.2143
6448.0000	10.0696	10.7203	-1.7589	8.7413	17.1401	10.4069	20.1201	18.1023	12.6105	11.0192	12.7485	10.5072	-11.9780	14.5092	-3.9849	-2.2162
6456.0000	5.5982	0.6497	20.3291	-1.0719	-4.1706	2.9241	5.0355	-5.5157	6.7455	4.0776	12.5730	3.9386	6.9591	-0.8252	0.4926	-8.7639
6464.0000	-2.0579	-3.6606	4.1744	1.6521	-2.6766	-5.4089	-0.5464	-15.6285	-2.8762	-2.9349	-2.4500	-3.4484	21.0443	-5.0620	-5.3956	-8.2315
6472.0000	-0.3331	0.4579	13.0894	5.7373	8.3044	-3.3127	-0.5555	-11.1248	-2.6556	-1.1866	-5.1280	-0.8026	22.3303	0.0171	0.8907	-6.6204
6480.0000	-5.4659	-4.0060	-13.6386	-0.1231	-8.9775	-7.1478	-7.2992	1.6199	-5.8310	-5.2904	-10.5887	-5.4649	-2.1363	-2.9107	-5.2314	-9.0135
6488.0000	-4.1243	-0.1684	-7.8262	-7.2614	3.2718	-4.0590	5.1343	21.8481	-6.4045	-4.9686	-14.5675	-4.3815	-10.1341	4.2531	-12.4524	-2.4507
6496.0000	-10.9132	-9.0227	-4.2009	-9.8947	-7.5139	-13.4651	-4.9493	-1.7385	-15.1664	-12.8795	-22.2660	-12.4546	13.0345	-7.8212	-9.0410	-6.2512
6504.0000	-14.6251	-14.2756	-31.2979	-4.9122	-21.4952	-16.7721	-10.6944	-14.6576	-15.6912	-14.7292	-19.6885	-16.2420	15.3685	-15.2082	-14.7852	-6.6761
6512.0000	4.0123	3.1432	22.4600	-2.1881	11.5226	3.9676	18.3669	15.5628	1.4039	1.3314	2.1541	2.4221	-2.6472	5.2521	-1.6505	5.0635
6520.0000	-2.9226	-3.4481	4.7926	-5.4743	1.1625	-4.3549	17.0997	21.9851	-6.8470	-6.0279	-10.8437	-4.8396	-11.4910	1.4554	11.8194	-1.5436
6528.0000	-11.9937	-7.1757	-47.3826	-2.1960	-5.0613	-12.1151	4.2079	13.3189	-13.3149	-10.9610	-23.9969	-11.9149	-11.0214	-1.6915	-5.9618	-2.6823
6536.0000	9.3869	12.3384	28.8030	-1.5993	28.4165	10.4922	13.0919	12.3488	7.2279	8.6693	6.0180	10.9298	-15.7782	14.3090	-6.3726	11.3932
6544.0000	9.0773	8.3035	23.7468	-8.3499	16.0416	10.0579	13.1304	11.5767	8.4256	8.1819	10.8000	9.9767	-21.8159	10.2343	10.4714	8.0960
6552.0000	-1.9342	-0.6963	-29.2778	-8.2021	2.2479	-1.3707	4.5104	-1.7486	-0.2284	0.2210	-2.8372	-0.8663	-6.9032	2.1162	8.1695	-0.2498
6560.0000	10.1024	10.9178	30.9436	-1.7393	29.8159	10.5470	8.0223	-10.7147	8.6874	10.3375	10.7292	11.7537	10.7498	10.5287	16.8346	8.8519
6568.0000	20.1604	18.9588	65.9683	0.9541	44.0074	23.4969	26.4158	17.0784	17.2075	17.9799	23.2902	21.0544	0.3505	20.7306	41.5798	18.2882
6576.0000	10.1419	6.9089	25.1231	-5.2223	16.2730	11.9030	23.8173	19.2657	9.2591	8.3761	13.6410	9.5480	-10.0425	10.3348	36.5423	7.2867
6584.0000	-2.6984	-3.6997	-9.4792	-6.3193	-2.8186	-1.8780	4.9193	1.6811	-2.8415	-2.8510	-2.8562	-3.6787	9.4369	-2.4613	13.3970	0.1908
6592.0000	5.5775	7.6157	24.3229	-2.1798	19.9180	10.9548	12.7907	26.4433	3.6267	4.3864	3.0087	4.6395	22.2268	9.7986	15.9638	10.4328
6600.0000	4.8500	3.2586	31.7598	-7.8265	8.2537	7.2364	10.2361	18.4472	2.6083	2.3066	4.7826	3.3265	9.6664	4.4047	19.1117	5.1756
6608.0000	-12.0506	-13.0336	-25.8734	-4.2840	-20.9181	-13.2933	-6.0855	-8.7323	-12.8295	-12.5546	-14.5216	-13.8422	9.2273	-13.6875	-6.5330	-3.7191
6616.0000	-1.6885	-0.7308	10.2866	1.9178	2.2921	-0.2091	0.8054	4.2827	-3.5301	-2.9036	-3.6103	-2.8010	13.5722	-1.8132	-10.6369	6.0920
6624.0000	4.8538	3.5809	29.1983	-4.7320	6.1650	5.9286	-5.3244	-7.0922	3.8120	4.1518	7.9778	5.7035	-0.2754	0.9114	12.0070	7.8550
6632.0000	-3.4691	-4.4775	-13.2815	-1.0333	-12.7955	-3.5518	-14.1763	-16.3009	-1.9602	-2.0328	0.2315	-2.1599	-10.7894	-7.1850	3.3572	1.8113
6640.0000	1.5275	-0.5147	9.4821	-1.4202	-8.4960	-0.6358	-13.9067	-19.8674	2.9396	1.9255	6.9110	2.4556	-7.4069	-4.5510	-10.8967	-3.1238
6648.0000	-10.8214	-11.5460	-30.4868	-6.3637	-23.0808	-18.2215	-32.3000	-55.2585	-9.0668	-8.0730	-11.2973	-8.8469	3.9581	-16.2300	-11.7839	-18.6513
6656.0000	-13.6873	-12.6392	-36.4229	2.9802	-25.7535	-18.8150	-18.2126	-17.5491	-13.3063	-12.9000	-19.6178	-14.3277	5.7091	-13.4533	-24.1315	-19.0893
6664.0000	8.8565	5.8844	46.8391	-2.8634	-1.5783	9.7097	8.5776	32.2338	7.9290	4.8847	12.2414	6.6580	-13.6484	6.0326	-13.3803	-0.9676
6672.0000	3.9079	0.7966	18.6995	-8.7808	-4.0183	1.1309	-3.7367	-8.2023	3.9275	2.9630	7.2175	4.5989	-21.1060	-0.2981	5.1278	-3.6377
6680.0000	2.3970	0.7966	20.3963	2.5147	7.1083	-0.9827	8.0560	-4.2207	-0.1615	0.3597	0.1902	1.6655	0.5496	1.2946	6.0768	-3.1817
6688.0000	10.2645	9.2081	47.3849	-1.3065	22.8050	14.2592	17.9325	21.2608	7.5466	7.5060	11.7067	8.7679	18.8967	9.9170	20.2369	12.5708
6696.0000	-3.5933	-3.7690	-0.3869	-4.0452	-3.1885	-1.8482	-6.6623	-6.3095	-4.4311	-3.5014	-4.0103	-3.8906	18.7811	-5.0762	16.5373	3.3197
6704.0000	0.7152	-1.7034	30.1669	3.8773	-4.3484	-0.4659	-3.5313	-0.6051	-1.6328	-1.9431	1.0836	-0.8505	11.8329	-4.0833	4.0939	-1.9319
6712.0000	3.7782	4.2889	13.7719	3.1542	3.3931	4.3240	-12.9666	-10.6943	4.5136	4.8627	6.4200	5.6843	-0.9100	1.4192	4.7137	2.0781
6720.0000	-11.4246	-6.8023	-47.8524	5.6098	-15.7038	-16.4161	-34.7214	-39.6920	-9.1044	-6.6998	-17.2631	-7.5975	-6.0863	-9.2422	-17.9241	-16.0478
6728.0000	-4.8972	-2.6697	3.1290	7.0655	-4.4946	-9.8950	-12.3902	-10.1223	-7.1946	-5.6267	-13.0596	-4.5443	-0.8916	-3.3684	-19.6550	-12.2818
6736.0000	-2.5090	-1.6962	18.5751	-0.3158	1.6942	-3.6116	-2.1198	1.1744	-6.4383	-4.6723	-8.2686	-2.7086	-6.4233	-2.1688	-3.1896	4.5143
6744.0000	-5.4873	-5.5006	16.5454	-1.5497	-2.9917	-9.0156	-4.9841	-10.1151	-10.2917	-8.0826	-12.4329	-5.8378	-7.8557	-6.6789	-5.2886	1.5573
6752.0000	0.6364	1.1752	19.9573	2.7146	10.9898	-2.5556	1.6120	-10.7856	-3.2441	-0.8623	-4.6939	1.5388	-10.5162	0.9886	4.8755	3.5288
6760.0000	-8.1053	-5.9846	-19.9514	6.4248	-3.4568	-12.5822	-7.5810	-20.9568	-10.4611	-7.5509	-15.3582	-6.3189	-22.6788	-6.1049	-7.8148	-0.0714
6768.0000	-1.7019	-0.9606	31.9115	6.9396	5.3479	-3.4757	4.2067	6.7449	-7.4372	-5.5516	-8.9401	-2.9451	-5.6592	-1.6126	-13.8603	6.9312
6776.0000	10.9969	13.3222	51.8813	-0.7629	33.0531	17.4329	14.4614	24.9907	7.1035	8.9037	9.3020	11.2533	9.7487	13.9116	17.5976	23.6564
6784.0000	-6.9725	-3.9670	-24.2439	-6.1438	-3.7131	-7.5582	-18.4058	-24.6548	-6.5002	-4.2461	-10.2867	-4.6421	2.4053	-5.6432	-3.0425	0.0893
6792.0000	-11.3337	-12.1704	-5.3326	0.8080	-22.0509	-18.9665	-28.5676	-44.5277	-12.8503	-11.5837	-15.0498	-11.3735	13.8889	-17.6954	-23.7286	-16.4069
6800.0000	4.4719	5.2767	37.3902	5.5899	11.4971	5.2480	-5.8870	-1.6723	1.9481	3.1286	3.1347	4.7228	15.9761	2.6966	4.9155	4.6026
6808.0000	5.2103	9.0579	42.1118	1.5911	19.3533	8.4630	-5.1498	16.1640	1.0320	3.7588	-1.4082	6.8672	-3.5432	8.8467	11.9682	12.4956
6816.0000	-1.6622	-1.3733	44.4797	1.7691	-2.4694	-4.6070	-18.8327	-6.4156	-7.4161	-4.8066	-9.1343	-0.7401	-11.6541	-4.3372	9.2018	0.3225
6824.0000	-1.3198	-1.0135	17.1995	4.8086	-9.7179	-3.5693	-20.4021	-6.0777	-2.5903	-1.9756	-3.8473	-0.1468	-10.3652	-3.6233	-0.5305	-6.6566
6832.0000	6.4141	11.9288	23.9452	5.2353	15.9202	8.7525	-20.6879	-2.1943	6.6009	8.4089	4.0235	10.1129	-1.3873	9.1756	-10.4018	4.6404
6840.0000	6.3555	9.9493	31.6543	3.9334	13.7387	8.6967	-23.9221	-12.4119	6.0581	8.0107	6.5417	10.0137	3.6005	5.3653	3.2918	7.6738
6848.0000	-0.2165	0.7900	-1.3783	-1.0614	-12.0809	2.9642	-18.7945	6.5057	2.3792	1.1714	3.0052	0.6121	1.4139	-1.5333	-5.7510	-1.8229
6856.0000	-0.5446	4.8657	1.8054	-0.8257	2.8675	3.6999	-20.3115	5.1502	0.1277	1.4554	-3.3316	1.7503	2.5776	2.8400	-15.7837	6.2223
6864.0000	-1.4421	3.6117	3.3634	3.5067	3.8325	-0.4066	-22.9583	-8.1046	-2.0089	0.4280	-6.3672	1.6874	-5.0917	1.2737	-8.9346	3.0607
6872.0000	3.0312	3.2140	6.0955	0.5635	-10.3608	5.1546	-6.2033	23.5290	5.5931	2.8952	5.9734	2.4073	-5.2175	3.1282	-18.0835	-6.8295
6880.0000	13.3939	13.3037	43.6890	1.6363	14.4985	20.0298	9.5235	36.6041	14.3456	11.9084	19.5755	12.3901	8.7729	13.0586	-2.1247	10.0871
6888.0000	14.6343	16.0908	18.2387	5.6217	23.6711	23.5091	13.3076	32.8360	17.6148	16.1966	22.2209	15.8277	2.6323	17.6740	22.4891	16.3355
6896.0000	11.7862	11.5729	-15.4793	0.7810	6.2506	20.3792	9.9253	28.8435	19.3976	15.4183	25.3643	12.6801	-2.3188	13.2130	10.5443	7.6605
6904.0000	13.7680	10.4663	29.8828	0.6330	11.2185	19.6184	10.1887	12.9341	17.0391	13.8198	27.5692	13.1305	12.9994	8.2574	10.5908	11.8511
6912.0000	14.7870	13.9991	11.9548	6.4959	20.0575	22.5215	15.1495	20.6873	19.0905	16.7529	26.8311	15.5451	7.5014	14.4123	23.1262	14.7272
6920.0000	9.5194	11.5787	-39.1326	8.9306	12.3870	17.3216	3.8179	6.0313	18.1932	16.1008	22.3572	12.6513	1.1982	12.3791	15.5513	9.5207
6928.0000	8.1710	5.4240	16.1904	7.9557	7.5117	10.6896	3.8417	-5.6454	10.3149	8.7573	18.1349	8.0931	15.7503	2.6346	14.4250	6.7927
6936.0000	4.3639	-0.0542	15.4460	0.2868	-5.2612	7.7590	14.7794	24.3887	5.0317	2.1229	11.4637	1.4606	6.6790	0.5712	14.7700	4.1430
6944.0000	-6.2343	-6.3860	-52.2995	-0.3106	-16.9464	-4.4823	0.5807	3.5975	-1.6845	-3.4050	-2.5153	-6.5688	-2.5120	-4.5802	-2.4899	-4.5965
6952.0000	0.1646	0.0010	-23.7489	10.1134	-1.0168	-2.1313	-1.4614	-17.4020	3.3881	2.6418	3.4923	0.7308	10.5690	-0.5280	-4.7780	-9.6548
6960.0000	3.5988	1.5111	-17.3888	12.0966	-4.7849	4.1480	9.6064	10.0817	7.7791	4.7747	10.3620	2.3112	9.6002	2.8393	2.5298	-9.2858
6968.0000	-2.8695	-3.2544	-31.5574	8.3837	-9.1521	-2.2256	11.7426	16.4735	-0.3570	-2.2724	-1.5318	-4.6788	1.8306	-0.3423	-8.4293	-6.2954
6976.0000	5.2965	5.4828	1.3168	3.8814	10.8607	5.2155	15.4700	10.6722	6.1136	5.1752	6.4682	4.8799	-5.0034	7.6312	-10.3099	0.3791
6984.0000	-0.2445	-2.2482	-29.3801	3.8575	-10.8307	-0.5362	4.3687	-1.3267	3.9650	1.5055	6.4483	-0.6121	-7.1774	-1.7199	-6.7122	-5.4377
6992.0000	-4.9465	-4.9982	-26.0418	11.8299	-6.8793	-7.4750	7.6578	0.4621	-4.5930	-4.8579	-6.9962	-6.0685	-2.4616	-3.2264	-10.6425	-6.6415
7000.0000	8.8962	11.6939	6.8530	8.9263	28.1492	8.7938	18.4426	11.2767	8.5977	9.5948	5.7638	10.1885	-5.0758	15.6466	5.7195	1.7592
7008.0000	-0.7248	-1.0888	-32.2769	5.4594	-6.0299	-3.6457	-8.6757	-21.0399	3.2827	2.7944	2.2271	1.2096	-1.5405	-0.9123	12.2940	-13.8720
7016.0000	-10.6721	-12.9909	-21.6162	11.6146	-25.5607	-19.6002	-19.7915	-37.3940	-10.9618	-10.5102	-13.2680	-10.7340	-0.6866	-15.8943	-6.6203	-21.9203
7024.0000	-6.2760	-5.7313	-31.8872	11.4298	-12.9828	-9.6299	-8.3560	-13.8430	-4.6304	-4.5744	-7.4610	-5.7138	-5.4829	-5.9988	-9.7087	-10.6733
7032.0000	-5.3378	-3.2022	-40.3859	12.6051	-10.9617	-4.5691	-3.2276	8.0056	-2.6022	-3.0130	-6.4730	-4.9409	-5.5260	-1.3918	-5.1451	-6.0561
7040.0000	6.2156	6.6667	45.9197	10.7034	15.8396	4.9597	9.2301	16.9504	1.2195	2.6352	0.5233	6.0505	-14.3884	7.6513	6.1343	5.2778
7048.0000	3.2103	2.6813	-8.8622	2.3682	4.0802	3.1959	3.1680	-3.1045	4.8186	4.6621	5.9782	4.6704	-13.9229	3.6775	15.6080	1.0426
