Time	Fz	Fpz	C3	C4	T5	T4	O1	O2	F7	F8	F3	F4	T3	T6	P3	P4
0.0000	-40.8435	-33.9881	83.8346	-109.7160	-26.3889	-13.3473	60.2201	-8.8463	-74.0980	-58.6027	-71.7965	-79.4155	27.8113	-45.2421	76.7098	46.5013
8.0001	11.7172	20.3895	13.1865	-0.8170	8.7560	49.2639	9.0281	38.0353	7.1073	7.9515	9.2398	5.8136	-4.6956	18.5907	-0.1634	8.9954
16.0001	2.4635	0.1844	2.5553	-9.4421	-1.7127	15.3142	-4.6539	5.8434	0.6083	-0.1964	4.7497	5.3434	3.4197	0.4417	6.0468	12.2361
24.0002	-5.0516	-5.6610	4.2371	-11.5559	-6.2435	13.3886	6.5341	5.1734	-13.4420	-11.3230	-11.5625	-7.5531	5.1786	-5.5858	17.3869	13.5127
32.0003	3.6210	6.6882	-2.3994	4.8183	7.0932	34.4827	15.7006	18.8805	-4.8257	-2.6979	-3.3507	1.0819	0.6853	8.1867	18.3495	12.5322
40.0003	4.9536	6.7363	-11.1662	2.5446	-0.1591	33.4846	8.6248	14.5308	-0.2349	-0.1599	2.0300	3.7400	-2.3658	7.8811	1.3582	4.2475
48.0004	-2.6960	-4.7399	-4.3304	-11.1715	-15.9636	21.5152	6.6057	9.7079	-10.0828	-10.3020	-6.4289	-5.5870	1.0061	-4.4308	-0.3525	4.8985
56.0004	1.3396	-4.9262	-6.8334	4.5346	-1.7101	19.9929	1.7027	4.9277	-4.9286	-5.8102	-0.2559	7.8303	4.8911	-1.3164	7.9497	14.9288
64.0005	9.8882	8.5285	-1.9108	5.7276	16.2164	38.8537	4.0081	12.5100	4.0797	3.9700	8.5726	16.8170	3.3240	11.7842	4.6171	20.9946
72.0006	3.0840	1.5474	-8.1391	-17.1469	-0.9786	27.0372	-2.9137	-7.2242	-1.6043	-1.7022	2.7468	5.8535	2.2020	1.7722	-2.6114	10.2759
80.0006	-5.3839	-7.4698	-8.0218	-16.0499	-16.9827	14.8406	-1.8653	-15.1064	-12.6112	-11.7706	-9.0736	-7.4727	2.5070	-9.2712	-2.4997	3.1938
88.0007	-0.1117	1.6538	-0.3634	-8.4121	-4.0385	28.8030	12.5179	21.1658	-7.6697	-6.5933	-4.5069	-4.2314	2.8568	1.7150	6.1634	15.0388
96.0008	3.1208	0.7024	-1.3022	-7.9241	8.2816	5.2522	5.9658	17.9688	4.5575	3.0394	7.0915	6.9790	4.6662	3.7710	2.7524	16.2107
104.0008	9.3818	8.4541	19.9272	15.7892	30.2218	10.7548	12.8236	17.0788	9.2806	9.3984	13.1486	14.6392	8.2164	10.5942	10.0169	27.7801
112.0009	8.8000	5.8603	24.3352	10.6866	31.2624	21.5286	16.0428	26.9536	2.4071	3.3604	5.2362	16.4964	8.6130	11.6787	22.3231	32.1621
120.0010	-8.8209	-15.8693	13.7651	-28.3481	-5.8555	-20.6921	-6.0594	-2.4006	-12.5713	-12.3035	-14.7841	-3.6183	5.3741	-11.4735	11.5713	5.7002
128.0010	-1.1758	0.8485	20.9083	-8.7697	-2.7658	-9.6015	-6.9461	3.0198	1.7675	2.1909	2.8802	-4.8306	2.3262	-3.2090	10.2742	3.7694
136.0011	10.9164	7.9665	19.3317	13.3134	10.2069	-3.8766	-6.8075	17.5238	19.9856	16.2389	24.2634	16.0097	0.2157	8.1155	8.3218	4.3643
144.0012	-4.8931	-10.9528	6.2456	-1.6714	-8.9749	-39.4807	-20.5029	2.8410	3.0125	0.2110	-0.7360	2.2205	-0.6153	-8.0349	2.0601	-10.1628
152.0012	-7.7185	-2.5872	3.9315	6.6542	-9.1133	-27.4306	-15.8254	11.5467	-3.8148	-2.5641	-12.7242	-10.2995	-4.8797	-3.6265	-0.8823	-14.5633
160.0013	3.7309	4.0113	22.7223	17.6140	4.8354	-10.3508	0.5365	16.5065	5.3018	4.2952	0.9394	4.1436	-6.8730	5.9120	-11.3870	-15.1687
168.0013	4.0231	2.5965	26.9873	18.4346	4.8660	-7.7125	0.2883	8.9595	5.4251	4.3073	5.7252	4.6685	-1.4047	2.2374	-7.5494	-3.9240
176.0014	-5.3377	-5.1322	13.9932	-2.9399	-13.5023	-19.3608	-15.0706	2.9535	-1.6749	-2.3460	-1.9378	-7.1690	1.5954	-8.7749	-8.2999	-1.3340
184.0015	-13.2462	-20.4953	1.8050	-22.1985	-25.4332	-38.8630	-20.9227	-4.5939	-10.3393	-12.3924	-13.1621	-9.2490	2.3380	-18.8735	-8.9006	-7.4020
192.0015	-12.3008	-13.4197	-9.6781	-0.9496	-14.6871	-34.4717	-15.4402	9.3062	-9.2910	-9.3593	-16.6453	-9.7307	0.1983	-10.9474	-1.6384	-6.3756
200.0016	-8.5792	-4.4344	7.1580	4.1223	-8.2516	-39.6494	-11.2856	17.2141	-2.1527	-2.1685	-12.2287	-11.2231	-5.1484	-4.3867	-20.4237	-17.0754
208.0017	-2.7926	0.5888	13.5436	4.1453	-5.8107	-29.0427	-11.9056	9.0663	4.0863	3.1888	-2.6802	-5.2364	-6.7484	-0.8363	-23.2557	-19.7039
216.0017	2.5259	11.0116	1.3145	16.1575	4.6102	5.2935	-5.3094	19.6709	4.0310	5.5252	-1.9910	-0.7184	-7.0546	9.8863	-2.0341	-8.8080
224.0018	1.2797	7.6002	4.5135	8.4261	10.5749	-0.8731	3.0172	27.1946	1.0910	2.6676	-7.3943	0.0553	-6.5628	10.6754	0.8649	-7.6728
232.0019	-6.2740	-4.3503	-2.4606	-5.5302	-10.2261	-24.8123	-6.5771	15.4394	-1.9971	-2.5053	-9.3571	-8.1463	-5.6082	-2.6733	-5.0716	-16.0758
240.0019	-11.5812	-11.0177	0.1791	-19.3450	-32.0013	-20.3165	-11.0935	8.3291	-11.6636	-12.1824	-17.3976	-17.7620	-7.2396	-11.7541	-9.9468	-24.0948
248.0020	-10.7151	-7.8658	3.9965	-9.8791	-23.9789	-14.8846	-12.0529	6.3831	-14.8451	-13.3888	-24.6883	-15.5714	-10.1604	-7.1968	-10.5224	-28.3590
256.0021	-12.6786	-8.0960	-0.9689	9.1386	-25.1909	-30.2287	-21.0994	9.0536	-11.9283	-10.5289	-23.9461	-16.8703	-10.2569	-8.6895	-7.1203	-30.6905
264.0021	-10.2569	-11.7543	7.1074	2.5838	-27.5207	-26.5597	-13.5143	15.5630	-10.1251	-11.0945	-17.0974	-12.4663	-7.4097	-10.4722	-6.2773	-24.5671
272.0022	-7.5900	-2.7857	3.2548	-7.2201	-13.9467	-12.0813	-4.3305	7.6538	-10.1992	-8.5427	-19.5566	-13.4421	-9.4904	-2.4401	-13.9642	-24.4298
280.0022	-2.8659	2.7447	9.7956	-3.3088	-6.8391	-11.8867	0.0688	7.6037	-2.2160	-1.4448	-9.7864	-9.7391	-9.9392	1.7551	-21.5601	-24.5306
288.0023	6.9005	-1.7571	14.4705	3.6091	-1.8841	-10.5217	2.9812	17.0862	12.5504	6.8420	15.3632	12.4422	-3.5814	2.6548	-18.5121	-9.7578
296.0024	-3.8576	-0.3728	-1.8290	-6.5174	-5.2890	-17.4791	-3.8028	8.4347	1.4756	1.0361	-1.9120	-7.3266	-1.6663	-1.9565	-15.9828	-5.6085
304.0024	-4.0293	6.4431	-3.1726	0.0032	-2.8656	-4.6609	0.5027	16.3941	-1.2149	0.7960	-6.1741	-13.2127	-2.7099	2.1315	-14.0474	-2.7076
312.0025	0.2582	-6.9358	-11.4227	0.9267	-13.8035	1.5419	-2.4520	15.7358	0.5326	-3.7364	1.8836	6.0809	-2.4479	-2.0913	-25.4148	-5.3120
320.0026	-16.9366	-21.5898	-14.8309	-32.8319	-35.7930	-22.4514	-14.3585	-17.7850	-21.5670	-22.1787	-26.9075	-17.4695	-3.2846	-20.1546	-39.7744	-20.5304
328.0026	-1.0437	4.0157	-7.7294	-5.2958	-2.9466	5.3286	-1.4433	-9.6685	-2.3133	-1.2116	-5.6122	-5.0003	-5.2841	1.9006	-29.2249	-11.6634
336.0027	11.0619	17.2864	-13.0713	26.8050	19.8520	27.3285	8.7741	6.1710	11.4884	11.7472	11.4085	11.4447	-4.2546	17.0111	-23.9367	1.5575
344.0028	1.6045	4.7175	-2.8389	-0.8067	7.5296	8.6191	4.9695	-9.6568	0.4136	1.3793	1.1292	-0.1290	1.2067	2.6529	-23.1657	4.7060
352.0028	8.5419	5.4811	4.3319	-10.2862	8.1975	11.4717	6.4517	-6.3165	12.4779	9.8396	20.8296	9.9022	4.1208	3.8447	-8.5226	11.5847
360.0029	-4.9812	-2.1794	-2.4573	-13.5847	-3.8056	1.2855	6.6124	-3.8976	-7.1087	-5.3665	-6.0928	-10.5890	4.0048	-4.9925	-0.3932	8.1197
368.0030	-1.3408	-1.6210	4.3590	-3.7421	4.1654	-0.6451	5.6713	-10.2735	-4.2602	-3.0789	-4.4434	-2.0168	1.6381	-1.6555	-3.7111	1.7428
376.0030	10.9167	0.6491	8.1007	0.1774	12.4715	5.0529	4.9816	-10.5239	14.3344	10.1432	22.9749	20.0411	3.9202	3.7366	1.7575	8.1754
384.0031	-10.3769	-10.5503	-4.2503	-18.7812	-8.6968	-11.4659	0.1348	-11.1480	-12.2738	-10.0504	-10.7688	-13.8261	8.8617	-13.0873	20.6232	14.2980
392.0031	-0.3784	4.8931	-5.8176	-2.6068	-1.5224	-1.7272	0.2206	3.2407	4.4794	5.1442	5.4859	-6.3117	0.8156	0.6517	13.3055	2.9001
400.0032	4.9316	4.4247	4.0943	-6.2670	-0.0261	-0.5465	4.7160	3.8674	10.1759	7.9337	13.2553	2.7073	-1.9609	3.2281	-2.6115	-4.3321
408.0033	-12.7583	-14.9808	-4.0269	-19.4552	-11.1157	-13.9302	1.4902	-11.9839	-19.7625	-17.3166	-23.7141	-13.7251	3.1515	-13.0110	3.3368	-0.4389
416.0033	1.5328	0.5774	-10.4863	11.8389	5.0619	9.5770	3.6875	-5.1826	-1.5460	-1.0206	-1.5940	4.3153	-0.1876	2.5423	1.4253	1.1283
424.0034	9.1699	8.0573	-10.1048	23.4655	11.7573	23.3919	10.9404	-7.7064	8.7331	8.0099	15.3280	10.8876	1.8987	7.3465	4.8898	8.7110
432.0035	4.5875	-1.0517	-14.6162	9.1754	3.5977	6.1215	9.9117	-22.7040	5.3603	3.5810	11.3308	7.4811	1.5758	-0.3149	1.0615	-0.3669
440.0035	9.2446	6.8710	-6.3238	11.5218	12.1056	11.4405	18.9323	-10.6389	10.6347	8.7440	14.7686	9.4964	-2.6942	8.0197	-11.8875	-5.6663
448.0036	10.1408	8.3903	-8.1556	19.1090	19.3547	27.5672	19.6337	-9.1987	6.7144	6.5791	12.4641	12.6759	2.0075	9.8478	0.4585	10.0927
456.0037	5.5833	-3.3606	-19.8046	2.4685	0.4219	7.8019	0.8595	-31.2821	7.3393	4.3914	15.3494	12.6858	2.4764	-1.9922	4.1530	0.6500
464.0037	-0.9809	-6.2661	-23.5647	-4.9651	-6.5769	-6.8363	-0.8485	-28.0054	2.5106	0.7714	6.5868	1.5036	1.6065	-6.3337	5.4867	-4.2282
472.0038	-2.1720	-5.8585	-21.2561	-5.6102	-6.1977	-4.1606	-0.9720	-22.9023	-0.8572	-1.5435	1.3571	-0.4297	1.0199	-5.5397	8.5460	-3.8137
480.0039	-4.2773	-4.8912	-9.0948	-21.9005	-20.9866	-7.8070	-4.7126	-27.3561	-2.0813	-2.7188	-0.5268	-10.5157	-4.5418	-8.9671	0.5234	-20.2237
488.0039	-0.3414	2.0968	-14.6413	7.8096	-4.9250	2.5166	4.5201	-11.9117	-0.3848	0.3451	-1.8053	-4.6205	-5.6565	0.8523	4.5678	-15.5603
496.0040	3.5018	-4.5093	-22.4323	22.7469	5.3617	-5.9922	2.0241	-13.0556	4.9734	2.3654	4.5428	13.5559	-2.9506	2.0562	-3.0990	-10.7943
504.0040	-2.8624	-4.8039	-16.6693	2.8143	-1.4101	-4.8113	-1.7981	-15.9291	-4.2810	-3.9821	-6.6075	0.2630	-1.3619	-2.6241	-6.2251	-7.0565
512.0041	6.5553	12.9463	-10.7483	18.6843	15.9525	27.8755	5.2613	1.4674	2.6982	5.1097	1.1609	6.3231	-2.8755	12.8354	-0.1922	3.3465
520.0042	6.9006	4.0615	5.2833	0.0949	3.4800	2.1358	1.8140	-10.8476	11.0558	8.5145	15.9282	7.9906	-0.7681	2.6673	-13.5145	-3.2616
528.0042	-4.7230	-5.8397	4.1973	-8.6410	-8.1372	-20.2147	0.5397	-14.1266	-0.2477	-0.9135	2.7369	-8.8937	4.2331	-10.0204	-5.6883	0.9160
536.0043	5.3392	9.1404	-0.5588	28.3156	15.3955	21.1937	8.6508	13.3312	2.0596	3.9462	3.2822	5.4922	2.4889	8.9989	14.4850	14.7207
544.0044	5.9460	9.8437	2.4821	15.8260	8.0642	27.2574	2.4668	8.6347	2.8796	4.3833	6.3332	4.5279	1.8426	7.4889	16.9319	13.1262
552.0044	-6.2818	-3.4872	-7.9606	-11.4760	-12.5604	-8.6167	-9.5430	-13.1543	-4.2569	-3.0565	-4.2344	-10.8388	1.3024	-7.9376	9.2752	-1.8767
560.0045	-7.5300	-5.8536	-5.3471	-12.5478	-8.2937	-9.3701	-0.6448	-6.6702	-10.2842	-8.3737	-14.9583	-10.7241	-2.1301	-5.5294	3.9411	-9.1482
568.0046	2.8812	10.4604	-4.8839	13.2811	11.8714	17.7459	15.2524	20.1534	-0.7600	1.8237	-5.0116	-1.9745	-4.2620	11.5304	6.4469	-0.4393
576.0046	13.5215	14.6787	-2.9325	28.0417	21.1591	9.5642	16.4344	24.1830	20.2826	17.6400	21.8631	15.2026	-3.9509	17.3942	0.2893	-0.2360
584.0047	-1.4920	-10.1350	2.4153	-1.2461	-1.2540	-13.8727	7.0297	-5.8476	-1.5404	-3.4785	0.8385	3.0739	3.2518	-6.2273	8.0836	0.6557
592.0047	-16.0494	-19.6623	-10.6640	-11.7902	-21.8959	-18.1419	-2.5151	-24.7587	-23.3838	-20.6968	-26.0620	-18.3891	3.0452	-19.4808	16.6151	-6.1585
600.0048	-3.0960	-4.6016	-2.5873	-6.8299	-14.4888	-15.7276	-2.4068	-19.9460	0.0334	-0.8254	-0.1741	-7.2729	-5.0475	-6.7961	3.3894	-21.4998
608.0049	1.9377	0.3549	3.0789	-7.6663	-8.7665	-1.3144	-3.8429	-22.7135	4.0301	3.1118	6.8882	-0.8401	-3.9813	-2.7272	6.2879	-15.3046
616.0049	-11.2834	-13.5723	-10.4633	-14.3503	-25.8320	-12.1771	-16.5805	-43.0602	-15.0985	-13.2917	-15.8173	-13.8870	-1.3602	-17.2613	10.0845	-17.2118
624.0050	-17.5857	-16.5983	-22.4916	-17.3923	-26.5864	-25.0843	-22.3746	-43.8483	-20.2790	-16.8163	-25.9666	-20.4811	-0.6398	-20.1299	9.4741	-16.9569
632.0051	-8.9168	1.6582	-28.3142	12.8870	-3.0350	5.7347	-13.8121	-14.9758	-13.6815	-7.9695	-21.4818	-12.3295	-1.4536	-1.7461	3.9676	-1.7025
640.0051	4.6712	12.9055	-3.6436	20.7651	9.2217	19.0315	-4.4079	-1.6070	2.7156	5.0169	-0.3756	2.6148	-5.0431	10.0750	-15.9731	-4.2553
648.0052	2.1448	9.2570	-8.0369	-0.6597	-0.7154	10.6920	-12.7626	-13.6233	3.6844	5.0141	2.0010	-0.8513	-4.7368	4.5086	-16.3747	-8.0913
656.0053	-11.3685	-2.9819	-32.2834	-5.1556	-23.5613	3.6496	-23.1196	-25.7140	-12.8018	-9.3047	-15.2759	-17.7607	-0.4596	-10.7392	-6.1128	-4.5567
664.0053	4.9691	6.0478	-14.4175	13.2447	2.3479	19.1364	-7.9980	-10.1960	6.1757	6.1002	11.3664	7.1029	2.7160	3.0037	8.5971	10.2087
672.0054	20.8352	24.2107	-11.9313	26.8961	31.1913	39.2906	-0.5133	4.4279	26.3809	24.8391	32.5857	27.8367	-0.5850	23.8355	5.0099	14.9606
680.0055	-4.1825	0.4820	-21.3602	-8.2600	-12.9181	-1.1963	-13.1726	-17.8417	-1.3138	-0.9006	-2.3037	-7.7804	-2.2987	-4.2970	-23.1088	-7.9484
688.0055	-9.6605	-11.4381	-21.9375	-18.3824	-15.3358	-14.7358	-9.1471	-16.7339	-9.4851	-9.5255	-11.7528	-8.7591	1.0545	-11.1074	-14.9974	-4.8963
696.0056	0.8163	-0.7733	-20.2738	6.0616	10.8112	7.1485	1.0464	-2.5698	-1.0131	-0.6868	-1.8921	7.7825	2.9690	3.3111	-2.7579	10.3233
704.0056	-4.8210	-5.3134	-3.5507	-0.0816	3.9676	-5.8132	2.4332	-10.6856	-7.8532	-6.1176	-8.7368	-3.6030	5.0892	-4.9239	-2.8796	8.9237
712.0057	8.8007	10.2735	4.9853	-0.5511	24.4581	12.4615	9.5377	-1.7756	9.3047	9.9318	10.2677	11.3778	1.0290	11.7743	6.1269	8.7179
720.0058	14.1655	13.0567	17.0296	-5.7699	11.4348	24.7540	14.7262	-4.6246	15.5201	13.4239	23.4921	11.5894	-2.5966	11.0672	0.0023	-1.3128
728.0058	8.4137	-0.8989	27.9180	7.4957	-1.9385	11.4447	17.4093	-0.1363	6.1293	2.6866	16.2909	8.1245	1.1218	-0.6637	5.9789	-0.1929
736.0059	18.3350	11.8903	22.2960	36.7320	38.5982	27.3786	23.3125	30.5455	15.1339	13.0256	20.3297	29.6911	3.7555	20.1042	12.5004	22.5977
744.0060	15.2607	14.7029	18.7482	26.0516	31.6062	34.4031	19.5068	27.9982	12.7016	11.8667	20.2555	20.0723	7.3654	16.6035	-1.1072	32.5603
752.0060	9.5694	4.0935	16.9652	22.0322	9.4911	29.0953	14.7909	22.3592	4.3817	2.1788	13.1075	13.7130	5.7072	6.0841	-6.8053	21.8885
760.0061	6.3971	-2.2780	21.0677	6.6603	12.1157	11.3710	16.5062	16.5976	0.0601	-1.9953	2.8389	13.6003	1.8726	4.8752	-6.3455	8.1015
768.0062	8.4910	13.3471	12.8552	10.3931	23.0329	16.9206	20.4988	15.6975	6.7841	8.0788	6.4680	5.4407	-1.2233	14.0109	-0.9377	6.3026
776.0062	22.7603	34.9985	8.5168	47.4466	43.4256	54.6771	28.7639	40.1883	21.0686	22.6144	22.2440	19.3392	-5.3525	34.8962	-5.7367	13.4597
784.0063	13.3065	7.5154	23.1393	9.9826	20.4406	28.7806	18.7089	12.6571	9.4048	7.1527	18.5643	18.4052	5.6988	9.9578	-8.9060	21.8582
792.0064	2.0485	-10.6499	20.5882	-14.7405	-2.4015	0.6323	3.3313	-16.5935	-0.3560	-3.3190	10.5234	8.2124	10.1266	-9.8441	2.2222	16.8699
800.0064	9.6485	6.9297	21.0307	15.9289	6.9909	26.9589	9.7336	6.1154	4.1760	3.3115	9.7215	10.5752	-0.8891	7.1864	-0.8429	3.6153
808.0065	14.1517	10.7585	22.7009	18.2640	7.5214	37.1554	10.7276	7.8377	9.7905	7.7117	19.1665	15.1030	-0.5438	9.8369	-2.6536	6.8054
816.0065	20.8705	18.8675	20.3012	20.0987	27.9649	38.5236	8.5875	7.2889	21.5391	19.2980	31.3801	26.6481	1.9800	18.7817	3.8998	17.5369
824.0066	17.6578	17.7431	24.6598	8.5433	33.0490	29.1546	3.4509	0.8924	18.7495	18.5175	26.1659	23.3181	4.6253	16.9725	18.9850	22.2862
832.0067	2.2363	-4.7420	8.7469	-22.3484	-9.8325	4.6660	-15.7832	-27.1869	3.6981	2.1372	12.8715	5.6108	5.2954	-7.9825	30.9423	6.6530
840.0067	-9.7056	-14.9775	-7.6962	-31.2133	-31.1238	-4.2760	-16.5375	-22.7877	-14.3424	-14.3651	-14.3170	-10.2092	-2.6454	-15.2131	16.1203	-15.8431
848.0068	-10.3261	-9.6696	-16.5890	-14.5452	-21.4271	0.5827	-8.6142	-7.4784	-16.3525	-14.3366	-20.4022	-12.8436	-2.9205	-9.2645	11.0155	-10.5403
856.0069	-2.4722	-6.3604	-20.4139	2.9313	-20.9282	0.8786	-13.2815	-12.6170	-0.3903	-2.3306	3.6039	-1.1392	-0.4965	-8.0712	9.1702	-6.1302
864.0069	-8.9325	-14.8132	-20.0224	-2.6852	-18.1926	-20.9888	-17.7888	-15.8420	-8.5607	-9.5807	-12.0795	-2.7958	-1.4821	-11.7282	-0.5387	-12.9105
872.0070	-7.0679	-4.9465	-21.0036	15.0889	3.2553	-14.2202	-12.4500	4.2239	-8.8605	-6.5527	-19.6728	-0.6936	-2.9258	0.3704	2.6515	-6.3758
880.0071	8.8595	10.3243	0.9586	39.4457	9.9101	11.1674	0.8290	24.4438	10.9361	9.3743	10.0760	12.2248	-4.8161	12.2582	-8.4826	-2.7801
888.0071	1.5958	-0.3434	-1.8298	18.7444	4.2645	-19.9734	-4.7047	11.5883	7.3590	4.9417	2.7154	7.0482	-4.4670	3.5099	-21.0378	-11.4953
896.0072	-9.8764	-0.9934	-23.8621	2.2317	3.1233	-34.8758	-14.5267	3.4031	-3.7165	-1.1862	-18.7918	-9.7990	-5.8713	0.7026	-18.3988	-15.6537
904.0073	-13.2776	-0.3618	-12.0695	0.2035	-16.7027	-10.9282	-8.6248	12.3944	-14.4754	-10.3104	-24.3924	-24.5804	-4.3398	-5.3769	-17.4747	-9.7270
912.0073	-11.3028	-2.1934	2.1284	-1.0952	-11.3601	-16.0194	-9.0886	14.7214	-13.0580	-9.7899	-23.2812	-18.4127	-4.1261	-4.4763	-18.5864	-9.9035
920.0074	-1.9480	3.9176	18.9917	-3.1797	9.0422	-28.1550	-11.0666	10.1008	3.2935	4.0859	-6.9482	-2.1647	-5.5647	4.1952	-29.8736	-13.2016
928.0074	-8.4218	-10.2588	11.3123	-14.2953	-16.1042	-37.3604	-13.7091	0.6004	-1.8202	-3.9289	-4.4097	-9.4077	0.5513	-12.1390	-31.6199	-8.4343
936.0075	-10.4323	-5.0296	-10.9425	-4.8980	-14.3241	-24.7515	-8.4236	14.2654	-5.0269	-4.6190	-10.1080	-15.7646	0.4503	-7.7357	-15.3527	-1.9600
944.0076	-3.9370	5.0727	-5.9279	-2.6661	-0.6088	-6.0452	-0.5052	22.0965	-0.7205	0.6386	-6.2183	-10.0632	-1.6939	2.8910	-17.7559	0.9729
952.0076	-21.6254	-21.6237	-24.6498	-35.8752	-34.2836	-37.2738	-13.8965	-5.3746	-20.9251	-20.6836	-28.5427	-25.3482	0.2985	-21.6550	-32.9723	-11.6888
960.0077	-28.0592	-15.7024	-31.6303	-40.5467	-29.2239	-40.1532	-12.9781	-7.3761	-29.4677	-23.8904	-46.0804	-40.3954	-3.1588	-18.8831	-31.0394	-17.3741
968.0078	-10.6646	4.9178	-14.4246	-13.9536	-6.3262	-6.2883	-5.6306	5.5298	-11.3782	-6.7015	-22.7281	-21.9908	-5.4070	0.0378	-35.9518	-9.5220
976.0078	-6.7043	-3.2282	-19.0591	-3.3265	-12.4446	-10.6280	-10.4400	5.8003	-4.3810	-5.1950	-9.5831	-7.3346	-2.9343	-3.7686	-53.5241	-7.2980
984.0079	-7.9048	3.0595	-10.9799	4.1450	9.6786	-15.9845	-1.2283	14.6351	-4.6124	-1.7607	-11.7203	-11.8370	5.0623	0.0902	-43.0931	15.6764
992.0080	-4.3409	8.6202	-2.9336	3.4105	25.3177	-16.3933	3.1274	13.5253	0.4760	4.2921	-6.8069	-7.8705	7.0649	5.4592	-35.9322	22.6802
1000.0080	-3.5342	1.8257	-1.7421	-11.9252	11.1944	-19.1638	5.7900	5.7399	-0.2189	0.6002	-7.4419	-5.4118	-0.9451	2.7753	-42.4687	-1.8430
1008.0081	-2.9433	4.3431	2.8789	-10.4680	8.3896	-11.9224	10.5567	4.4015	-0.5230	1.3534	-5.1288	-9.9679	-0.4791	2.2783	-19.6418	-0.7149
1016.0082	0.8202	9.4602	6.3487	-2.1865	18.3307	-11.2669	8.6699	9.8125	6.0278	8.0586	1.8337	-4.5703	0.8544	7.1865	-6.0631	5.5381
1024.0082	3.9642	7.5185	21.9920	-2.9506	25.1029	-8.3840	15.4763	18.9535	5.3245	6.1823	0.8055	3.4114	0.1941	10.1663	-14.7660	5.6144
1032.0083	-2.5207	0.3172	18.2112	-12.3094	11.8346	-10.3119	13.8729	11.0384	-4.7823	-3.2792	-9.5004	-5.4706	0.9512	1.8808	-24.0095	3.2026
1040.0083	2.0162	16.0981	10.9354	-14.8654	15.7758	2.2999	12.1798	10.0093	4.2844	7.2225	-2.0289	-9.4106	-5.0783	11.5497	-35.7831	-4.6136
1048.0084	18.1101	30.1276	21.0960	4.0157	34.4479	19.8137	13.6269	20.3931	26.1159	25.8064	25.9826	12.3390	-5.8058	26.1788	-33.6587	2.0843
1056.0085	11.4875	14.0859	16.4330	1.7359	24.1729	2.7512	7.0079	16.6957	17.0931	15.1718	15.9536	13.8742	-3.1303	15.6968	-32.7314	1.0133
1064.0085	1.5269	11.8617	13.3320	-17.4845	22.2345	-3.3412	12.0572	9.6673	2.3693	5.0597	-5.2169	-4.2984	-2.9708	11.1538	-36.2156	-0.4167
1072.0086	-2.1359	4.2059	16.5108	-28.0391	11.5679	-13.0456	9.5035	-4.4595	0.0168	1.7070	-2.9669	-8.9416	1.7738	0.9611	-34.2231	3.2943
1080.0087	-6.3109	-6.9644	15.4739	-31.3715	-5.8262	-13.2440	7.2342	-4.8639	-9.3941	-9.0743	-12.1364	-10.3719	-0.3998	-6.7050	-32.6297	-6.2850
1088.0087	4.8123	10.3459	11.8308	-10.1125	10.3058	19.2875	13.5524	9.2001	-0.4123	0.9789	-4.1676	0.2215	-6.9126	11.1922	-27.8721	-8.3412
1096.0088	4.7922	8.1349	1.2287	-4.9435	9.3258	7.0579	5.0153	2.7456	6.0408	5.6723	4.5957	3.7045	-3.5607	8.0939	-28.5538	-3.7543
1104.0089	4.9601	6.8834	0.9200	-6.5949	14.4151	8.7203	8.1521	11.1507	5.4870	5.3280	4.6935	6.1439	-0.1774	8.9510	-11.0016	6.2807
1112.0089	15.6200	12.3777	9.0325	1.5054	19.3034	21.0300	8.1836	21.3738	18.9761	15.8238	23.0918	21.6859	-2.5902	16.9834	16.0168	4.7756
1120.0090	-8.1286	-11.9148	-6.6668	-23.6840	-19.3509	-18.6625	-6.8288	0.8907	-6.7199	-7.6685	-8.8658	-8.6036	-1.5473	-9.9073	18.9953	-10.5938
1128.0090	-20.4251	-12.8690	-28.5012	-19.3138	-23.2737	-15.9694	-6.9878	-2.7410	-26.0042	-20.5145	-36.4481	-28.8453	-1.1851	-13.8320	23.8181	-8.3025
1136.0091	4.2430	-1.4875	-7.5232	8.9141	-3.7782	3.7424	-6.3165	5.4127	5.9014	3.6355	7.4370	10.4647	-3.0810	2.5079	30.8644	-6.5140
1144.0092	10.8841	-5.1213	15.2497	9.3594	-1.7413	4.3946	-3.6404	5.4417	13.7279	7.7144	23.8964	23.1367	1.9835	0.4668	37.3362	2.7893
1152.0092	1.7254	-4.3766	8.6170	7.0242	-3.8650	-0.0637	0.4183	9.1139	1.7336	0.1616	5.9688	4.8188	2.7323	-2.4929	33.5580	5.2494
1160.0093	-4.0489	-10.1799	8.3679	-5.8007	-11.9282	-21.3260	2.3339	14.4027	-2.7925	-4.7205	-5.1176	-3.1634	-3.1888	-5.6060	22.8059	-13.4174
1168.0094	0.0290	-0.1417	-3.4939	3.7071	3.1586	4.1167	10.6157	20.8930	-3.2860	-2.2513	-7.4887	0.1020	-4.1242	5.4075	38.8607	-5.6870
1176.0094	1.7391	4.7202	-15.0914	8.8636	-1.0845	11.1073	0.4416	7.2801	1.7295	2.8834	0.2362	-0.0280	-4.3347	5.4593	39.9222	-6.0473
1184.0095	-5.7279	-8.5999	-13.2540	-4.8186	-21.7160	-12.5304	-11.0207	-9.1753	-3.1924	-3.9882	-3.0674	-7.0455	-2.7820	-9.3198	30.8058	-14.2452
1192.0096	-2.1496	-2.6664	-14.1003	12.8380	-10.7447	2.4066	-4.9088	-3.0867	-2.9228	-2.3479	-3.0251	-2.7849	-2.4247	-2.7303	33.8961	-7.6018
1200.0096	-7.9189	-12.7766	-6.3986	-5.7363	-24.5658	-23.2128	-13.9661	-13.9028	-5.9146	-7.1051	-7.7387	-7.9124	-4.1141	-12.5692	16.9215	-21.2376
1208.0097	-17.7613	-21.4288	-20.6317	-14.5775	-34.9173	-27.9944	-25.6932	-32.1275	-19.3603	-18.1386	-22.7330	-17.7865	0.5070	-23.3016	13.3848	-14.9940
1216.0098	-12.3804	-11.7414	-26.1204	10.0110	-25.2499	2.7141	-18.2280	-30.5770	-18.0521	-15.0438	-16.3594	-14.4230	4.8056	-17.1426	15.9152	3.2171
1224.0098	-20.2434	-26.8502	-14.8579	-23.4981	-38.0475	-33.4189	-15.4595	-27.6837	-21.1029	-21.0054	-19.3503	-22.3779	7.9896	-29.9738	7.8498	-0.3078
1232.0099	-23.6616	-22.7437	-29.7708	-24.3851	-28.2259	-41.3788	-18.4935	-14.6474	-22.1460	-19.5487	-28.3971	-26.3449	6.7566	-24.4832	12.3709	1.7497
1240.0099	-6.5923	0.0489	-19.2337	14.0015	-8.3861	-7.5844	-8.8050	6.7357	-4.0457	-2.2344	-7.9531	-10.5645	-0.2445	-2.9954	4.1035	-0.2454
1248.0100	-0.4236	-1.7168	-15.1488	11.5839	-4.5711	-2.4998	-3.1704	6.7390	2.6917	1.0559	3.7816	1.8696	1.0201	-1.1363	-6.5682	2.6778
1256.0101	-4.7495	-3.9077	-29.7705	2.6644	2.4236	-1.7694	-6.3472	-5.0367	-3.9942	-3.0862	-4.9864	-0.2581	5.9590	-2.8988	-3.5833	14.8019
1264.0101	-4.5094	-5.0392	-19.1762	-3.8418	3.9607	-1.9989	-1.9195	-6.8838	-4.2895	-3.3320	-2.4004	-1.1492	9.5091	-5.0600	3.5901	21.8409
1272.0102	-3.9795	-4.7042	-23.5549	-4.3264	2.9838	3.8569	0.1881	-12.1068	-4.1516	-3.1580	0.2512	-1.4753	11.1699	-5.9182	6.7587	25.6266
1280.0103	-9.7505	-1.3887	-17.4188	-14.2122	-6.7903	2.0942	-2.8682	-21.0216	-11.0348	-6.7922	-9.5443	-18.6529	8.3521	-9.7392	0.3532	17.0077
1288.0103	-14.6152	-9.5190	-10.5689	-23.9676	-18.9457	-12.8959	-6.9086	-15.7406	-14.5535	-11.4273	-12.7886	-23.9628	9.6648	-17.6065	6.7045	15.1233
1296.0104	-9.5492	-8.2762	-15.4188	0.7618	-12.1598	-2.4409	-6.2004	-8.4933	-10.9010	-9.1023	-7.3734	-12.0746	10.2807	-12.9319	7.1926	20.3517
1304.0105	-4.4287	-0.9318	2.5615	6.4787	2.5778	5.3179	2.5605	-7.5733	-8.3683	-5.4612	-5.7905	-7.9289	8.7216	-5.5453	-2.4562	20.2582
1312.0105	-7.0225	-8.8455	2.8564	-7.2843	9.6557	-8.8201	5.1903	-4.2598	-10.7318	-8.4269	-9.3593	-4.2358	13.5617	-8.1930	6.3663	29.4324
1320.0106	3.6819	-1.5773	13.4013	13.7888	14.5666	12.1079	14.2698	8.6892	-0.1147	-0.2914	8.0398	7.9148	12.7268	-0.4697	14.9321	32.9354
1328.0107	13.9862	8.4352	26.1922	23.0302	11.0706	28.3957	16.9349	8.4866	12.3037	9.7932	24.9987	14.7664	4.8551	6.9231	15.0564	16.6579
1336.0107	-12.8025	-20.4210	6.5454	-17.2705	-23.7098	-20.3417	-4.0931	-23.1420	-16.8605	-16.4676	-13.0806	-14.4107	7.6303	-22.3134	17.8501	2.9315
1344.0108	-16.4954	-21.1505	5.0754	-14.7706	-25.3151	-19.9797	-2.8152	-15.7330	-22.1495	-20.0747	-19.4230	-20.9323	9.9671	-24.2201	27.3943	9.6460
1352.0108	9.9834	8.9875	6.1831	13.1257	11.1845	19.6428	7.0628	13.0800	10.7257	9.5273	15.4951	11.8455	0.2974	9.8009	19.6373	8.0385
1360.0109	-7.7034	-11.8265	7.2727	-19.2147	-12.2651	-9.0044	-3.4467	-12.5001	-12.7372	-11.8941	-13.2675	-7.6762	2.0622	-11.0945	6.2341	-2.3514
1368.0110	-9.2195	-15.4234	5.5837	-6.4052	-21.8884	1.2549	1.1429	-6.4059	-17.1655	-16.5222	-12.1384	-11.1636	6.8769	-16.5031	20.9160	8.7878
1376.0110	13.5062	11.8748	-2.8167	15.6254	8.3485	34.9900	5.2255	12.2687	13.6126	11.2968	20.9934	16.6618	-1.0679	12.5013	10.3160	8.0354
1384.0111	-6.9409	-9.1090	6.9585	-31.8083	-13.8609	-3.5231	-11.7374	-30.7961	-10.1370	-8.8981	-6.7351	-8.7382	5.2886	-13.4553	1.1946	4.2118
1392.0112	-8.7935	-12.9226	-0.9748	-8.3050	-11.5506	-12.4188	-8.8157	-20.3762	-8.9605	-7.9576	-2.5479	-8.6684	12.9207	-17.1311	29.5188	20.9612
1400.0112	11.2956	13.3554	0.1607	32.0883	25.5029	11.0700	9.2733	14.9692	16.2957	15.7472	19.7298	14.3906	3.2506	13.6312	16.0638	16.2929
1408.0113	2.3589	-1.2370	12.3538	2.0223	5.7008	-0.1890	-0.0220	-24.8490	0.6512	0.6999	4.1959	4.6485	2.8047	-2.6147	-5.5233	1.7507
1416.0114	-7.5222	-20.3807	5.0726	-9.8527	-19.2291	-8.9392	-9.7367	-47.7472	-14.0977	-14.5890	-6.7868	-2.3584	7.5818	-21.2411	12.9530	1.1948
1424.0114	-2.2773	-6.4108	17.1170	8.2048	-4.2956	12.5039	2.9544	-20.3149	-13.4601	-10.9168	-10.3880	-2.4560	2.8341	-7.1250	24.2019	2.1002
1432.0115	8.1717	8.4719	15.3945	22.4370	5.1541	25.7190	1.3963	2.3354	3.1562	3.6467	6.1826	8.3987	-2.9048	7.4721	10.4570	-1.0418
1440.0116	4.5557	5.5092	2.3844	2.7899	-3.6059	14.5383	-5.8295	9.0462	4.1458	3.0528	4.6174	4.9752	-4.6095	5.2686	-9.8587	-5.6311
1448.0116	2.9287	10.5009	11.6308	-0.4026	-0.3112	32.3390	0.8559	9.0199	-5.5056	-2.6084	-7.3251	-3.0923	-5.4572	7.7927	-8.3360	-3.0977
1456.0117	18.3077	20.5317	15.7756	29.1122	10.0303	43.3484	7.5784	13.8090	18.1781	16.1769	26.5930	16.2841	-4.9160	17.0779	-1.8732	1.1046
1464.0117	14.2799	8.7740	11.2607	8.3589	3.2949	22.8809	7.5357	2.8862	17.5330	13.0521	28.3608	16.0580	-0.7103	7.6939	-3.0556	2.3639
1472.0118	2.0186	-4.3741	-0.5893	-16.3779	-9.8671	19.3307	-4.0345	-19.1078	-4.8482	-5.7966	-1.5325	5.7562	-2.8462	-2.3297	0.3366	-8.1867
1480.0119	-0.5968	-6.3730	1.3373	-16.3877	-14.3580	3.3284	-4.0267	-17.8386	-3.8016	-5.1105	-2.0529	0.4357	-4.2379	-5.2485	2.8684	-15.5249
1488.0119	0.8083	0.2331	4.4293	-11.5086	-3.4494	14.0945	8.3743	-10.9437	-3.8820	-2.8932	-0.7696	-3.1559	-0.3857	-1.1075	15.0599	-1.7177
1496.0120	11.2875	9.7872	-1.6372	8.7672	10.8046	46.3048	5.2990	-11.1844	1.6280	2.6562	5.3471	15.2500	-4.1741	12.0995	17.4063	-0.7194
1504.0121	8.5482	1.9149	7.0143	4.6600	6.1269	16.9186	0.6701	-8.7492	5.7841	4.0576	10.2971	15.1467	-1.2857	4.9449	11.6422	-1.3845
1512.0121	0.6805	-4.3166	3.9859	0.4152	-3.3835	7.6877	1.8046	-3.3970	-2.9446	-3.2712	0.8061	2.9852	2.4096	-2.9505	23.1509	4.3623
1520.0122	9.3801	5.6985	7.5823	10.8113	5.1691	33.3687	5.0876	8.5310	1.1583	1.0106	2.5619	13.8124	-6.1519	10.6537	27.8184	-6.3602
1528.0123	10.4745	10.1939	13.6593	7.0715	9.9020	23.6168	3.6217	11.8728	7.0298	6.9287	6.5620	12.5394	-7.6581	13.5258	25.3047	-9.6339
1536.0123	7.1997	12.7943	9.8300	17.3666	8.1180	29.7724	0.8798	11.7593	1.7844	4.2108	0.7575	4.8657	-5.3677	11.9833	24.7326	-2.2978
1544.0124	22.3335	23.7433	33.6210	33.8180	33.0260	60.2927	12.1573	22.1035	11.8663	13.1132	15.3981	27.4534	-5.2574	27.1561	24.5575	8.3349
1552.0125	28.7438	22.2239	41.9132	24.0319	36.2852	45.1011	8.9575	15.5026	27.1017	23.6435	35.7502	39.8993	-4.0987	27.1435	19.7117	6.3319
1560.0125	12.2625	9.7526	31.4777	11.7842	12.3362	12.1870	6.1968	19.0804	13.0482	11.1736	16.1837	14.1126	-3.5377	11.4906	19.4750	-2.1156
1568.0126	6.9914	7.7324	18.4458	23.4304	15.0652	17.9706	18.0959	37.6246	2.4442	3.2958	2.2131	6.7624	-0.8832	11.8548	36.2037	8.3781
1576.0126	6.4308	0.3439	-4.4819	23.3075	0.2036	6.0689	6.8853	18.0673	8.8141	5.8447	13.2187	10.6425	-0.6403	4.1553	32.6204	0.7563
1584.0127	2.2929	0.6371	-1.1821	24.2128	5.6597	-11.3979	9.1272	20.1574	6.5393	5.3554	5.5603	3.3829	-1.1858	3.8408	27.7765	-2.4353
1592.0128	5.1886	7.1297	-1.8725	31.4827	28.3731	-4.6248	15.4473	32.0558	5.5294	6.7670	-2.8289	10.4853	-3.8271	15.8195	27.5644	-0.5037
1600.0128	-10.0078	-18.5653	-13.2600	-4.2580	-17.4157	-37.3003	-11.8150	-12.4412	-8.9009	-10.4588	-16.4076	-3.3267	-5.9493	-11.6380	9.0749	-27.4192
1608.0129	-14.4118	-20.2860	-10.9353	9.2483	-18.0210	-39.5481	-11.0465	-4.9063	-15.2686	-14.8087	-23.1701	-10.1915	-1.3951	-15.2734	20.4746	-16.4318
1616.0130	7.1998	4.2752	-5.3637	51.9161	19.5037	-8.6812	6.9432	39.5991	12.1918	9.9841	8.6008	16.6783	-1.7430	12.5169	20.9975	2.9162
1624.0130	5.6412	0.0314	-0.5082	25.8317	7.0403	-20.7178	2.3304	30.1317	15.5007	10.7296	15.1362	12.9629	-1.4411	5.6829	0.9622	-2.4135
1632.0131	-3.2763	0.2619	-12.4809	16.5276	9.9220	-17.0145	-0.1742	22.4037	0.4679	1.3924	-6.6265	-0.7366	0.4139	3.7978	5.4049	4.0935
1640.0132	-4.3252	-6.9050	-8.1797	4.4460	-4.0961	-26.6893	-3.6813	7.9411	0.9836	-0.7785	-3.1189	-1.2115	-1.3007	-3.6837	-7.3864	-7.8529
1648.0132	-2.4740	-10.6049	1.2109	2.4798	-3.0117	-34.0846	1.1699	1.8457	4.8029	1.1906	5.1790	2.4797	2.0922	-6.9904	-2.4500	-4.4014
1656.0133	4.8297	9.6957	-13.3967	31.7887	28.3468	-7.8159	6.1958	14.2364	10.7669	11.8554	6.0458	9.0357	1.1823	12.5843	9.3460	9.2124
1664.0133	-2.8211	-2.3426	-14.1443	-9.4493	-5.8559	-25.3911	-14.3833	-15.1038	6.7349	5.0955	4.5956	-1.8481	-1.8628	-4.1069	-15.1439	-11.0731
1672.0134	-6.1210	-5.8805	-22.9214	-14.5481	-13.5598	-17.0659	-14.5146	-2.3837	-2.0161	-3.1536	-8.0863	-4.1541	-5.5897	-3.7990	-16.6049	-16.6130
1680.0135	1.7215	11.5858	-22.8531	15.9688	9.7859	9.5729	2.4390	33.1369	1.0411	2.6372	-11.8632	1.3853	-12.6321	16.9247	-19.9565	-16.6500
1688.0135	-1.7931	-0.4595	-10.6433	-13.5756	-12.0599	-9.5121	-8.2429	-1.9718	2.5644	0.7620	-0.8470	-3.3696	-7.1591	-0.7895	-30.0117	-19.0152
1696.0136	-4.5588	-3.0671	-23.9595	-0.1951	-10.3891	-6.5377	-8.7545	-10.0947	-2.3095	-2.5751	-4.6882	-4.7012	-2.3542	-3.9414	-18.2442	-8.4993
1704.0137	1.2883	6.2739	-8.9404	17.0857	3.0892	-6.3468	5.1141	9.3864	5.8956	5.2942	2.5279	-2.0760	-4.7288	5.2460	-29.7656	-9.3148
1712.0137	3.7222	2.9307	15.3340	-10.4581	-2.4940	-13.1923	0.6406	-10.9848	11.0087	7.9448	14.3629	0.3383	-1.9723	-1.2046	-40.3785	-9.8944
1720.0138	-5.4092	-2.7798	6.5449	-18.8667	-5.8283	-4.8729	-4.1229	-29.4004	-9.1394	-6.6726	-11.3927	-10.1433	-1.5695	-6.5054	-16.3784	-10.1870
1728.0139	-2.4004	-1.7208	-13.7154	-12.9286	-4.7133	-5.6775	-8.9431	-30.2203	-2.2583	-1.1800	-5.7214	-2.4141	-5.5335	-2.1230	2.0156	-18.7146
1736.0139	6.9525	5.8117	-26.4053	-1.8592	-4.5953	7.3970	-10.1337	-18.5601	12.4171	9.6293	12.0301	10.3858	-10.6628	6.9683	-10.2636	-25.0935
1744.0140	-0.8005	5.3048	-11.7203	1.9127	-8.6070	12.1640	-1.8207	-11.5693	-4.5257	-2.7477	-9.5793	-6.6084	-10.7913	3.4101	-18.5283	-24.3525
1752.0141	1.8402	4.3825	-9.3874	-4.2357	0.0166	-4.9036	-11.8133	-24.0570	5.5637	5.6583	2.3792	2.0859	-7.0268	2.7487	-11.5001	-19.3694
1760.0141	-1.3387	-7.1423	-17.5421	-19.8713	-12.6107	-22.2427	-20.1583	-30.4554	6.6959	3.2249	6.2424	4.5324	-4.4664	-6.4031	-17.8170	-20.6268
1768.0142	-4.0478	-9.5886	-3.1171	-7.9771	-17.2465	-6.9065	-2.7063	-14.9386	-5.2515	-6.9900	-3.1407	-3.9206	-1.0185	-9.6743	-12.9792	-10.3812
1776.0142	18.4338	21.4021	7.6768	25.7536	30.1283	30.0350	11.4851	2.2892	20.6493	19.9202	24.9523	20.7358	-2.8646	20.9850	-2.3931	4.9153
1784.0143	14.2910	17.5468	19.1616	-2.0978	28.2616	4.8498	6.4245	-10.0505	20.8741	20.0907	22.2181	14.5439	-3.5986	15.9191	-11.7180	-3.8950
1792.0144	7.8945	5.3816	31.4375	-11.8783	-0.0578	-5.6079	3.7893	-15.2658	13.2420	10.4573	19.0194	3.6283	-3.3335	0.9623	-13.5684	-13.2212
1800.0144	12.9136	17.5705	33.6324	10.4986	10.6490	24.4749	12.1807	0.6383	12.7755	12.6910	18.7701	4.8282	-3.8420	11.2345	-7.9871	-3.1858
1808.0145	-3.1269	-0.2591	23.6431	-14.3933	5.3251	-0.3087	4.2807	-10.8718	-8.6879	-5.5357	-9.8157	-7.5699	2.8336	-2.9370	-3.4562	4.8797
1816.0146	5.5349	2.0947	13.6621	-4.9611	4.5441	5.0182	-1.2807	-13.8270	5.9729	4.6677	10.3657	7.8467	0.8722	1.1101	-6.0564	0.7034
1824.0146	10.5322	10.1837	19.2228	3.8813	1.3288	14.7361	8.5971	-2.6025	14.6260	11.8732	24.1864	5.4726	-0.0423	4.4319	-14.1011	1.3546
1832.0147	-9.3133	-13.5995	14.9858	-27.7497	-15.4346	-25.0302	-1.2263	-16.5308	-8.8995	-9.4697	-6.6877	-12.7929	5.3844	-16.3973	-13.1418	0.3517
1840.0148	1.4835	6.3666	15.7907	-8.1335	10.5602	3.5258	-1.6894	-13.4936	-0.5722	2.0055	-2.6481	-1.1935	-0.8148	3.4767	-7.9945	-0.8258
1848.0148	15.0691	24.9458	24.9909	17.2969	29.8586	31.0277	9.8488	4.5103	15.8562	18.1084	19.8315	9.7437	0.3207	18.7408	1.7326	13.6630
1856.0149	8.7665	3.4121	23.5936	5.1280	12.6105	-1.1967	2.1354	0.0318	13.0633	10.2746	20.0619	13.3503	5.0862	2.9826	-1.9534	11.9845
1864.0150	-2.7834	-2.9549	21.9603	-9.4777	-1.0022	-13.9326	-0.4691	-17.3325	-2.0254	-1.3689	0.3449	-6.5452	4.3360	-7.6182	-10.0733	2.9814
1872.0150	-7.9738	-3.7705	5.7949	-15.2331	-6.9856	-15.1367	-1.9690	-19.0227	-6.4471	-4.2644	-5.1852	-15.9174	5.8867	-10.9530	-6.5223	6.3754
1880.0151	3.6958	3.8532	2.2876	-1.8736	7.7265	4.1069	-0.1549	7.0571	4.6955	3.8699	4.2588	6.4264	-0.4801	5.3479	-14.5442	2.9334
1888.0151	-2.1369	2.6387	2.3922	-1.7841	7.0139	6.6065	4.8117	5.8889	-6.5625	-4.0516	-9.9489	-4.3188	0.9405	2.5190	-13.1373	6.4293
1896.0152	-21.0189	-23.6403	-23.9867	-33.7362	-28.0222	-36.3237	-5.4533	-26.6378	-20.6813	-19.5735	-21.9835	-25.3775	8.0436	-26.0935	-7.8372	1.7846
1904.0153	-17.5164	-17.1636	-30.2494	-42.6688	-24.4064	-30.5782	-3.1183	-27.4239	-15.1735	-14.0777	-18.0975	-23.8533	2.9321	-19.5058	-7.0893	-7.3501
1912.0153	-7.7481	-0.5665	-30.6082	-17.8000	-6.6323	1.3832	-0.8377	-19.3768	-8.1852	-4.8707	-10.9056	-14.4688	0.3354	-4.2468	6.1022	-1.1146
1920.0154	-12.5426	-15.1776	-37.5359	-16.4191	-26.8309	-15.0327	-15.0016	-33.9994	-11.7892	-11.6469	-11.9936	-12.8996	1.1195	-17.0959	0.5149	-9.5620
1928.0155	-23.2928	-19.9914	-34.6426	-23.9844	-29.0408	-35.8918	-16.9484	-35.5058	-23.3842	-19.6760	-29.8481	-29.2210	3.6377	-24.3371	-0.0076	-7.8488
1936.0155	-9.7275	-2.7333	-25.4699	-1.5874	-5.6978	-10.8104	-7.2502	-4.4254	-8.3433	-5.3124	-13.3461	-13.6449	2.0261	-5.3684	4.4667	3.2091
1944.0156	8.1376	6.0077	-6.5605	1.6287	0.1680	12.7295	-1.3725	12.9478	11.3949	7.8697	13.1316	11.9382	-5.2917	8.5186	-18.5644	-6.5423
1952.0157	-7.3961	-9.1259	-5.9751	-20.7176	-9.2072	-18.3621	-7.1083	-9.4817	-5.8063	-6.1234	-7.5779	-6.7356	2.1490	-9.0056	-13.2376	-1.2925
1960.0157	-15.4950	-21.8072	-7.7973	-17.2211	-16.9135	-33.3290	-5.7787	-17.1223	-15.7415	-15.3023	-15.2938	-14.1484	10.1170	-21.6877	10.5677	9.4195
1968.0158	-9.7995	-19.2054	-5.6102	-2.5659	-15.8469	-19.3668	0.2611	-12.1575	-12.4000	-13.4327	-9.6315	-6.3836	7.0731	-17.0428	8.5909	4.9543
1976.0159	-15.0026	-19.5700	-11.4206	-6.0862	-17.1084	-25.2163	-7.0994	-26.6898	-18.3038	-16.6834	-18.9700	-14.3502	7.3333	-20.3583	5.2131	3.2007
1984.0159	-11.1880	-18.2706	-8.6404	-17.0429	-28.3493	-17.9521	-10.7921	-33.0545	-11.8862	-12.7714	-7.2096	-12.2282	5.0207	-21.5719	2.4446	-3.7015
1992.0160	-11.0751	-15.8520	-25.9298	-13.0775	-28.2806	-13.8946	-16.2803	-26.0919	-11.5086	-12.3489	-11.3521	-9.7827	0.2392	-16.6742	-6.4527	-10.8098
2000.0160	-2.9337	4.7314	-23.7656	17.8134	10.2185	4.8490	-9.8266	5.4948	-5.1260	-1.8086	-13.8326	0.2663	-1.9217	6.5158	-10.2750	2.6137
2008.0161	17.4867	25.7993	1.6205	25.5813	31.8457	31.2342	4.5543	30.6996	22.2340	21.6609	22.5985	20.0296	-3.0644	25.9454	-14.0736	12.5790
2016.0162	-0.6055	-1.9924	-8.8275	-17.6159	-8.6304	-3.8252	-5.2590	3.3998	4.4241	1.8864	7.1802	-0.2653	1.6466	-2.9650	-17.6073	3.3518
2024.0162	-8.8997	-3.5661	-8.7020	-18.8540	-2.9584	-4.2283	1.5531	-3.1739	-11.5103	-8.3728	-14.5900	-14.0266	4.0514	-5.7206	-3.4017	8.7107
2032.0163	12.7766	26.3981	1.2270	14.6409	36.9623	19.4768	14.8507	13.7893	18.4622	21.1085	17.3180	7.2738	-0.7799	22.6986	2.6281	12.9095
2040.0164	8.3824	8.5310	12.2143	6.8180	15.8257	0.6531	9.7080	5.7153	13.1069	11.5038	15.8187	8.6964	0.4189	8.2105	-9.8511	3.9302
2048.0164	6.3499	-1.6744	28.4250	7.5333	13.5059	9.2645	15.2208	9.2857	0.7809	-0.6208	5.6453	11.9785	4.7595	2.7396	1.5178	13.0440
2056.0165	4.0608	6.0101	15.4833	5.4317	19.7616	11.7048	14.3713	20.1925	-1.1479	0.8174	-3.9231	5.0020	0.4122	9.9152	12.4623	9.1091
2064.0166	-2.4756	8.9233	11.3697	-7.8845	0.3255	21.5312	13.7517	31.8449	-11.8336	-7.3401	-20.0552	-13.6090	-7.8040	8.8858	1.2306	-7.1594
2072.0166	6.2081	11.3476	8.3171	-3.3590	9.8881	17.2665	14.0555	28.6769	3.9111	4.4235	-0.3648	2.4432	-8.0433	14.2733	-1.8368	-8.1801
2080.0167	-6.1482	-10.8325	-4.5943	-14.4241	4.1530	-29.8137	5.9987	8.1276	-4.7446	-5.1896	-11.8941	-1.2562	-0.7358	-2.8034	10.7039	-6.8770
2088.0168	-3.3525	0.7373	4.4569	4.2683	3.0181	8.2348	12.7035	20.9292	-10.6597	-7.4632	-15.8264	-7.5747	-1.9526	3.2694	20.7915	0.4636
2096.0168	9.4424	15.6001	4.3410	4.5406	10.0925	21.9921	6.7980	13.8918	10.8836	11.1085	11.4014	5.1330	-5.5975	13.9080	4.6602	-3.3489
2104.0169	-7.3796	-8.0960	-3.2483	-34.4238	-11.8588	-12.3475	1.6681	-1.4579	-7.9753	-7.7521	-10.8619	-10.6748	-1.2860	-6.8172	2.3768	-7.6439
2112.0169	-1.6113	3.7788	-6.2033	-17.9485	0.8626	13.7589	12.6427	25.9334	-6.3123	-4.1802	-11.9646	-6.7458	-5.1413	7.1871	17.2998	-3.7713
2120.0170	-4.2045	-2.6715	-10.5473	-31.8135	0.6097	-14.0635	-0.2152	10.4791	-2.2013	-1.7055	-10.2674	-3.7752	-5.0601	2.5187	12.2903	-11.1550
2128.0171	-13.6699	-13.2194	-11.2466	-32.1045	-17.0164	-6.1469	-5.7195	-7.5936	-21.0517	-17.7528	-26.4731	-16.0991	0.6570	-11.5874	21.8604	-3.1515
2136.0171	4.5458	11.9111	-10.2657	10.3858	-0.7229	29.2712	-1.5810	3.6304	1.1554	3.3100	-0.2137	-0.1496	-7.2075	9.6019	14.8977	-8.3055
2144.0172	-9.9135	-11.0764	-7.5683	-29.5690	-18.6588	-30.3467	-14.9491	-16.8437	-6.8891	-7.2081	-13.7375	-10.7350	-6.0165	-10.2384	-8.9509	-24.7819
2152.0173	-12.6152	-10.0183	-11.5346	-22.2768	-24.7591	-6.7283	-12.4395	-8.1796	-16.9433	-14.8063	-21.7376	-17.5090	-2.5052	-11.8202	-1.9695	-11.0445
2160.0173	14.4915	19.1282	-0.9706	23.0900	6.1030	36.1335	-1.6232	10.7870	15.8076	14.4535	19.0473	13.4005	-8.4086	16.7701	-6.1932	-7.5811
2168.0174	10.2546	2.0269	10.7405	5.5547	14.3203	4.6455	-0.0588	6.9197	11.3263	7.7959	13.0260	21.7058	-1.6893	8.8235	-5.8054	-0.4302
2176.0175	3.4883	1.5016	-0.4270	9.7783	11.4607	9.1975	1.2253	11.2912	1.9473	1.6351	3.1181	9.5850	3.9928	4.6138	2.3198	14.9182
2184.0175	-2.9568	-4.7488	-3.5520	-3.1519	-9.5752	-1.7612	-5.1062	-15.3566	-2.3629	-2.7502	2.3249	-3.9874	4.8263	-8.4298	-3.5758	6.3915
2192.0176	-5.1905	-13.0180	-8.9956	-12.1470	-7.0069	-1.6609	-6.4782	-23.0162	-10.5053	-10.5541	-8.6792	1.7292	4.7893	-10.0355	4.1962	4.7774
2200.0176	10.8239	7.6123	-3.5750	13.9947	16.4018	33.7518	3.5133	4.9430	5.3963	4.7816	8.5084	19.4952	-0.0838	12.2927	4.0819	10.2152
2208.0177	15.2904	4.5759	16.0333	14.1446	8.5290	36.6802	7.0433	7.0020	11.0871	6.9544	23.1247	24.6279	3.1783	7.9923	4.9788	14.7974
2216.0178	11.0220	2.3600	18.3820	4.3226	14.9438	19.0866	4.1304	6.8049	8.7114	5.9284	16.1719	20.9329	5.0318	6.5453	4.0098	17.3424
2224.0178	0.4452	-1.9635	20.9524	-21.5621	5.5838	0.7954	-3.1236	-5.0141	-1.6363	-1.5080	0.8711	2.9303	5.7002	-2.3329	-7.4212	13.2907
2232.0179	-0.4539	-8.4026	11.7670	-7.5840	-14.6341	28.6511	-6.0213	-3.9259	-11.1376	-11.7432	-2.0718	3.6414	7.3295	-8.6877	6.9482	18.2852
2240.0180	6.4694	6.9210	5.0214	21.2801	6.8328	41.9924	1.5393	18.0591	-2.6863	-1.5538	2.2277	9.7599	4.1273	7.3336	8.6199	22.4277
2248.0180	-8.2229	-5.5650	9.9017	-16.9821	-3.5133	1.1113	-0.6169	-1.6754	-14.1116	-11.0667	-13.6922	-11.9061	8.3590	-8.6818	-4.0768	18.9562
2256.0181	-10.7964	-12.4996	6.2655	-25.1721	-18.4858	3.9651	0.2853	-1.1126	-19.6146	-17.8596	-17.8512	-14.5847	6.4284	-13.9645	-1.9506	11.6533
2264.0182	-5.8686	-7.1880	15.8684	-17.4352	-7.9083	6.5992	7.0787	13.0515	-14.1438	-12.6772	-13.6194	-8.7529	4.1237	-6.3434	5.6360	10.4325
2272.0182	-13.9136	-21.8468	9.1628	-23.1667	-26.0123	-3.3857	-5.4461	-10.3343	-25.0826	-23.7405	-22.1543	-13.5882	8.3075	-21.3779	17.1020	10.2269
2280.0183	-0.5317	4.4243	-0.5065	13.5775	-4.1811	31.4127	-1.7548	7.0382	-11.0108	-7.7652	-12.1729	-3.3182	-1.9926	3.0350	3.9285	3.2241
2288.0184	17.9569	29.8677	12.8607	32.9543	34.5005	56.0813	14.3916	32.6404	13.0192	15.6818	14.2875	15.6767	-2.3796	28.1761	-5.3947	19.0901
2296.0184	15.7984	10.5107	17.8972	20.8653	13.8060	44.0865	5.1841	17.2328	12.2851	9.5628	25.0817	22.6237	6.9535	10.5900	3.4778	29.0272
2304.0185	2.5699	0.2742	29.6584	0.3166	0.2484	8.0203	-2.5487	6.7624	-0.2990	-0.7767	4.7148	3.1130	5.0057	-1.9390	-4.5471	13.4036
2312.0185	-8.2901	-7.7632	24.8228	-8.4315	-5.5331	-8.3272	-3.2743	2.7291	-14.3556	-11.7913	-15.5565	-10.9267	5.9372	-9.7382	0.6046	10.8067
2320.0186	0.8164	-2.5220	13.9539	20.9050	0.1041	12.6458	3.5245	15.5849	-4.4479	-4.3675	0.5995	2.9464	7.0226	-2.3796	13.7373	19.5884
2328.0187	7.1161	7.9568	20.5455	25.1041	23.3862	0.8014	6.1274	9.8865	11.0776	11.2962	16.9840	8.9866	10.3634	5.2209	14.8822	28.5489
2336.0187	-11.9893	-17.6279	4.1554	2.3631	-14.7386	-33.4958	-12.7786	-27.8566	-10.1036	-9.8000	-6.5520	-10.9430	11.1460	-21.8169	6.9900	10.1424
2344.0188	-18.2327	-18.7529	2.0181	11.3635	-31.1484	-33.9215	-5.9963	-7.5048	-21.6488	-19.9750	-26.5018	-25.2728	-0.0909	-21.7897	-8.7119	-15.3141
2352.0189	-0.6305	6.8670	19.5554	27.7207	15.1764	-21.5636	8.5176	26.7443	3.0804	4.9256	-4.5162	-5.2948	-2.2174	6.4483	-5.4412	-2.7929
2360.0189	5.4443	2.2039	27.5945	25.7209	14.5237	-18.0522	0.4671	13.8245	10.9927	9.1470	12.2920	9.9401	3.1211	3.1327	3.5355	6.5082
2368.0190	2.3206	0.9565	27.6924	18.8754	6.7357	-16.7372	3.6864	13.2987	6.2937	5.2157	7.6490	1.8908	2.5752	-0.1069	2.7071	3.9623
2376.0191	-4.6150	0.4242	8.4547	-0.5544	4.6845	-32.1407	0.0806	7.5192	3.2270	3.9563	-1.4850	-9.2863	1.0255	-2.0137	-4.5125	-1.6233
2384.0191	-17.2825	-16.7751	-0.3339	-18.2921	-23.4433	-51.7992	-11.6446	-14.0068	-11.8200	-11.2923	-17.8312	-23.1504	0.8272	-20.0671	-13.2170	-14.8246
2392.0192	-13.2480	-12.2280	-5.1072	-4.6210	-22.2690	-43.1089	-14.0967	-12.9451	-7.0692	-7.0604	-12.4278	-18.0146	-1.9697	-15.6245	-10.6396	-18.7456
2400.0193	-4.9922	-0.5918	-6.4861	3.1855	-8.6198	-34.3831	-16.2180	-11.9372	6.0919	5.7254	1.9243	-8.7812	-3.3962	-5.4055	-6.9109	-16.4064
2408.0193	-0.9635	2.5584	16.1886	5.6476	4.0635	-22.8652	-6.3588	-2.5553	6.0805	6.5946	5.1404	-4.3154	1.6938	-1.9354	4.6453	-0.1848
2416.0194	13.0775	16.7983	25.1276	30.2355	18.9654	10.7548	4.7015	23.6083	17.1686	16.0741	18.2932	12.7495	-3.7818	15.6347	-2.6233	0.4680
2424.0194	17.6847	22.0233	19.5587	30.8209	13.9017	11.1816	3.0514	22.5516	26.6613	22.8601	27.7208	16.0574	-11.3256	20.0272	-33.2831	-17.0609
2432.0195	6.5403	0.4883	2.1445	3.6613	-0.0367	-23.2299	-6.8293	-9.1697	19.3813	13.7789	23.2461	11.2394	-2.0539	0.1627	-25.2340	-11.4324
2440.0196	-9.3178	-19.8663	-19.2361	-9.1624	-22.3823	-34.6665	-13.4907	-33.1685	-4.8073	-7.9293	-3.6732	-3.7245	1.3673	-18.4010	-8.4605	-14.4565
2448.0196	-11.0236	-12.5705	-19.3607	4.4493	-19.3659	-15.9434	-5.7553	-22.2634	-14.2980	-13.2457	-18.5504	-12.3058	-3.0118	-12.4911	-10.5198	-17.6204
2456.0197	2.5719	-1.0912	-14.0840	8.4896	-2.3336	-5.4225	-3.4442	-5.0571	6.0199	3.4812	5.1783	7.2080	-4.8697	1.8238	-12.2919	-13.5417
2464.0198	-4.2355	-5.8682	-13.1315	-13.0677	-18.3838	-18.6455	-3.6512	-5.2272	0.5236	-1.8883	-2.4978	-6.6769	-7.6849	-5.2259	-18.3614	-25.2192
2472.0198	-10.0214	-4.1106	-23.7666	-2.2707	-14.8859	-15.6382	8.2243	10.6563	-8.4312	-7.2041	-15.1382	-19.0291	-5.0733	-4.6089	-6.1783	-15.0387
2480.0199	8.3008	7.3093	-24.7915	22.0467	11.3829	8.5643	14.4050	27.8390	13.7553	10.8392	14.1064	12.1432	-3.2752	12.9375	7.9646	0.5398
2488.0200	14.9695	11.6970	-13.7313	10.6041	17.6329	13.3107	5.5643	15.6439	22.6713	18.2833	25.4580	22.9778	-4.4304	17.0161	0.8863	-1.4342
2496.0200	8.3855	10.0124	-8.6021	-3.3511	13.8643	6.0084	0.1938	8.3576	14.1944	12.5703	13.3097	11.7406	-3.7632	12.2968	-3.3829	-2.0529
2504.0201	6.8743	13.8969	14.6069	4.8654	15.0611	7.1416	15.1175	17.8576	8.8767	9.8181	6.7891	0.2437	-4.8918	12.6638	1.1408	-4.3935
2512.0202	7.0967	13.6885	22.4341	11.7741	20.6453	-7.1255	19.3745	10.0526	12.4660	13.4508	11.1793	-0.7912	-3.0104	11.0256	8.1304	-4.6230
2520.0202	1.5806	0.1859	7.8588	-3.1895	15.0873	-21.7933	5.0123	-15.4084	6.6183	6.8476	5.2829	3.0525	1.0255	1.1426	15.5599	-3.3944
2528.0203	-2.6947	-0.1911	3.5366	3.5066	12.1211	-4.5917	3.1725	-19.2458	-7.0542	-3.0967	-11.2439	-3.1653	0.6759	0.0781	20.5239	-1.1822
2536.0203	3.6605	7.6327	4.9946	20.5161	9.7372	8.4107	5.5192	4.5374	1.3120	3.0234	-1.6970	1.9865	-4.4197	7.8343	5.0689	-6.3034
2544.0204	11.0421	12.4436	18.3846	8.7999	6.4872	22.3020	9.9360	20.0106	9.2818	7.7199	9.5311	9.2225	-9.0029	13.7847	-15.0612	-12.3180
2552.0205	7.5924	12.0932	4.4376	2.5227	5.2740	21.7869	4.2093	1.4099	6.1969	6.3988	6.2005	4.1710	-6.8291	10.4604	-14.6015	-9.3587
2560.0205	-8.2863	-10.6382	-18.7926	-15.3288	-26.0796	-19.2849	-16.0225	-27.8086	-4.7326	-6.0604	-5.3678	-10.0031	-3.5210	-13.3645	-13.0085	-20.1887
2568.0206	-11.7628	-12.1370	-6.9046	-20.7263	-27.8249	-10.1228	-14.4262	-23.2183	-16.5921	-15.1145	-20.6723	-15.6253	-4.8520	-13.9822	-5.4486	-21.1382
2576.0207	-1.9631	3.1189	-4.2439	-9.9048	-2.5795	4.7339	-8.0742	-7.4615	-4.0980	-1.9219	-8.8512	-4.4586	-5.1161	1.9435	-1.5539	-10.5016
2584.0207	-4.3126	-3.5222	-6.5527	-30.0598	-13.4196	-25.4119	-5.9231	-6.2991	4.9352	3.0235	3.6134	-8.9877	-3.1290	-5.8231	-6.0833	-14.5734
2592.0208	-2.6290	2.6714	-12.1190	-21.6323	-4.5802	-17.0877	1.0299	-3.6050	5.0989	5.0664	1.2767	-9.5689	-5.3032	0.4809	0.3988	-15.5969
2600.0209	1.0793	1.5621	-20.9149	-5.1728	-0.9845	-12.4767	-2.7904	-2.8551	8.6986	6.9718	5.8862	1.9240	-5.5299	3.1783	0.9535	-14.7283
2608.0209	4.7363	0.4952	-9.0120	8.6499	-1.2220	-1.0833	3.6824	11.4521	9.3840	6.0675	11.5131	7.9735	-2.4994	3.5524	4.4694	-5.0197
2616.0210	11.2400	13.7133	-1.2048	22.0417	22.3801	10.2169	6.9390	13.3758	15.0500	14.2471	13.8546	14.6110	-4.1289	16.2980	0.6904	-0.9875
2624.0211	-2.6177	-8.2835	7.2693	-13.0742	-4.4673	-31.3607	-3.4533	-12.1847	2.6273	0.2843	0.3136	0.0083	-2.7352	-5.9509	-9.7937	-16.6845
2632.0211	-3.0983	-13.9203	14.3849	0.1044	-20.2815	-17.5100	3.4470	0.7792	-4.4879	-7.9759	-3.0132	-1.6429	-3.9239	-10.2172	2.3871	-19.6797
2640.0212	5.4651	-2.9555	7.8053	14.5284	-7.6011	-2.4835	0.3237	7.9662	6.5718	2.6220	8.0420	10.3649	-6.9195	1.6801	7.2181	-18.6851
2648.0212	-4.4988	-12.3458	-0.6298	-10.8325	-17.6473	-21.1820	-5.0468	-4.0160	-2.1303	-4.7801	-2.2255	-2.2366	-2.6607	-9.3676	14.1762	-15.6839
2656.0213	0.4520	-2.5794	-5.8737	11.2737	-11.5406	0.8887	5.9986	14.7195	-1.2769	-2.8229	-4.2781	0.0466	-9.4758	2.0316	13.6660	-22.6273
2664.0214	-5.2010	-13.2971	-4.1498	-17.4244	-28.8569	-27.9320	-8.8841	-7.3803	-1.7324	-5.7733	-6.0320	-4.3306	-12.4780	-9.0696	-6.1578	-41.7092
2672.0214	-16.1550	-25.0071	-22.1539	-29.7486	-39.6707	-40.8179	-16.8311	-21.2749	-12.7360	-15.3081	-15.7716	-15.3360	-3.1953	-22.9231	4.7348	-26.4040
2680.0215	-2.1518	-1.7780	-36.9852	21.5187	-9.9596	-0.3150	-0.5292	16.3663	0.7885	-0.4788	-1.8750	-0.8239	-4.2393	1.3791	10.2844	-7.8884
2688.0216	-1.9479	-4.5569	-22.9586	2.4214	-15.6945	-10.4365	-15.1188	-3.3983	4.9239	2.1564	6.1823	0.7808	-1.4596	-5.0290	0.3375	-7.2841
2696.0216	-5.0041	-13.5844	-15.4164	-9.0576	-28.2612	-11.0973	-25.5022	-24.0635	-2.2509	-5.6410	1.5977	0.7591	-0.1664	-14.3842	-5.9394	-10.7485
2704.0217	-4.1470	-11.2596	-7.6305	0.0725	-23.7046	-8.9639	-3.9284	7.9049	-5.0997	-8.5874	-6.4607	-1.6740	-6.3365	-7.1226	-19.0951	-20.1388
2712.0218	-1.7180	-1.6945	1.9019	8.6048	-4.4542	-1.8470	4.0056	26.4045	-3.6582	-4.2636	-7.8469	-1.6884	-3.9900	1.9547	-8.3702	-6.1833
2720.0218	17.5612	17.9586	12.4100	37.2207	23.2459	30.5293	2.0159	30.5376	18.4903	16.2169	21.0032	24.9163	-3.5034	21.0495	-7.2698	7.7009
2728.0219	18.2429	15.0842	17.9355	22.2025	16.7367	19.7451	4.8559	25.2244	25.1772	20.0758	33.6773	23.5314	-0.0115	15.5098	-14.9948	10.5475
2736.0219	10.4067	18.3522	9.9633	20.1538	19.8923	24.1036	9.9807	24.1776	12.5556	13.3091	15.7297	6.5103	1.8498	14.7434	-1.4490	17.5713
2744.0220	11.9569	20.3581	11.0927	15.6176	26.0540	25.2456	9.2667	12.7356	11.2670	12.9424	9.3847	10.0381	-4.7259	19.5133	-10.8055	2.0636
2752.0221	3.5351	0.5213	1.6691	-11.8972	3.2763	-6.4526	-5.3309	-21.7607	7.5783	5.8577	9.6311	6.5562	-0.7353	-0.0560	-13.7831	-5.9551
2760.0221	5.9814	7.0074	0.2563	14.8337	9.3840	10.7421	-1.3923	-12.0083	7.5633	7.7205	11.8629	6.9105	2.3951	3.9692	3.7569	7.4116
2768.0222	10.0940	12.5813	5.2892	20.0610	18.5796	16.1181	10.0719	10.3930	12.0974	11.7730	15.2687	10.3334	0.6616	11.9241	3.0250	9.3845
2776.0223	0.6691	1.6550	-9.8908	-4.3985	1.8852	3.1439	2.6696	-3.2978	2.1759	2.0352	3.3999	0.0054	1.1518	0.9837	-3.2663	3.5341
2784.0223	2.5640	5.4727	8.0110	-2.6892	5.1385	13.4627	5.2952	-1.6380	-0.5269	0.8393	0.2636	-0.4928	-0.4480	3.7648	-1.3167	2.2912
2792.0224	10.9132	5.2421	20.4246	-1.2797	15.7573	1.8091	5.5569	11.7398	16.2671	12.7495	22.5427	16.6103	3.6463	7.3216	5.1219	12.0170
2800.0225	11.7449	6.3435	8.1145	8.4570	13.7829	8.2554	-1.9460	14.2349	17.9975	13.8584	25.0981	20.2050	4.3166	8.2383	-2.0937	16.2463
2808.0225	10.0739	19.7571	16.3358	17.9454	25.5109	30.9021	4.7601	19.7690	7.4093	10.1810	7.3614	8.0822	0.8819	17.0136	-5.0872	17.7879
2816.0226	8.5202	19.7840	17.1461	6.7154	31.7185	19.4223	8.3544	21.3334	9.9757	13.2852	10.3150	4.7200	5.3979	15.9619	8.6812	27.2725
2824.0227	-1.3195	-1.5593	16.8331	-19.3525	-2.4942	-2.7735	1.9471	1.8484	0.2002	0.1143	5.4085	-5.1912	7.1363	-5.4129	8.7199	15.2347
2832.0227	-14.0236	-14.9152	7.7383	-24.2117	-23.1484	-19.2369	-9.8188	-22.5993	-16.8049	-14.6295	-15.4879	-20.1398	6.4017	-20.4045	12.7095	2.5721
2840.0228	-9.1079	-5.7681	-5.0861	-4.6435	-6.3965	-8.7257	-13.2644	-17.4532	-9.1878	-5.9808	-7.5712	-11.8083	9.7045	-11.7967	20.6888	17.8839
2848.0228	0.7795	-1.1202	-4.5683	-6.0450	-2.7847	12.9342	-5.0030	0.5532	0.9025	0.2093	7.9929	2.7474	8.4157	-3.3651	8.4252	22.2634
2856.0229	2.6831	3.5611	-10.0371	2.9485	7.1380	13.9091	3.8265	15.6785	2.0913	1.8455	3.2565	5.1674	2.8438	5.3715	-1.7996	14.0789
2864.0230	7.9968	12.9174	4.7158	17.0024	26.9077	18.3329	15.0608	25.3053	7.6931	8.9513	8.4850	8.7042	4.3094	14.0643	4.5641	22.6728
2872.0230	2.4675	-0.1301	0.7480	-5.9419	9.8211	9.6240	4.5954	-2.0850	1.4817	1.4587	6.8826	5.7927	8.4906	0.1377	10.6592	22.3123
2880.0231	-11.1942	-8.0261	-16.7631	-18.0985	-6.2050	-2.2531	-8.2042	-27.0172	-16.0089	-11.7801	-17.2153	-13.3649	7.1732	-11.3538	10.5849	11.9369
2888.0232	-1.5488	7.9752	2.7780	-6.2871	9.7747	20.0245	3.1443	-13.8862	-7.0648	-1.5308	-6.1334	-9.1041	5.4904	1.4529	17.6637	17.3699
2896.0232	4.5963	5.7285	6.3273	-8.3186	10.2417	14.1209	-1.8701	-15.8561	3.3747	4.7037	6.9545	5.1101	3.1588	3.2949	13.4137	9.6822
2904.0233	-13.4001	-15.9886	3.3580	-26.8711	-16.1155	-21.3235	-11.9519	-31.6116	-17.4758	-15.1036	-19.0294	-14.6709	4.8217	-18.2066	5.8778	-1.5569
2912.0234	-13.0163	-18.9388	-4.5007	-29.4090	-24.8044	-15.5635	-10.7219	-24.7239	-15.6315	-15.1492	-11.8157	-13.9518	8.2299	-21.4262	17.5795	6.6754
2920.0234	-0.0620	-2.9991	-18.9120	-10.5869	-5.6404	10.1672	-10.0549	-8.9145	0.3962	-0.4522	4.5079	4.3927	3.9993	-2.8656	12.3489	10.1377
2928.0235	-5.1022	1.2930	-10.0175	-5.5638	-2.6443	17.3512	-1.8136	-5.7414	-10.8797	-7.0918	-10.4048	-9.8983	4.9724	-2.9863	3.4652	15.2647
2936.0236	-11.0980	-9.3220	-19.2475	-15.3872	-16.0937	2.6965	-1.4085	-17.0771	-15.7937	-13.2592	-13.8221	-16.1525	6.8384	-13.3445	2.1283	11.2588
2944.0236	-13.2588	-14.6690	-22.3950	-26.2381	-13.3880	-16.4535	-7.6797	-29.8935	-16.5960	-14.5999	-20.2528	-12.8683	2.8921	-14.3201	-8.3583	-3.1894
2952.0237	-16.1844	-14.6861	-17.6159	-25.1148	-15.4528	-14.3423	-8.9476	-30.9708	-22.3455	-18.3309	-27.0485	-18.9175	3.7562	-16.3844	-1.2642	-1.0996
2960.0237	-5.9434	-5.9370	-25.6840	2.5129	-8.5429	13.1339	-0.4250	-9.3752	-12.3828	-10.4265	-12.1509	-5.5197	2.7864	-5.4539	8.4677	6.4767
2968.0238	9.9168	12.3539	-12.3490	22.8360	19.7062	39.3773	11.9154	11.4226	4.5289	5.6294	7.1513	13.2829	0.9299	14.6732	6.8373	15.7287
2976.0239	7.2282	13.9420	-6.7990	2.1129	12.5829	24.6367	9.0248	2.5728	7.9987	9.1061	10.8724	2.8591	0.1879	10.5886	-1.1983	9.2718
2984.0239	1.6281	7.9530	-3.7971	-11.2882	3.5797	17.9488	14.4120	-4.5468	-1.3972	0.6762	-1.2045	-6.6507	-2.5194	5.0318	-5.8545	-2.0764
2992.0240	9.1924	8.7998	-6.5189	8.9208	18.7655	40.0177	16.8797	-6.7474	-0.0744	1.4969	2.8186	12.2168	-0.3582	11.9754	6.1126	8.3185
3000.0241	3.3688	-0.8221	-21.2336	1.2128	7.7274	24.3164	2.4646	-24.9044	-2.8207	-2.2849	1.1273	10.2553	3.3216	1.7105	1.7193	9.4885
3008.0241	-4.3708	-5.3041	-13.3711	-13.2259	-3.6892	19.5666	4.7707	-31.5217	-13.5895	-10.8048	-9.5360	-5.6820	5.9181	-7.3707	2.0766	11.1293
3016.0242	-3.1053	-5.1705	-25.1962	0.6272	-12.7087	25.1617	3.8665	-20.1388	-9.5072	-8.4926	-1.5667	-4.8637	6.6437	-8.1721	13.7881	14.2648
3024.0243	-9.2687	-8.5782	-31.8125	-0.2957	-13.9049	-0.3469	-0.8783	-3.3408	-11.0918	-10.0830	-10.9414	-10.7346	4.4720	-9.2338	1.1107	8.0876
3032.0243	3.3532	8.5341	-4.5940	5.8002	16.0830	24.0786	3.7754	5.7967	-2.5363	0.2115	-4.9173	4.7962	0.4836	9.7315	-6.3630	11.2056
3040.0244	13.0678	15.1756	2.5642	11.8769	16.1764	45.5995	2.4964	-4.3495	7.0996	7.6624	11.7358	16.0268	-1.5782	14.4807	-10.6835	8.5760
3048.0245	-3.5550	-1.0567	2.1985	0.2515	3.0485	14.1268	6.5569	-14.8221	-11.7093	-8.3601	-9.9386	-6.6651	5.8944	-4.0155	-7.0077	13.9507
3056.0245	-1.8271	-5.0903	9.0919	1.1717	2.2711	10.8544	6.5181	-22.7389	-9.6695	-7.6761	-4.2305	-1.7117	8.0001	-7.0406	7.3206	15.0111
3064.0246	4.8483	-8.1647	14.8176	-7.1801	-9.2920	14.5309	5.5699	-25.3388	-0.7596	-3.8594	10.2170	9.2114	2.8546	-7.2556	4.4442	-0.2473
3072.0246	3.5392	-5.2687	8.3420	2.1424	3.7668	18.6303	10.1066	-15.3565	-5.3792	-5.6830	0.5829	8.9818	3.7383	-1.8794	12.8685	7.2365
3080.0247	14.8019	11.0376	3.4071	26.5347	16.7681	42.9321	7.3692	-9.2821	9.4258	8.9401	18.8689	20.5134	2.1668	11.3963	20.3938	13.4605
3088.0248	17.6912	12.1367	16.1852	12.7706	9.9900	41.9037	8.9807	-6.2738	16.3178	13.3625	30.8462	20.2766	2.5809	9.7667	13.3961	12.9907
3096.0248	8.3044	2.9152	15.6747	-0.8909	6.5212	18.5501	4.0852	-6.6809	5.7782	4.2553	13.0404	11.8732	2.5388	3.2045	6.2339	7.9677
3104.0249	4.8647	2.5819	22.0324	5.3255	9.3575	4.7119	3.7281	-1.2422	1.3106	1.3553	0.8934	7.3042	-2.3450	4.5695	-2.3914	-4.5086
3112.0250	7.0932	1.9727	29.4227	17.3888	26.5537	1.1624	13.9782	9.0065	1.6552	2.1580	-0.3377	14.7386	0.4896	9.0753	12.4885	4.2125
3120.0250	2.8886	-4.5261	10.7541	18.4415	20.3864	-6.9582	6.8571	-5.9477	-1.0321	-0.4620	-2.2566	13.0207	3.2853	2.5528	27.1881	5.6958
3128.0251	-6.5120	-2.4720	-4.5043	9.0203	5.9090	-24.3022	1.9305	-19.3675	-3.1400	0.0107	-5.5190	-10.8429	4.4151	-6.1180	23.4435	2.4442
3136.0252	-13.3179	-9.7075	-14.6810	1.8810	1.4475	-48.0352	-2.8373	-18.4118	-7.1433	-4.1975	-15.2351	-16.0681	3.1647	-10.8246	13.1310	-5.1868
3144.0252	-18.6362	-25.8785	-11.0729	-15.2868	-16.9534	-42.2771	-8.9250	-10.8814	-24.6128	-23.0910	-37.1205	-12.4105	-2.7356	-16.9131	6.3754	-20.7652
3152.0253	-13.3029	-11.0775	-10.7607	-6.5813	-7.1694	-11.5573	-4.6487	13.2009	-21.8993	-17.8780	-34.4857	-12.0894	-3.3415	-4.7893	16.8739	-8.1247
3160.0253	-12.3742	-5.6501	-19.4021	3.9258	-4.5791	-39.9878	-11.7532	10.7587	-6.2883	-4.1703	-19.5949	-13.9876	-4.0319	-4.0858	0.0642	-13.8320
3168.0254	-20.5213	-20.4446	-7.0990	-13.8468	-22.0718	-60.2433	-9.1340	1.4379	-15.7578	-14.9979	-26.5129	-24.0782	-0.2267	-19.3862	-8.8730	-16.1995
3176.0255	-14.5367	-5.5357	-11.7145	-9.8527	-8.2536	-17.1651	-0.9796	16.6406	-16.0268	-11.5355	-24.7371	-22.4280	2.0156	-6.9412	15.7336	4.4027
3184.0255	-7.6912	8.9775	-19.6822	-0.6724	4.7187	-11.9750	-5.1153	13.7597	-4.8575	0.5134	-19.1349	-16.8016	-7.5094	6.8098	6.6025	-12.2670
3192.0256	-1.2516	8.8253	-7.6578	13.7694	18.9695	-15.1059	5.3528	15.3345	2.5003	5.8442	-8.5474	-4.3358	-4.9706	10.4479	10.5690	-7.0745
3200.0257	1.6777	4.3295	-6.5457	12.2001	14.7134	-9.5700	9.1435	13.0881	6.6964	7.3932	4.8218	1.4191	1.7398	5.8391	28.0005	6.4671
3208.0257	-3.1032	0.2331	-3.1632	-10.3727	0.4932	-20.2304	4.1133	-3.1920	1.4239	2.4147	-3.7857	-7.9891	-4.7056	0.2295	16.8133	-15.4061
3216.0258	1.1857	7.6973	3.9017	4.2225	10.4808	-6.9779	9.6444	7.4136	1.2344	3.5643	-8.2583	-3.6427	-10.7121	9.9961	10.9176	-23.0434
3224.0259	-11.9270	-12.3864	2.2149	-14.2720	-24.1889	-33.6631	0.3654	-19.0659	-12.5166	-11.7251	-20.2588	-19.9834	-10.0608	-12.7488	-3.0040	-38.9493
3232.0259	-25.2773	-32.5147	-9.4068	-40.3912	-43.3417	-65.9570	-10.8532	-69.2118	-25.5014	-24.3218	-32.3228	-32.5117	-4.8528	-34.8551	-1.4729	-46.2772
3240.0260	-10.4077	-14.2432	-11.7658	-11.3508	-10.0773	-27.9464	-3.5213	-61.1461	-14.2975	-11.5560	-20.2535	-11.1076	-5.5675	-13.5798	12.1018	-32.4147
3248.0261	-5.4676	-7.5643	-1.4294	-10.8711	-5.4926	-15.4851	1.8184	-50.8403	-10.8307	-8.4814	-16.7900	-7.6047	-8.9445	-6.7562	-2.8897	-35.0963
3256.0261	-5.3371	-6.8177	-3.3225	-16.9158	1.8167	-28.5129	-0.1777	-49.4017	-4.9441	-3.2173	-11.1084	-5.9816	-5.7184	-6.2025	-5.5400	-28.0614
3264.0262	-4.0628	-0.1818	4.7135	-11.4859	1.3467	-14.2639	0.7836	-14.2783	-5.4487	-3.0315	-13.3452	-8.0223	-7.1014	0.1094	-4.7092	-21.2189
3272.0262	-7.5899	-1.6208	7.2734	-13.4771	-8.1497	-8.5515	2.9570	21.4134	-12.1768	-9.8768	-23.1848	-13.8803	-8.8516	0.7368	-13.2784	-19.0370
3280.0263	-1.7745	3.2536	-1.7911	-3.4137	10.1893	-18.1565	3.1268	26.9827	2.8259	3.1962	-6.0828	-2.0873	-3.7883	6.9532	-9.8184	-4.6591
3288.0264	-0.8261	8.7521	11.0952	-5.7766	12.4517	-21.1617	5.6296	20.0679	6.8382	8.1996	0.2109	-8.0226	-2.1822	6.5087	-9.3668	-2.3656
3296.0264	3.6610	12.8969	16.5365	-0.2543	8.4729	-3.6780	7.8562	29.9560	8.5502	9.0153	3.5180	-4.4053	-6.3626	10.9766	-12.2987	-7.7296
3304.0265	8.0742	5.1744	8.8718	-6.1205	-3.4645	1.5665	0.3393	31.2227	13.5741	8.6496	13.1420	10.3989	-8.6922	9.2353	-20.5322	-14.7017
3312.0266	-8.5837	-12.8914	-13.8790	-37.7811	-23.5361	-28.5766	-10.9859	10.6745	-2.8290	-6.4870	-8.0825	-6.9602	-5.4569	-8.5934	-24.0696	-19.1117
3320.0266	-13.8396	-6.8797	-33.8379	-26.5681	-8.3926	-32.1223	-4.5717	13.5378	-8.1928	-6.6924	-20.6455	-17.2680	-3.4148	-4.1510	-11.0782	-10.1629
3328.0267	0.3379	6.6829	-18.4451	1.6555	3.4180	5.9888	9.4101	28.5642	1.8063	2.1357	-3.7724	-2.9468	-5.3924	9.2504	-8.0226	-4.1811
3336.0268	6.6174	5.9487	-11.3756	0.4280	-3.0923	14.9317	5.5822	28.3351	9.3737	5.8678	10.1278	7.6882	-6.0852	9.3371	-16.1493	-5.9864
3344.0268	2.4657	0.2991	-12.0702	-15.6594	-2.9694	-9.8576	0.5622	24.2319	10.5858	6.4577	9.2475	5.1542	-3.8830	4.5595	-13.7854	-6.2723
3352.0269	-3.7171	-7.4640	-19.6549	-21.7523	-6.9407	-12.5289	1.9464	20.5233	-0.1157	-2.8054	-3.2087	0.0080	-1.3086	-1.1283	-4.8446	-2.6378
3360.0270	-5.0664	-5.6995	-36.1573	-9.5056	-15.4436	2.9724	0.0740	24.5674	-3.0322	-5.0195	-3.7472	-4.2307	0.1385	-2.3061	-2.6935	4.0979
3368.0270	-0.3541	0.2102	-22.5968	-3.4287	-18.8399	1.7210	-1.3534	28.3406	8.2455	4.2225	13.3366	-3.9325	1.1951	-2.0498	-8.0370	6.1788
3376.0271	-1.2714	-10.1518	-11.4385	-15.6141	-20.4069	-16.4452	-6.5220	23.8621	7.1190	0.5712	10.4886	3.7486	0.0105	-6.2042	-14.9533	-2.7191
3384.0271	-8.8399	-15.7202	-10.7597	-26.0225	-25.5380	-15.5422	-9.0156	23.6420	-8.8722	-12.0588	-12.4605	-4.8130	-2.7698	-9.2841	-6.0334	-9.4296
3392.0272	-4.0483	0.2173	-10.0776	-3.8872	-14.1042	4.0847	-9.5241	20.5788	-5.1860	-4.5449	-10.6565	-6.6225	-6.4190	1.0287	4.9425	-10.6284
3400.0273	2.1592	2.9270	-14.8055	12.0024	-4.4967	-8.3876	-13.7247	15.1287	8.8002	6.3462	4.0530	6.2067	-7.8755	5.5386	-11.4633	-15.8178
3408.0273	-2.7799	-5.3650	-3.9707	-3.6227	-21.2596	-21.4669	-13.1351	16.5306	5.9359	1.6563	5.4706	-2.8237	-4.1074	-5.6146	-17.8574	-13.6650
3416.0274	-1.4888	3.4258	4.3163	3.7441	-16.9675	0.4983	-11.8453	18.5721	1.4973	0.8506	0.4157	-7.3182	-4.8043	-0.7803	-7.4318	-8.8176
3424.0275	6.6508	13.7045	14.6606	23.2649	12.5431	17.3914	-3.1694	27.0735	4.2850	5.7862	-0.7119	6.5330	-6.1595	14.2314	-6.6636	-2.2577
3432.0275	24.3036	28.0444	30.9263	41.8430	40.4748	29.8445	10.2836	39.9554	28.9569	26.8855	31.7251	29.4944	-3.7029	29.9664	-2.3030	11.2231
3440.0276	34.6349	34.5468	33.6748	49.8549	47.5970	34.9861	14.9043	39.6796	45.8869	40.2018	55.4765	42.3274	-3.6175	36.0640	-2.0231	12.6357
3448.0277	18.1242	10.5720	28.5219	23.3206	12.0443	19.2898	9.7065	19.6925	22.4897	16.9675	33.8253	23.0912	0.7194	11.3706	0.0983	8.1750
3456.0277	6.5170	-4.2639	15.2533	12.6880	-16.2172	-2.3421	-6.4157	-6.4192	12.2405	6.4446	24.2168	9.4022	1.8294	-6.9442	3.2580	-2.7237
3464.0278	4.2366	0.3500	13.4180	21.7026	-8.0567	-7.4198	-5.0251	-3.3305	8.7515	5.9817	13.0096	4.1856	-2.5850	-2.0989	2.7271	-10.9815
3472.0279	7.0981	9.1971	14.3056	28.6429	4.9449	19.5005	4.7130	15.5587	3.7538	4.1951	4.4438	5.5667	-4.4572	8.8234	10.9382	-3.6966
3480.0279	16.6444	15.9221	14.2297	29.7462	7.8314	20.8950	-8.6531	2.4285	21.5493	18.3946	26.8168	20.0813	-7.0871	13.9243	-0.3650	-9.9898
3488.0280	8.8170	4.2801	23.5142	16.1346	-2.1265	-6.5385	-10.4383	-9.8949	15.9608	12.2886	22.1930	10.7570	-2.2464	0.6779	-3.2258	-9.6262
3496.0280	3.5511	2.2414	15.7204	20.4931	-6.8415	3.3407	-1.5600	6.6724	4.4113	3.1682	8.1432	1.4502	-1.6309	-0.3531	10.5482	-4.4463
3504.0281	7.8899	8.2207	13.0751	21.5213	-10.7051	14.3289	-9.2764	3.3951	9.0504	7.0468	11.5506	5.7809	-9.2805	5.1204	-1.7521	-19.6442
3512.0282	-1.8290	-6.5290	6.6735	2.0194	-25.5265	-1.9231	-20.0372	-19.2024	-2.9384	-4.6515	-0.8535	-1.4327	-5.6658	-9.2099	-1.9731	-21.1369
3520.0282	-7.7514	-10.8838	-9.5657	-3.6478	-27.3930	-11.0012	-21.2869	-18.0970	-8.7310	-9.2102	-10.6469	-7.2036	-4.9250	-11.9603	4.0877	-20.5178
3528.0283	-5.8095	-7.9958	-8.1631	1.7597	-28.4062	-10.0702	-13.7009	-4.7972	-5.5321	-7.0404	-7.9965	-7.8116	-8.3537	-8.5501	-4.2292	-26.6519
3536.0284	-5.7441	-13.6580	-23.4351	11.4197	-32.6514	-11.6487	-12.3217	-0.2801	-4.9397	-8.8225	-6.1654	-2.2620	-8.0472	-10.1539	-8.2430	-27.0484
3544.0284	-0.0054	1.2495	-25.1415	17.3056	-8.2501	-1.1673	-9.9280	2.3534	2.6719	1.4349	-1.8348	2.3191	-8.2778	3.0683	-14.5494	-18.5143
3552.0285	5.8996	12.8266	-6.6940	19.6713	12.7457	14.3479	-5.4875	-5.7586	9.1106	10.3478	11.2685	4.8904	2.0487	7.6326	-8.9345	11.0391
3560.0286	2.0453	-4.4849	-11.2298	12.4465	2.3228	-0.5861	-10.4304	-11.9948	6.4023	3.8854	15.2243	10.7593	11.6083	-5.7452	-2.8696	25.0656
3568.0286	-6.5959	-12.5922	-12.6612	3.8447	-3.9081	-5.2886	-4.5288	4.8966	-8.8790	-9.5752	-6.1553	0.9181	11.1654	-9.8385	-4.8060	24.5240
3576.0287	-7.7044	-7.4058	-11.5955	10.1885	-3.8918	3.0789	-2.1879	-0.4836	-12.2442	-10.4503	-10.0783	-6.6249	10.5892	-9.1552	-8.9537	24.5810
3584.0288	4.2528	1.7918	0.4847	10.3732	11.6456	2.1803	1.1168	-6.8993	7.3383	6.0881	13.7319	8.4901	8.6960	0.1291	-11.2965	20.9053
3592.0288	17.8179	21.1723	16.7195	29.4793	46.9173	35.8536	25.5920	32.1034	16.6831	17.2280	22.3360	22.2730	8.2182	23.4420	4.5564	38.6525
3600.0289	10.2874	13.0159	14.8348	28.7205	30.2538	28.4998	21.3624	23.2611	6.8532	7.9128	12.8511	11.4453	9.4980	12.6738	-3.5231	35.3842
3608.0289	-9.2761	-15.7683	10.6351	-21.1747	-16.0146	-21.5655	-2.4135	-25.9300	-8.5288	-9.4554	-0.9785	-11.3070	11.8450	-20.7017	-10.0533	13.7881
3616.0290	-7.8168	-9.0839	-2.2711	-13.9393	-5.1180	-2.9201	2.0010	-6.6823	-11.7064	-9.9989	-9.4655	-8.9510	8.9663	-10.2846	8.8473	17.5007
3624.0291	11.4464	15.3846	6.6705	18.0025	31.3977	28.7899	12.0959	24.0552	7.5119	8.6313	5.8259	16.3201	-0.3101	19.5905	-10.2395	15.2048
3632.0291	11.6109	8.0518	14.1327	3.9628	24.8976	22.5173	6.8799	-1.8202	8.6069	7.6164	13.1912	19.7251	3.8873	10.9234	-17.1771	16.7896
3640.0292	-10.6574	-17.8018	-13.2378	-8.8136	-11.6946	2.3516	-0.3907	-30.1325	-20.2378	-18.5795	-15.4955	-7.1284	11.5296	-17.6853	1.2878	18.2719
3648.0293	-3.1274	-6.3838	-10.6764	-3.5053	-1.1016	8.5297	6.0205	-18.3164	-8.4471	-7.5777	-4.4506	-1.7297	6.5989	-6.5014	-3.0921	12.5406
3656.0293	10.8193	9.9796	-1.0359	-6.9564	21.7036	22.8644	9.2597	-12.6416	11.8165	11.2143	19.1047	14.1260	5.4302	9.2857	-1.3363	18.6746
3664.0294	-10.8939	-10.3870	-11.8553	-22.0091	-4.0617	-4.5865	3.0727	-27.7126	-16.8208	-13.2934	-16.7612	-13.5268	8.1057	-12.3314	3.0750	12.1389
3672.0295	3.0751	3.0938	-13.2955	5.1679	10.0602	23.9773	12.3593	-3.7684	-2.2031	-0.9499	1.1258	4.3075	3.9599	4.2469	6.8673	14.5078
3680.0295	23.2168	24.4092	-10.0874	17.8970	39.7680	55.5367	17.2521	9.4274	22.5057	21.3781	30.0571	30.9044	0.8569	27.7155	4.9402	22.2461
3688.0296	-2.6121	3.8278	-0.3553	-18.4419	19.9736	7.3962	9.8682	-18.3662	-9.5181	-4.2894	-14.6330	-4.9383	2.3165	3.9362	-3.0587	7.8945
3696.0296	-1.1233	-2.0226	2.7399	-8.5112	6.6493	6.4140	13.7211	-20.4548	-7.0480	-4.9019	-5.5515	-3.1524	2.9006	-2.1408	5.8229	3.7787
3704.0297	0.8700	-9.3880	-5.9821	-9.9880	-9.7652	8.9876	10.1059	-25.6408	-2.7424	-5.0042	6.4457	2.9766	4.0214	-8.5496	7.3658	1.8648
3712.0298	-3.6500	-5.0039	-11.1276	-13.1472	1.5336	7.9603	2.0411	-23.7264	-10.4588	-8.1177	-11.0845	-1.9565	2.0865	-3.5939	6.3540	2.4545
3720.0298	21.8411	22.3662	7.3130	20.7578	36.7058	46.1717	8.6669	-2.1757	20.9386	20.3275	28.5421	29.1212	1.1029	23.1710	5.1708	18.0207
3728.0299	13.4374	5.3967	28.6686	-5.5785	12.6144	13.2641	7.4077	-10.1619	17.8296	13.6561	33.1905	17.0275	9.6948	2.0675	-4.4605	22.9591
3736.0300	-1.2649	-5.1324	16.2353	-25.1601	3.3725	-12.6982	2.6042	-1.8354	2.4731	1.2274	8.5116	-0.7450	10.7496	-6.8962	2.6248	21.4763
3744.0300	1.9247	2.0449	10.8929	-25.5357	13.8156	4.2792	3.3948	-3.3665	1.2611	2.3954	3.0814	3.2177	5.9008	2.3269	12.6989	16.4876
3752.0301	-16.7352	-20.7928	1.2322	-44.0205	-23.5866	-12.1460	-5.1575	-36.4517	-26.0924	-22.7757	-25.7170	-20.6553	6.6328	-22.8626	17.7993	1.4863
3760.0302	-20.8595	-22.3308	-16.3767	-29.5857	-37.6116	-8.3578	-7.8022	-31.9017	-31.3530	-27.5230	-32.3600	-28.2220	3.6730	-25.8040	18.4119	-5.5352
3768.0302	-13.2144	-6.5505	-5.3808	-37.3958	-17.6047	-4.8170	-10.3181	-28.5086	-18.0671	-13.1112	-21.5556	-22.8532	0.8498	-12.7158	14.2641	-4.8874
3776.0303	-7.9286	-0.6933	-7.4357	-34.0163	-9.3207	0.1432	-17.8432	-22.8066	-11.4356	-7.0617	-18.3363	-12.5411	-4.4528	-3.7359	12.8301	-12.2263
3784.0304	-1.4781	0.4959	-3.0024	-9.9798	-10.3510	15.2856	-11.9398	-4.5771	-7.2310	-5.7013	-10.4144	-1.8674	-6.1020	0.6611	4.8283	-11.7447
3792.0304	-10.7714	-8.6469	2.9526	-24.9704	-14.6677	-11.3800	-15.0739	-10.6000	-14.5365	-11.8497	-19.4930	-13.2710	-0.1224	-10.2092	5.4585	-5.3172
3800.0305	-9.1883	-7.2353	-7.1168	-13.9479	-12.5759	-11.1763	-14.5229	8.3633	-12.1147	-10.3853	-21.1114	-8.3641	-4.8278	-4.2111	5.7681	-12.0654
3808.0305	-5.2611	-8.4058	6.9529	-13.2454	-22.7126	4.0693	-8.1226	10.2368	-10.7932	-11.5388	-11.6328	-5.9915	-3.3438	-7.1732	-3.0399	-9.0531
3816.0306	-14.0217	-13.5095	-4.3993	-24.4352	-30.7710	-8.7614	-22.2631	-12.3588	-18.6365	-16.9249	-21.4412	-17.1579	0.1182	-16.6797	-2.8734	-6.9185
3824.0307	-1.8944	7.5293	-7.3229	14.3468	4.6712	15.3162	-10.7783	16.3345	-8.7259	-4.6810	-19.8167	-1.6758	-7.9867	9.5088	-8.4791	-8.3310
3832.0307	10.1382	16.1492	24.6453	15.7131	19.1694	23.7521	2.2713	16.9670	7.9239	9.1273	8.1376	9.3236	-1.5508	14.2914	-12.2151	8.3018
3840.0308	-4.6928	-6.5550	13.8810	-17.3659	-17.3032	-3.2507	-13.9883	-13.8725	-5.1459	-5.4974	-0.0051	-7.0963	5.1384	-12.2085	-6.5278	6.2402
3848.0309	-13.2112	-11.9538	-0.9911	-11.7684	-16.3519	9.2132	-7.9472	-6.2494	-28.0212	-23.5114	-33.5706	-14.4135	1.0117	-11.0545	-3.7038	1.0028
3856.0309	5.2999	12.1735	9.3397	10.2591	18.2043	25.6492	0.0241	10.7321	-1.2092	1.9197	-5.0737	6.1951	-2.0074	12.6758	-9.8274	7.2797
3864.0310	22.4888	28.3193	29.4761	19.5042	32.6094	36.3296	6.2774	38.1394	25.0411	23.3005	25.8981	25.2004	-7.3600	29.6709	-18.0559	3.9230
3872.0311	15.2978	21.4159	34.2662	6.1883	32.1513	46.0066	13.9540	45.4483	6.4560	8.3013	4.0157	17.2336	-3.9983	25.9261	-2.4380	14.0146
3880.0311	3.9470	13.1012	12.3909	-6.5678	11.3566	20.8039	3.2468	22.2868	2.1163	4.8427	0.7527	-1.5654	-0.1591	10.5236	11.5357	11.5003
3888.0312	8.7927	13.7357	19.5084	4.4141	2.7891	20.5892	9.9703	20.9771	9.7449	9.3436	13.0024	1.1105	-4.4601	10.1971	8.2250	-2.3633
3896.0313	14.3477	13.1605	28.6316	8.3404	13.7088	28.9706	10.0946	16.5262	11.7381	10.3817	16.3621	15.0882	-3.8409	14.2398	9.7420	0.7182
3904.0313	8.1939	8.5963	20.8420	2.0744	7.9772	0.7834	0.6336	17.2973	13.4174	11.7325	15.2463	7.8139	-2.2490	8.2047	15.1072	-0.9676
3912.0314	7.7881	7.4146	15.9597	9.7897	8.1989	3.7143	7.6049	31.7647	10.7957	9.0284	10.7268	8.2104	-3.8726	10.3731	20.4355	-2.3218
3920.0314	7.1477	5.9431	2.9074	6.3143	3.4525	6.2437	2.2236	21.6510	10.1766	7.8775	10.0454	9.3128	-5.3034	9.1269	9.2261	-6.7538
3928.0315	-0.3332	1.7799	8.2189	5.9646	-0.4282	-8.8096	9.7612	22.3341	2.1183	1.6347	0.1111	-4.8411	-2.3217	2.1161	1.2263	-4.3181
3936.0316	0.8548	-4.3336	8.1501	16.4041	4.1293	-13.1717	10.7472	21.2453	1.1629	-0.8832	-1.1345	4.8226	-1.6630	1.6874	-2.8817	-4.6654
3944.0316	-4.6132	-10.5521	-0.8686	2.2257	-10.3128	-34.0808	-8.9978	3.9856	0.8532	-2.2465	-3.9646	0.4386	-4.2908	-6.1969	-15.9700	-18.4499
3952.0317	0.1751	8.8183	12.6882	23.7175	16.8813	-4.0571	7.1777	27.5823	-0.4005	2.6715	-7.8203	-3.2658	-1.6845	9.1811	1.8548	3.3481
3960.0318	23.0069	32.0916	26.5524	56.2013	45.1561	34.5868	18.7706	47.3822	25.7682	25.9465	26.3997	23.7035	-3.7635	32.7244	1.9330	14.0846
3968.0318	13.9562	13.5008	30.8598	22.3072	13.1188	-4.0255	6.2537	22.8040	23.8406	19.4451	28.0680	13.5974	-3.4686	11.8401	-20.7738	-3.9387
3976.0319	-3.8261	-7.3895	13.1925	-3.7803	1.6364	-23.7373	0.9427	-0.2897	-3.3188	-3.7639	-6.8962	-1.3504	0.2002	-4.4304	-8.2550	-5.5039
3984.0320	1.4584	2.0819	4.4511	4.8837	5.9057	-17.7314	-1.2661	-4.3938	6.7173	6.2009	3.5693	1.6970	-3.7365	2.4504	-0.7763	-12.0815
3992.0320	6.6326	10.3239	12.2385	19.5291	5.9146	-15.2946	6.1016	5.1197	18.3339	16.3811	21.2104	0.1374	-2.1805	4.8813	0.6064	-7.0428
4000.0321	3.9337	0.2142	-0.6014	15.9110	0.9834	-11.2436	6.5040	6.5905	10.0120	6.9331	12.2214	5.2362	-1.4263	1.4872	-1.7795	-5.9309
4008.0322	-1.2197	-1.1311	4.1240	3.1727	-7.2420	-24.9081	4.0908	8.3421	7.1942	4.9003	6.6645	-5.9572	-2.9510	-2.7194	-5.7685	-12.6242
4016.0322	7.8285	13.5971	18.9489	21.6643	16.4327	-10.6218	5.1124	17.8675	16.6315	16.0437	15.2137	4.0706	-3.2737	11.0219	0.3976	-3.8722
4024.0323	10.1363	3.1940	17.5027	9.8168	7.0942	-4.1261	-5.1074	0.7502	13.3438	9.3905	13.0228	18.5251	-7.7460	7.9753	-14.4674	-18.3915
4032.0323	-7.0636	-14.4855	11.0195	-5.7544	-17.9630	-30.2734	-0.7381	-8.1459	-5.8415	-7.9475	-6.5893	-7.4019	-1.7359	-13.0807	-3.2983	-17.2505
4040.0324	-7.9054	-13.6847	-2.8642	2.8298	-14.8953	-28.6599	0.9476	-1.0501	-5.2785	-6.7139	-5.7133	-8.0154	1.3271	-12.1272	14.4391	-7.6882
4048.0325	-6.6381	-17.9959	-9.9599	-19.6032	-33.5801	-23.8428	-11.9350	-12.3316	-2.3895	-7.2868	0.6163	-4.0513	-2.8507	-16.2125	0.3118	-20.5377
4056.0325	-9.5258	-4.4988	-17.6459	1.3447	-13.9961	-18.5293	-7.0479	1.1446	-6.0011	-4.5941	-10.4075	-15.0866	-0.9094	-7.3593	5.4038	-6.5693
4064.0326	-4.0601	8.5725	-15.4354	15.2635	8.8948	-16.3127	-7.3697	11.3080	1.9164	5.0639	-8.5049	-8.5305	-4.1709	6.3025	-7.8725	-5.9447
4072.0327	-9.5791	-15.1313	-12.9468	-28.6654	-28.2775	-40.4983	-20.0512	-19.7282	1.5686	-2.3772	3.0265	-9.5480	0.9887	-17.9217	-16.4715	-13.1208
4080.0327	-14.3081	-24.9829	-31.2065	-26.6689	-32.6665	-38.2653	-19.2141	-20.7324	-7.3841	-10.9771	-5.0354	-9.1449	5.8138	-23.6955	7.5853	-3.3138
4088.0328	-9.0694	-8.6973	-24.8349	-18.2040	-13.8850	-18.0360	-11.2709	1.8284	-7.8445	-7.7068	-16.4876	-7.4136	-5.9745	-4.5260	-1.0146	-17.4005
4096.0329	-2.2882	3.4289	-12.3490	-13.6073	-0.1898	-18.2699	-2.4352	9.0404	6.0709	5.8656	0.7129	-6.1940	-4.1279	2.7891	-3.9030	-9.5460
4104.0329	2.0244	5.3208	-15.1332	11.2903	13.8899	-5.4231	7.9546	22.2715	9.6373	9.1686	10.6589	2.3265	6.0112	5.6111	13.1053	19.6166
4112.0330	-5.7446	-5.4449	-15.6096	-0.3426	-3.2276	-1.1008	5.9781	13.6853	-6.8142	-6.1110	-6.5198	-6.3679	5.9456	-4.3024	10.7717	15.1894
4120.0331	-11.4149	-15.2361	-18.7307	-24.7503	-12.9640	-33.5759	-8.1211	-15.9121	-7.0617	-7.6574	-10.0744	-9.5983	2.8780	-13.6386	1.6016	-4.7278
4128.0331	-2.4698	-4.0241	-5.4165	-13.1713	3.4929	-13.9728	-4.2374	-2.7971	-0.8299	-1.0020	-4.9994	1.6361	-0.7465	-0.4858	-2.4072	-3.7693
4136.0332	7.3040	12.2736	6.2681	14.4989	14.9668	29.0431	9.5252	20.0615	3.6190	4.9065	5.5286	6.0279	1.5176	11.5525	-2.3226	15.8415
4144.0332	-0.7586	-2.5132	-2.1302	-3.7332	2.7924	-9.6722	2.0564	3.0325	4.3372	2.8955	8.7960	0.2454	8.2582	-3.9425	-4.8476	17.8358
4152.0333	-12.7778	-14.6460	-14.6298	-18.5840	-11.5326	-16.4742	-1.1495	0.4910	-13.9656	-12.9901	-14.0905	-12.9578	9.5850	-14.2782	4.5758	16.9398
4160.0334	2.3891	9.7905	-8.0691	22.2004	15.1279	30.5435	14.0134	23.5143	-3.5357	-0.2226	-2.3892	-0.4812	5.8298	8.7769	9.4348	26.7987
4168.0334	16.6131	16.6891	21.1902	29.9415	33.4159	22.2775	18.6955	28.0342	19.1966	17.5027	25.9560	20.5244	5.3987	17.8482	0.0403	25.8296
4176.0335	5.7109	1.4903	23.1494	8.9919	11.7472	10.2648	13.7626	21.7417	4.1334	2.7519	11.1623	8.0085	8.5971	2.5589	6.7283	25.0906
4184.0336	1.0715	2.0981	17.6737	2.7365	11.7712	0.4726	13.1536	17.8846	1.3961	2.0516	5.3871	-1.3350	9.1583	0.5851	10.9035	24.7932
4192.0336	3.2156	3.0808	21.4011	3.8724	23.5319	-12.4285	10.5830	17.2330	7.5410	7.7511	9.6097	5.1742	9.7303	3.7554	16.7626	25.4778
4200.0337	-7.4165	-10.2227	6.5744	-3.2495	-1.3912	-4.2800	4.0151	8.6371	-13.4370	-11.5752	-13.2542	-6.0071	8.4686	-8.1768	21.3535	18.4159
4208.0338	-17.0714	-22.7242	0.5340	-28.5413	-27.4045	-25.9535	-3.2133	-9.9143	-21.5440	-20.7609	-22.3346	-19.8803	5.6315	-22.5362	10.4331	-0.2995
4216.0338	-11.3758	-13.4540	-3.9634	-12.0116	-22.1775	-22.6959	-7.2789	-6.2373	-9.5664	-9.5741	-8.5568	-15.1748	4.4706	-16.3216	13.1094	0.3928
4224.0339	-2.4182	-0.7170	-5.1602	1.7572	-15.7976	12.9231	-6.6335	2.3258	-3.9499	-3.6287	0.1591	-6.5613	2.0750	-5.1770	9.0024	5.8936
4232.0339	-3.2498	-5.5221	-6.0534	-18.0179	-15.8293	2.0206	-13.5766	-16.1664	-3.1377	-3.8865	0.5168	-3.0686	2.0476	-8.3927	-1.5296	0.7730
4240.0340	-5.2794	-5.0757	-13.1499	-2.1099	-13.1009	-10.3541	-16.5274	-32.1015	-2.7406	-2.3199	-1.3423	-6.1331	1.3713	-10.0916	-5.6995	-5.3439
4248.0341	-1.2110	-1.2396	5.6507	2.3373	-7.0748	-5.0573	-0.3670	-21.1789	-0.3133	-0.3269	2.9119	-5.5342	0.6096	-6.1692	-10.5714	-5.2932
4256.0341	-1.7529	-7.5639	5.0775	-5.1211	2.9053	-8.9273	5.1389	-9.1077	-3.0695	-3.6587	-0.8220	1.8321	5.2382	-5.4531	2.0416	7.2806
4264.0342	-2.3929	-5.2246	-1.8170	-0.0680	4.5669	-3.1467	-0.7427	-14.6840	-4.3104	-3.4534	-2.2120	1.0498	6.7900	-5.0921	4.9569	12.6330
4272.0343	6.5134	9.9875	9.5874	4.3969	13.1610	14.5872	6.8266	-3.2336	8.2037	8.9037	14.3500	3.2849	5.4899	5.0630	4.3073	17.2404
4280.0343	3.9687	10.6023	-4.0654	16.0424	20.2451	15.6912	13.2125	9.4526	2.8801	5.5286	3.3575	1.3906	4.1837	9.1728	9.2347	18.1935
4288.0344	-3.8032	-0.8624	-1.7078	-7.4334	4.8496	0.5692	7.3592	-12.8171	-8.3577	-5.5310	-11.1800	-6.8107	0.6524	-1.2968	-4.6437	0.0436
4296.0345	3.3071	4.7341	0.7687	-12.6553	6.7997	5.0299	4.4431	-11.6627	4.6898	5.0562	6.5313	1.3480	0.1146	3.1128	3.9509	0.5988
4304.0345	5.2114	7.9052	-16.5722	8.7100	14.6841	8.4181	8.8121	2.9396	9.3245	9.5489	11.6893	5.3632	2.8718	7.6943	18.2592	11.7360
4312.0346	0.1451	-4.7141	-16.9441	-14.0544	-1.7377	-10.6532	1.4340	-18.5339	5.2860	3.2251	8.2115	2.7335	1.3926	-3.5616	7.0122	-2.9309
4320.0347	-6.8707	-9.5293	-22.4875	-13.8928	-10.6849	-19.7488	-5.8479	-23.1176	-5.1428	-5.1889	-9.3828	-5.5145	-3.9152	-7.2703	6.4614	-18.5418
4328.0347	-6.5399	-2.0215	-14.3729	10.6994	-0.1160	-7.1500	6.2423	-5.9063	-10.7905	-7.4165	-19.1104	-10.0935	-5.4372	-0.3191	5.8324	-15.1411
4336.0348	9.1540	9.8558	2.1858	12.6630	8.6521	6.3596	7.4641	-4.4158	13.1006	11.5932	14.9353	7.9183	-5.6074	9.0881	-3.6925	-11.5898
4344.0348	2.5555	2.5131	-1.1355	0.8546	-2.0160	-8.2755	1.2953	-10.3095	8.6119	7.0846	11.0588	-0.2508	-1.8624	-0.2689	-1.5645	-8.4622
4352.0349	-12.2745	-13.5888	-7.2656	-20.4463	-9.4326	-20.5607	4.4533	-14.9388	-15.1690	-13.1411	-17.8336	-15.2500	4.2541	-13.2467	6.5376	0.4329
4360.0350	-5.4811	-0.5842	-12.9513	-15.8100	5.5205	-0.7295	6.5386	-4.6254	-9.6727	-6.1657	-16.6512	-8.1426	-2.0307	1.5095	6.1257	-3.7596
4368.0350	5.2846	20.3633	-1.3434	6.6398	22.5108	16.7849	17.2081	10.6695	4.8080	9.2812	-1.8604	-5.1068	-6.9766	17.5613	-0.4269	-5.2999
4376.0351	10.9619	15.6317	5.0729	6.3347	19.6148	12.5445	16.8016	-0.6083	15.1652	14.8306	17.8152	6.5958	-2.6035	13.2545	-8.3118	-0.6184
4384.0352	-9.7614	-7.8236	-11.3005	-20.4894	-4.3576	-14.1282	3.1965	-20.4095	-13.1398	-10.4969	-18.7104	-13.0218	-0.5153	-7.4970	-10.8122	-8.0917
4392.0352	-24.7922	-15.3699	-24.1397	-33.7678	-11.6601	-28.5290	2.7010	-16.7507	-32.6970	-25.0751	-47.1759	-34.4508	1.2988	-15.6838	-2.1244	-5.9750
4400.0353	-17.9372	-14.0724	-30.7793	-28.4689	-17.8269	-28.2784	-4.3732	-13.3245	-17.6036	-14.8606	-25.2791	-23.2918	1.2580	-14.6625	-3.8917	-6.4120
4408.0354	-24.7641	-18.5267	-16.5432	-29.8762	-25.2776	-30.1683	-9.9148	-14.8217	-30.5577	-25.1408	-40.8810	-33.2619	2.5987	-21.2935	-7.9757	-5.1312
4416.0354	-3.5593	6.6315	9.4167	-4.2601	11.9924	1.4980	-4.5363	6.0896	-6.8435	-2.3436	-14.0065	-7.1408	0.6915	4.2589	-14.9972	7.5862
4424.0355	10.1720	15.2508	19.1510	-0.4412	15.3250	17.9348	-9.3092	7.7718	12.4394	12.0299	13.7520	11.6568	-0.9171	12.2058	-30.2022	8.0760
4432.0356	-11.6165	-5.4723	12.7875	-11.4851	-6.9442	8.5375	-6.2763	-4.3330	-21.8186	-16.5520	-21.9370	-17.4831	10.4556	-11.5741	-10.4836	25.1401
4440.0356	1.1205	6.6909	15.4226	14.2074	14.0757	11.6824	4.0254	6.2477	-1.7169	0.9450	0.9625	-1.4884	8.6944	2.0546	-10.1301	26.1776
4448.0357	-4.3223	-1.7837	21.4029	-22.1651	-4.5572	-15.2939	-3.2325	-14.2022	-2.5986	-2.1236	-2.0145	-10.2437	2.7095	-7.5972	-35.1066	0.2669
4456.0357	-21.9284	-18.3686	-2.1260	-35.0183	-18.6338	-16.0626	-8.0893	-23.8527	-31.2424	-25.5324	-34.4799	-28.5443	11.3039	-23.3234	-7.7932	16.5243
4464.0358	2.9309	5.3379	-5.5882	31.1210	14.6865	23.3551	3.1871	14.6642	-1.5036	0.2917	1.8647	6.5762	9.0438	4.9266	3.3827	30.9814
4472.0359	2.7018	4.3345	2.9022	27.5304	5.4168	25.7249	-0.8784	14.8670	-3.1108	-2.2356	0.7085	5.1249	6.3369	2.8328	-15.7449	23.7362
4480.0359	-7.4963	-5.2881	-10.1221	5.8881	-3.3106	11.9732	-16.2174	-2.5204	-14.9376	-12.0506	-15.5457	-3.2941	8.7404	-6.7828	-17.5788	24.0357
4488.0360	-0.9161	-3.3774	6.6536	5.5398	7.0993	-4.5764	-12.5018	-2.4250	-1.6914	-1.7709	-1.3758	6.8592	6.6723	-2.5486	-19.2738	16.1228
4496.0361	-3.4513	-10.1208	16.0804	-7.4414	-4.5180	2.4646	-10.1661	-12.4533	-10.1444	-9.9919	-6.4554	2.7215	7.8133	-9.6973	-7.0185	14.7995
4504.0361	2.4509	2.6361	14.3079	4.8501	-0.9294	27.8171	-11.6284	-14.7766	-4.8072	-3.0222	1.7981	3.6493	6.2925	-2.3734	1.1948	18.1248
4512.0362	5.3126	11.9223	22.4513	16.1344	11.5584	20.0432	-0.5435	-9.1089	4.1021	6.7844	11.3193	-0.4050	7.8929	2.4303	3.1494	23.0104
4520.0363	1.4780	3.4866	5.2450	6.5790	2.5850	12.1064	-0.2207	-7.4447	0.9050	1.9668	7.3181	-1.1220	7.4920	-2.0738	4.9316	18.9277
4528.0363	-2.1642	-1.4619	2.1682	-17.1980	-11.6620	2.7643	-7.2965	-8.1015	-2.1219	-2.3262	0.1455	-5.2755	0.4818	-5.0381	-8.8073	-0.7456
4536.0364	-7.9247	-2.6830	1.4033	-19.9578	-7.0891	2.1776	-2.7769	2.3307	-12.5502	-9.4520	-15.4423	-13.3299	2.3269	-5.1591	-1.0999	6.4251
4544.0365	-3.6104	-1.8237	-8.4636	-5.1210	-3.4852	20.7575	-0.9969	9.8178	-12.1569	-9.7863	-13.6388	-3.0584	1.7819	-0.1356	7.9930	10.4309
4552.0365	-1.6177	-8.5028	-6.4949	-12.6612	-16.6964	3.4516	-6.6667	-8.1308	-4.5606	-6.4817	-3.2185	1.9237	-3.3652	-5.5721	5.0999	-11.8356
4560.0366	3.5239	-1.7119	-12.9477	2.4779	-9.3607	-1.2137	-2.8941	-1.5011	5.7141	2.6621	4.2779	7.3205	-9.8597	2.8785	6.0064	-25.2756
4568.0366	8.7955	12.8020	-1.7723	7.9313	-1.2011	20.0601	1.4856	4.2121	7.4349	6.9080	2.5081	5.8722	-17.3754	14.4123	-7.9570	-34.5526
4576.0367	2.0941	6.9448	4.6088	2.1508	-9.4248	17.9049	-2.8413	-10.5116	-3.5861	-1.7714	-7.5125	-4.1424	-12.8648	4.8794	-2.3907	-28.7564
4584.0368	8.5087	8.0061	4.1748	30.4278	0.1391	18.6864	2.3234	15.5877	6.8082	5.4375	7.0195	9.5556	-8.4312	9.8823	6.5208	-13.7289
4592.0368	11.0406	10.1212	18.4991	19.1993	4.7553	21.7839	3.2945	18.8250	8.8104	6.9901	9.8268	12.5717	-7.8746	12.0944	-5.0840	-10.4760
4600.0369	9.4809	13.8283	20.5673	13.3259	12.9732	37.1195	5.6589	9.5020	0.3534	2.5798	-0.4746	8.3464	-5.9886	14.1174	0.3610	-2.3757
4608.0370	22.7330	23.5303	40.4969	29.0547	25.1415	43.9765	17.7740	31.2927	19.2518	17.3666	24.1186	23.4140	-7.6757	25.1567	-2.6917	-1.0773
4616.0370	8.6293	-0.0728	36.4014	-3.1007	-7.7075	11.7379	2.3407	0.5022	6.1524	2.3897	13.6204	9.9637	-3.3108	0.1267	-4.4846	-9.4671
4624.0371	-8.2089	-8.9384	6.0915	3.3122	-17.0326	12.1679	-2.9955	-14.6623	-20.9880	-17.4927	-21.5927	-11.5390	0.0194	-10.4304	15.4677	-4.1197
4632.0372	10.0054	11.4870	18.8034	31.6194	13.3153	19.1076	10.7974	16.5733	8.1951	8.1815	10.7507	9.0909	-2.1441	11.1714	10.0932	2.4398
4640.0372	12.8453	1.4797	18.4124	14.6752	3.4471	5.9818	1.5001	14.5998	17.6283	11.2943	26.8086	21.8118	0.8377	4.9657	-2.0737	3.7290
4648.0373	5.4558	-2.8415	9.7159	9.1581	-0.6006	22.5604	0.3330	16.2678	-1.8736	-3.9871	1.6300	14.1520	0.3070	3.1031	3.8552	6.4339
4656.0374	13.1561	7.6455	17.6640	10.0245	11.3555	16.1220	-1.1730	9.7390	13.9175	10.7596	17.6392	20.7434	-3.5245	11.2783	2.6299	-2.0878
4664.0374	12.7806	8.4994	13.2867	24.2320	7.2213	14.8452	-1.3750	11.5879	15.3272	12.1220	20.1600	18.1044	-3.5267	10.1045	10.0245	-2.9248
4672.0375	9.2097	10.8438	9.6959	40.8390	18.2329	23.5546	6.0322	33.2052	4.1591	4.9909	1.3321	14.1331	-3.9870	15.8988	17.6357	3.8351
4680.0375	-0.0239	-5.7501	2.9919	11.2416	3.2186	-28.4947	-11.0772	0.6890	5.5199	3.2744	1.1194	8.6761	-2.8259	-0.6687	2.2542	-12.0482
4688.0376	-7.4453	-8.6735	5.2270	10.7954	-16.3363	-26.0890	-5.7119	-3.4084	-4.9739	-5.2332	-6.8942	-10.8797	-1.4632	-10.6965	5.3217	-13.1990
4696.0377	4.2746	8.7008	4.9096	31.9785	3.9786	4.8676	0.7945	19.1713	5.5214	5.9970	2.9984	2.0441	-5.4349	8.1248	11.3206	-7.5100
4704.0377	2.5811	-2.9474	-5.2946	18.6311	1.9053	-30.8952	-17.5820	-12.0218	12.5901	9.4075	9.5860	11.7081	-4.8520	0.1115	2.7589	-18.9550
4712.0378	-0.1304	-1.2804	-0.5422	34.5771	4.1581	-16.8734	-2.1145	-3.2886	2.7477	2.8858	0.5991	2.2531	-1.1272	-0.5433	16.4862	-7.1517
4720.0379	12.9527	10.6690	-4.6816	39.1573	12.7979	8.9418	6.4318	30.1583	18.0631	14.4995	17.6052	19.1575	-7.8877	16.4862	9.3391	-9.8267
4728.0379	9.8508	1.0343	-5.6820	17.0879	-8.0087	-2.9885	0.2115	31.4220	17.2633	10.0292	17.7173	17.3340	-11.4005	8.8279	-5.7069	-24.0328
4736.0380	6.8956	2.8130	-0.9453	30.2112	-2.5311	-0.7421	6.3822	34.1925	11.4536	7.3315	11.6745	9.8492	-6.7532	7.6506	8.3750	-11.9058
4744.0381	6.4171	-3.7406	-6.7077	17.3981	3.5104	-26.3631	-2.2038	16.4802	17.2069	11.0768	15.9924	17.6656	-5.4708	4.8003	6.6239	-16.0606
4752.0381	-2.8043	-13.1565	-8.9956	0.2641	-13.7753	-27.9078	-6.4488	-4.0254	2.5445	-1.4552	2.0075	3.8805	-3.0991	-7.8067	13.4039	-17.5721
4760.0382	-1.3278	-4.6089	-16.2552	5.4273	-20.9817	-8.6390	-9.5326	-7.4723	4.3108	1.6849	6.9704	-2.3865	-4.0445	-6.2374	16.4156	-15.9814
4768.0382	2.3128	0.0790	-16.0361	-4.6042	-13.5146	-18.4103	-7.6177	5.2903	14.3011	9.6988	14.0903	2.3139	-7.9146	0.6869	-1.1186	-22.5027
4776.0383	10.0182	14.6813	-11.7195	16.9100	18.5890	5.9215	11.0323	36.1829	16.7517	15.0940	11.9679	11.3648	-8.1099	19.6168	1.4476	-7.0263
4784.0384	12.3290	13.1437	-12.1929	11.2846	19.1801	5.0696	8.8523	17.9244	21.2960	18.0769	21.4917	16.1763	-4.7420	16.6758	-7.2597	-2.8801
4792.0384	-6.4800	-11.4870	-14.2789	-27.4156	-18.1823	-27.2158	-0.2264	-18.4176	1.9725	-1.0765	6.5072	-9.3544	3.6670	-13.9529	-4.1901	-4.0550
4800.0385	-9.9773	-7.9441	-18.8373	-11.4083	-19.4194	-12.2850	2.0573	-2.7635	-8.6138	-7.8107	-9.2634	-17.3900	0.8012	-10.6250	12.0373	-4.3483
4808.0386	3.0545	3.9272	-0.7218	-1.9468	-2.6623	4.0000	3.8565	9.0317	3.3226	2.2913	0.2750	1.4401	-8.6820	6.0501	-7.0761	-18.0217
4816.0386	5.5009	8.2225	4.1035	-6.5959	7.3500	4.5219	6.0997	4.5784	7.4872	6.8338	5.4142	3.5423	-6.2948	8.8809	-15.1087	-11.0829
4824.0387	0.6959	10.0543	-11.7155	-6.0591	11.4195	-6.6328	7.0737	11.3627	7.8027	9.0640	3.8282	-5.5170	-1.5325	7.8809	-2.6548	1.0562
4832.0388	-1.1712	1.0182	-11.5290	-17.4195	8.8600	-14.8454	7.3939	12.5610	5.5808	5.2676	3.1878	-2.0010	1.9861	2.9762	10.5011	5.9657
4840.0388	7.4595	7.7750	-10.8076	-10.8627	19.9893	2.2569	5.1110	12.2879	12.9466	11.5819	11.1152	12.8687	-1.4070	12.7846	5.6123	3.9406
4848.0389	11.2330	17.9793	2.9663	-11.5370	26.1179	5.9954	7.4349	12.8268	18.1943	17.7320	14.6041	10.8241	-5.9645	19.2986	-13.5679	-3.7955
4856.0390	2.3043	4.2862	9.3585	-11.2440	10.1507	1.4416	10.9112	10.0667	2.5398	2.8630	1.6845	0.1978	0.1448	5.1517	-3.8848	3.7524
4864.0390	2.3822	1.4490	2.7635	-1.4018	5.7402	2.5763	10.6113	13.7277	3.2497	2.3084	5.0913	2.2801	2.1995	2.8903	0.3862	8.0124
4872.0391	3.9981	6.4526	3.5067	-18.3431	11.0536	-4.6066	9.8450	1.6722	11.2660	10.3267	14.8160	0.2832	3.8357	3.7778	-2.2313	10.2574
4880.0391	-10.1264	-11.8140	-11.4133	-31.8591	-10.7818	-11.2790	-0.8235	-24.2989	-12.5789	-11.1230	-12.4768	-12.1112	5.0130	-12.8482	0.4272	3.2802
4888.0392	-12.5256	-12.1574	-7.1183	-29.9800	-13.0642	-2.8974	-2.0187	-17.2873	-22.9376	-19.5657	-29.6682	-14.3760	-1.6335	-10.0890	-12.4348	-9.0604
4896.0393	-4.9266	2.1932	-7.0123	-37.7094	7.1841	0.7669	-5.1116	-14.0629	-7.1164	-3.3672	-13.0344	-7.3786	0.3264	1.1777	-8.0741	2.8382
4904.0393	-19.3846	-18.2135	-33.6690	-52.2710	-19.7286	-24.0028	-17.9035	-37.7983	-19.7318	-16.7088	-23.0303	-20.8258	8.0597	-20.9008	-1.3622	6.9586
4912.0394	-20.6132	-22.0165	-27.9358	-35.9283	-20.0327	-24.6560	-2.6971	-22.4745	-24.2129	-21.5079	-26.5417	-23.1210	9.9894	-22.5758	0.5520	11.1766
4920.0395	-5.6154	-1.5043	-18.3796	-11.1929	13.0136	-8.9933	3.0688	-4.9167	-5.5231	-2.6762	-10.3267	-4.5474	5.0897	0.0090	0.0294	12.7647
4928.0395	-10.3694	-5.8521	-16.7390	-21.9146	-1.4188	-12.6658	-7.4939	-21.3065	-12.7817	-9.3255	-19.7013	-11.5247	1.0941	-6.4076	-15.0875	-1.6827
4936.0396	-4.1981	-1.9180	-9.3033	-8.5261	0.4729	6.6871	1.5121	-15.2770	-8.7104	-6.2776	-9.0129	-5.8584	3.2598	-3.4422	-5.7738	6.9196
4944.0397	2.2521	2.4218	-9.6790	8.9695	13.2013	7.0258	2.9203	-7.8400	0.0770	1.1725	-1.1594	6.4361	0.9927	4.7056	-1.6723	4.8129
4952.0397	-12.7913	-15.3392	-11.7571	-12.9150	-8.0779	-25.4333	-3.5044	-22.0141	-16.4407	-14.6428	-22.5897	-10.9802	1.5008	-12.7975	-12.9748	-7.1910
4960.0398	-18.5473	-23.4470	-22.6676	-24.2006	-26.5789	-32.4456	-8.3920	-33.7141	-20.8938	-20.0316	-24.0564	-19.2134	3.3526	-23.4117	-12.0252	-9.5757
4968.0399	-18.2950	-19.2109	-23.9380	-27.0820	-32.2609	-22.5222	-12.6753	-43.8272	-23.2011	-20.9875	-28.5627	-22.9328	-2.9806	-21.4796	-18.2806	-23.7393
4976.0399	-17.3326	-13.8713	-23.2795	-23.9728	-23.5144	-18.1489	-17.4031	-51.5147	-22.3467	-17.9611	-28.6737	-22.5928	-1.6125	-18.4933	-11.2201	-18.2417
4984.0400	-10.9626	-9.3580	-20.3465	-7.5870	-12.6658	-17.0047	-19.0377	-40.5193	-11.4779	-8.9207	-14.7995	-11.2095	1.3619	-13.0513	-6.7522	-7.4790
4992.0400	3.4851	8.3037	11.2966	15.3974	13.5001	12.4366	1.9564	-10.4148	-1.0523	1.6283	-2.8350	2.2004	-1.4299	6.1452	-15.0543	0.0196
5000.0401	8.5366	10.1319	23.3943	9.2828	24.2528	10.0153	1.7112	-20.7161	6.4120	8.0267	7.7474	10.9322	1.2040	8.2071	-13.1780	5.0265
5008.0402	-5.5916	-10.9515	10.9513	-22.7899	-3.1950	-29.1258	-14.2202	-46.5109	-4.7671	-4.5073	-6.6086	-1.7677	0.5713	-11.6518	-12.7026	-13.5273
5016.0402	5.4841	8.1545	2.6184	1.1451	12.2497	6.4734	0.6495	-18.0983	5.0882	6.3467	2.9038	5.4758	-5.3949	7.8196	-0.9611	-11.6777
5024.0403	11.8408	11.8645	-4.7293	10.9800	10.4365	18.4248	-3.1617	-16.3386	15.1370	13.6707	19.1887	14.6755	-4.2036	10.4331	-1.7888	-6.2282
5032.0404	-8.0478	-17.5151	-5.1040	-14.3806	-24.6757	-20.3406	-15.7874	-36.6850	-8.1534	-10.3217	-5.2011	-4.4244	1.3800	-18.3900	-13.7814	-12.3776
5040.0404	-5.4186	-11.8174	-2.6241	-7.1794	-13.3446	-19.3605	-8.9632	-22.5032	-3.9080	-5.4626	-2.2919	-2.6630	1.8171	-12.0624	-6.8353	-6.7484
5048.0405	-3.0948	-12.7512	4.3951	-17.4343	-17.1386	-29.5135	-12.4602	-24.7633	2.6429	-1.2562	4.6103	0.8596	-1.8688	-12.0836	-8.9505	-18.6659
5056.0406	0.9007	-7.9477	5.0720	5.3061	-14.2896	-13.9074	-8.3190	-10.1372	2.9497	-0.7850	3.9041	5.7067	-5.7697	-5.3412	-6.9243	-21.9281
5064.0406	6.4898	5.2459	5.4607	26.8975	-1.3600	3.6098	-4.3733	6.4799	9.1734	7.0422	10.2938	8.2071	-5.4772	5.0913	-4.3020	-11.4006
5072.0407	-3.6574	-7.2714	13.6403	-4.9203	-8.9163	-15.9563	-10.6334	-16.4070	-3.7766	-4.3031	-4.1005	-2.3145	-0.2342	-8.3672	-10.4023	-8.6684
5080.0408	9.3765	7.9112	16.3988	13.9289	13.6554	9.9228	-3.6176	-6.7188	10.3364	9.4564	13.7390	13.6876	0.1412	7.1440	-3.6360	3.2589
5088.0408	11.9814	13.0091	24.0365	20.2401	-0.7411	22.0174	-0.5153	8.5499	14.7130	12.2554	23.1787	8.3200	-2.0286	7.0384	-9.3255	0.6292
5096.0409	2.1634	-1.3641	18.4668	11.1842	-14.9673	8.8698	-4.3477	-3.7239	-0.1727	-2.1405	5.6770	0.3540	-0.9979	-5.0418	-18.2634	-5.0317
5104.0409	13.2974	11.9004	18.3403	27.5826	20.9119	3.0804	-4.9772	-3.0181	19.5542	17.2943	23.6925	19.4949	0.3844	10.7105	-10.8576	4.4028
5112.0410	8.2120	7.4635	31.2311	12.5185	13.0948	-9.0032	-5.6050	8.1256	14.6854	12.8200	17.1427	10.7492	1.1073	5.6680	-3.2050	3.9501
5120.0411	6.1955	0.6222	20.1359	13.8890	2.5335	11.0458	-2.5452	14.5704	3.1881	1.1793	5.9159	12.3640	-0.2903	3.6645	-0.7385	3.2309
5128.0411	7.1556	1.4560	22.7518	7.2905	-2.6217	4.7859	-2.7040	1.9961	10.1018	6.8506	18.8834	8.9788	3.1064	-0.9556	3.1269	6.3953
5136.0412	-0.5336	-1.7953	23.5329	6.6350	-8.0560	-8.5418	0.9396	10.2345	1.7210	0.7254	6.0709	-4.8714	3.1816	-5.5589	11.2352	4.2658
5144.0413	12.7742	18.1601	16.6258	36.8307	23.0636	28.9992	15.3189	39.5296	10.7455	11.1975	11.0731	12.1525	-2.5264	19.5169	4.5751	10.2407
5152.0413	14.0235	15.7001	29.9478	12.0498	12.1643	26.9919	14.1286	23.1982	16.2120	14.1133	26.1577	9.6937	2.8663	11.2020	-4.7498	16.8055
5160.0414	-0.9693	-13.6865	17.0967	-14.8558	-19.6994	-10.4584	-3.3281	-1.5299	-0.6327	-5.4670	6.2863	3.2417	2.3035	-11.7780	-7.3536	-3.1790
5168.0415	-9.6520	-19.5653	4.6314	-19.3224	-26.5079	-18.2084	-6.6292	-2.1176	-13.8240	-15.8803	-15.0184	-6.6909	-1.5691	-15.2127	0.2470	-14.0762
5176.0415	-8.6975	-5.1600	6.1194	-7.1617	-24.6985	5.3417	-0.3552	0.2265	-13.2856	-11.0070	-10.3136	-20.1892	2.2374	-12.0116	21.1933	1.5738
5184.0416	9.0621	10.8655	6.7079	22.9022	6.4529	19.8832	0.4313	6.4181	8.7076	8.2705	10.7582	9.1342	-4.2765	9.7921	3.6726	-3.5862
5192.0417	12.1357	10.7421	18.9098	11.4764	15.6173	11.3376	6.5031	11.8979	14.1704	11.8928	16.3240	15.1917	-3.6007	12.5003	-11.8892	-2.1229
5200.0417	0.2650	0.6985	11.9315	6.8173	-3.5144	12.6874	11.6761	16.2923	-4.5227	-4.0094	-2.1535	-4.1470	1.0346	0.0122	7.0815	5.4888
5208.0418	-6.6839	-7.1652	9.3563	4.1727	-9.9039	3.1002	4.8358	3.2368	-17.3170	-14.9350	-22.1753	-9.0752	-3.7437	-4.8096	-0.0637	-10.6834
5216.0418	-6.3416	-0.2457	9.3772	5.5924	-10.1449	10.7084	5.4370	-0.8492	-14.4338	-10.6098	-15.2752	-16.2554	0.3222	-5.3544	0.7768	0.5575
5224.0419	12.3878	25.7430	8.3015	44.5213	20.9396	47.9883	18.4245	27.6808	8.6372	11.9347	12.6542	2.8212	0.1343	19.1679	6.3357	18.8781
5232.0420	19.0019	25.8117	27.3523	28.9645	37.6686	39.7358	16.8576	19.8644	16.4771	17.6344	19.3198	18.8409	-1.3445	24.8341	-9.6425	14.6142
5240.0420	-0.3494	-5.4856	14.1097	-9.9666	-5.5193	1.1976	-0.8858	-17.0764	-2.2769	-3.1146	4.3118	0.0818	5.7174	-7.9974	-2.8349	8.0302
5248.0421	-11.7105	-22.0319	2.4823	-14.5271	-33.1453	-21.1104	-7.0061	-24.0229	-13.7533	-15.4398	-8.0920	-12.8879	4.9993	-23.9947	12.9615	-5.3173
5256.0422	-5.9558	-12.9985	8.2851	-3.8141	-19.1955	-10.0968	-1.8862	-10.0802	-9.3158	-10.0535	-6.7601	-6.4408	0.9488	-12.7641	19.2673	-7.3525
5264.0422	3.8265	2.1904	-0.4461	15.9746	2.0599	11.8564	0.7843	8.2787	0.6590	0.3823	-0.2229	7.0385	-3.8995	5.3494	9.9695	-5.3290
5272.0423	10.5163	13.4184	12.9837	13.3300	19.1708	24.2906	6.6396	21.7218	6.8812	7.4629	4.2050	13.0930	-5.9119	17.1260	2.5539	-1.4121
5280.0424	11.2705	13.5757	15.4699	15.4551	12.4392	32.9101	10.1719	23.8598	7.1207	7.2760	9.3035	10.6386	-3.6652	14.6863	13.6400	3.9079
5288.0424	2.6663	-1.5004	0.5522	11.6380	-5.2493	3.2781	3.8042	11.6274	1.7524	-0.1460	2.0555	4.6775	-4.4655	1.9648	9.1867	-9.9976
5296.0425	6.7796	3.6385	-1.3679	4.8738	8.3309	3.8575	7.2936	12.1024	9.2071	7.1891	9.8811	10.4728	-2.9234	7.9351	14.5855	-3.4036
5304.0425	19.0050	21.2916	0.4699	25.9241	26.9273	43.1029	21.0207	25.6512	19.1496	18.3263	25.0603	20.0623	-2.1808	23.4146	32.1304	11.8037
5312.0426	6.1333	5.8867	3.4159	8.1480	11.0055	15.9687	13.0591	1.3833	4.1514	4.7087	7.5330	5.4025	0.8689	6.4063	25.0492	5.8322
5320.0427	-5.5915	-12.5500	-9.3147	-9.5336	-13.3049	-9.9393	-2.1469	-22.0472	-5.7437	-6.7380	-0.7043	-4.0208	5.8047	-13.1588	13.6571	3.7815
5328.0427	-5.0205	-13.8715	-6.1592	5.9497	-15.7851	-1.9432	2.4995	-10.8474	-10.0383	-11.2708	-6.0760	-2.1046	3.1028	-11.7171	8.7517	-0.4905
5336.0428	-4.9010	-8.0069	8.6108	11.1352	-6.8892	11.5811	3.5543	-2.1965	-17.0235	-14.7383	-17.6420	-4.0741	1.2805	-5.9738	9.1594	1.7317
5344.0429	0.8656	-3.3878	8.0075	15.5452	-11.9650	33.9907	1.2797	2.8353	-12.1064	-11.5452	-7.1326	2.1662	0.8807	-2.8954	3.7131	5.7188
5352.0429	1.0888	-6.6187	20.4053	1.6550	-5.8782	22.5908	7.4645	3.4796	-11.2367	-11.5304	-6.8305	4.3433	1.9899	-3.3816	0.2488	5.8203
5360.0430	9.1254	11.8182	29.1491	4.5177	27.6781	29.8015	12.4159	12.3546	1.4568	4.1590	3.7151	10.5082	4.7616	12.5382	11.2670	23.0638
5368.0431	18.2065	19.1695	42.7659	17.6809	33.1313	35.7996	14.2495	17.1773	15.2319	15.4274	23.2751	20.0991	4.7482	17.9429	12.3618	25.1220
5376.0431	6.4896	-5.6858	50.3643	-5.2205	14.0371	-2.7472	3.3902	-2.7947	2.0997	0.3123	8.3701	15.7237	7.2785	-1.6987	15.7807	14.0389
5384.0432	1.3575	-8.3655	32.3093	-4.3405	6.0660	9.5366	0.1947	3.5232	-8.0481	-7.9120	-3.5132	9.8920	8.2291	-3.9045	25.3582	19.7108
5392.0433	3.5962	-3.9324	28.4775	3.4172	-1.8422	25.7996	8.7519	7.9725	-6.9888	-7.1173	1.1366	5.8556	5.9591	-2.5338	26.1256	16.6126
5400.0433	2.4299	-4.1524	9.7267	-12.9064	-5.6087	10.1736	-3.0492	-19.1218	-0.7046	-1.5678	5.8546	4.8826	2.5661	-4.6497	21.1364	2.3146
5408.0434	-1.4352	-2.0030	-16.4717	-12.7435	-7.6939	19.7055	-7.3082	-19.2540	-6.2705	-4.9184	-3.2985	-0.6123	1.7369	-3.2596	16.5891	4.5347
5416.0434	-2.7024	-4.5323	-15.4119	10.0190	0.5960	19.0143	4.2066	-3.8613	-11.6982	-9.4321	-10.8175	0.4718	4.0711	-1.8757	21.2950	12.0130
5424.0435	10.7121	10.2505	-9.2111	30.6660	22.2808	14.0322	7.0592	7.6268	13.1945	12.3166	15.1511	16.9776	0.4231	13.2207	11.1275	8.6144
5432.0436	10.0943	13.2600	4.3388	22.5423	21.3458	14.6844	8.6939	12.8292	13.3885	13.1657	17.0069	10.9256	2.9027	12.0901	4.0496	15.5008
5440.0436	1.4582	3.4957	15.0941	19.2427	17.2723	8.3929	6.2689	3.3776	-3.6726	-0.6997	-3.3333	2.4962	6.0967	3.1643	14.3463	18.2699
5448.0437	6.4547	8.3280	21.1917	18.7434	21.7696	-2.0092	3.0247	2.7432	7.4688	8.5571	6.0556	8.5642	0.2439	8.6322	6.9943	3.6619
5456.0438	1.0160	2.6606	16.4211	2.1135	11.2205	-19.5732	1.2281	7.5056	6.4699	6.6112	4.2650	0.4188	1.0214	2.3650	8.6414	1.2128
5464.0438	0.8761	4.9612	4.7370	9.2564	12.2227	-10.8880	1.9448	16.4156	3.8507	4.8672	-1.9063	0.8043	-2.4503	6.7965	7.3667	-2.4323
5472.0439	-3.2257	-0.6672	-0.9363	-9.0302	8.2972	-29.5148	-0.4356	7.6032	3.5927	3.6435	-3.5615	-2.9291	-1.8106	1.5860	-5.9782	-6.5753
5480.0440	-23.7152	-22.3221	-25.0700	-38.5605	-17.7764	-63.5825	-12.7305	-19.1395	-16.4409	-14.2856	-25.7263	-26.8377	6.1331	-22.9529	4.6311	-3.4523
5488.0440	-9.3017	-0.8460	-23.0648	-1.1580	-9.5958	-13.0028	-3.9250	2.1209	-7.3766	-4.7110	-14.9602	-16.2815	-3.8361	-3.0583	-0.3093	-10.4760
5496.0441	5.2930	5.6716	-3.4032	8.6653	4.7117	-5.6174	0.3490	18.2150	11.8434	9.2182	9.9237	7.2841	-5.0727	7.9839	-12.5776	-8.2707
5504.0442	-12.7113	-20.3221	-15.9745	-31.3618	-8.0141	-55.7348	-13.0501	-4.9300	-3.8204	-6.2220	-10.2416	-4.4602	3.7767	-14.0035	-2.8220	-4.2985
5512.0442	-9.1196	-3.5295	-16.8089	-23.5828	-0.1108	-22.0251	-1.7946	1.6220	-7.0187	-4.7085	-17.1559	-11.7450	-3.2542	-1.3820	-2.1951	-9.5845
5520.0443	-1.6695	8.5979	-16.8028	-8.8990	-2.3836	-4.0981	-1.4569	4.5817	3.8511	5.1057	-1.9789	-9.8016	-7.0994	5.2451	-12.9644	-13.8214
5528.0443	-7.5763	-2.2969	-19.8770	-17.4145	-17.5273	-22.8675	-9.5205	0.8288	0.1713	-0.5819	-5.4874	-13.6966	-6.0703	-4.8792	-23.3222	-18.8029
5536.0444	-3.1127	2.5741	-14.2284	-7.3517	-4.2188	-6.7770	-1.8431	12.0056	-0.2705	-0.1531	-6.8603	-6.3731	-6.1880	3.0684	-25.0997	-12.0585
5544.0445	-12.5371	-6.1951	-24.4991	-20.9050	-15.1444	-19.6542	-12.1124	-7.6759	-10.6002	-8.8373	-18.7519	-16.9556	-2.7830	-8.0639	-29.2312	-10.9970
5552.0445	-24.0613	-17.0005	-30.2134	-47.8439	-34.9642	-32.9118	-17.7439	-17.8528	-24.5574	-21.4370	-35.7001	-33.3198	-2.8979	-20.4348	-33.1081	-18.4643
5560.0446	-18.2972	-11.7158	-33.4319	-39.3568	-24.0747	-26.9250	-10.8939	-5.1582	-16.8536	-14.6821	-27.6957	-24.9711	-3.9294	-12.2996	-23.1314	-15.9125
5568.0447	-20.7719	-17.0243	-35.9203	-44.9465	-26.6620	-41.3168	-13.2751	-21.5414	-17.4765	-15.7472	-28.6015	-26.1931	-3.7098	-17.3366	-22.3655	-22.1592
5576.0447	-24.6528	-20.5498	-39.7216	-48.0598	-35.5281	-38.2408	-13.8057	-32.0004	-25.9264	-22.8972	-38.7483	-32.3625	-6.4181	-21.2289	-22.9926	-31.2606
5584.0448	-13.1817	-0.5982	-37.6782	-11.3677	-18.4647	-11.9321	-4.7453	-6.2885	-12.7765	-9.0919	-24.9453	-24.5310	-10.3181	-3.6122	-21.8665	-26.7304
5592.0449	9.2108	20.4793	-4.9661	3.6565	13.0321	12.4254	6.2442	13.3260	15.0249	15.0696	10.3729	2.5486	-11.0913	18.0861	-31.3733	-15.8080
5600.0449	14.9902	11.9150	4.1280	-11.6739	10.6639	6.2627	-0.9710	3.2386	24.0349	18.6182	26.5215	20.1719	-8.2442	14.3909	-32.1445	-14.3965
5608.0450	4.0779	3.5909	-8.9188	-5.1322	-3.4891	-3.6937	-2.6731	3.4738	10.4994	7.3270	10.2310	4.8043	-5.9084	4.2456	-25.1191	-13.3038
5616.0451	9.6935	13.1645	-6.4461	13.0765	22.2630	9.4840	6.2859	14.5374	13.4295	12.4590	10.6705	13.4569	-4.1362	16.2617	-22.4180	-0.0129
5624.0451	4.1580	1.7872	-6.0508	-0.2598	12.6912	-6.6333	-2.7915	-0.4202	8.0904	6.2211	6.1975	11.6527	-0.7913	5.7688	-21.7159	-0.2744
5632.0452	-6.1613	-4.4001	-1.5959	-12.5348	-14.2851	4.6267	-1.0843	-3.7917	-9.8970	-8.8298	-8.7164	-11.3594	1.9668	-7.7389	-11.4707	2.7846
5640.0452	3.7390	5.9132	-6.1310	-13.1325	1.9090	25.7572	2.3071	1.0392	0.9912	1.3956	4.4869	2.5306	1.2950	4.5843	-2.1475	9.9423
5648.0453	-7.2704	-0.4312	-9.5277	-27.3087	3.8106	-23.3420	-5.0683	-10.6763	-1.6698	0.7912	-7.3766	-11.6316	1.6260	-2.9940	0.4708	0.2698
5656.0454	-12.0759	3.3359	-3.6004	-8.2521	14.7613	-21.8459	3.2122	0.8813	-12.0141	-4.4068	-23.5051	-21.9540	3.6998	-0.6765	13.9016	9.2238
5664.0454	0.1913	7.1643	-10.2075	-2.5533	22.3012	11.3706	7.5645	6.0914	-3.4997	0.5925	-8.8259	0.7261	2.2155	9.4015	11.9611	13.8466
5672.0455	-4.4375	-0.6250	-5.6810	-35.9907	2.4331	-6.7047	7.7629	-5.7889	-3.5437	-1.8800	-5.9908	-9.6226	1.1447	-1.2790	0.5443	1.5400
5680.0456	-0.4006	5.5135	0.2270	-23.7978	9.4451	-1.3856	6.7470	2.1520	1.6838	3.4660	-0.5711	-5.2944	0.6572	4.1256	3.2438	4.4342
5688.0456	1.2415	4.3553	-4.1249	-10.2989	1.5794	7.3857	-4.2844	-8.6004	2.1756	2.8913	3.0758	-0.3474	0.2918	1.7232	-3.1687	2.5022
5696.0457	-1.4327	-3.2693	-4.6763	-19.5275	-12.8639	-1.8494	-8.6895	-29.1920	1.4203	0.3228	7.1127	-3.7361	2.1896	-8.4981	-8.1379	-1.9806
5704.0458	2.4261	-5.3048	-3.3131	-20.6917	-4.7772	-2.8189	-7.5060	-13.1822	5.5212	2.1890	10.1227	8.7718	1.6462	-3.4284	-5.1282	0.0995
5712.0458	-3.8825	-1.9705	2.5662	-22.7184	-10.2796	0.7544	-3.0940	9.7445	-4.1453	-4.0385	-4.2287	-7.6451	0.7877	-3.5217	-3.7155	2.9906
5720.0459	-0.8503	1.0128	2.6946	-10.2108	-12.8681	2.3198	-4.4688	10.9170	2.1413	0.8446	5.1046	-5.5371	0.4446	-2.8178	-8.1577	2.1634
5728.0460	-2.8696	-11.0490	-0.1665	-3.6496	-16.0117	-13.1710	-8.0230	14.0842	-0.1671	-4.2470	2.1665	2.5852	1.8359	-7.9693	-11.4418	0.5822
5736.0460	-10.0870	-5.8402	-5.1647	5.0648	-8.5455	-7.3879	-1.4569	25.2997	-12.3111	-10.2580	-15.8574	-13.4261	5.0282	-6.4854	1.2646	13.8410
5744.0461	-2.8638	5.2280	-5.3911	11.7185	6.0456	7.5572	-2.9190	16.7371	-4.4579	-1.3494	-7.5035	-5.4491	3.4864	3.0151	2.4955	15.5807
5752.0461	-2.4976	1.3588	0.7594	8.4445	6.0840	9.9988	-1.3170	12.9363	-7.8587	-5.0824	-10.6505	-1.8594	3.1867	1.9361	4.2838	13.5869
5760.0462	2.6913	7.8777	-2.6098	24.3080	19.7387	13.7330	3.5013	21.7157	0.8213	3.3065	-0.2530	5.0473	5.8260	8.6238	13.4639	24.2702
5768.0463	4.2115	3.2409	10.0941	15.5274	19.7588	-10.1097	-0.4230	13.9450	10.2957	9.4812	13.0251	9.8048	9.1339	3.6672	9.5024	24.5538
5776.0463	3.4838	6.1655	15.4311	19.1816	20.3677	2.3769	6.4684	19.6196	4.7119	6.0868	7.1689	4.4686	9.2503	5.0564	17.5777	28.1025
5784.0464	11.1850	11.4473	2.6837	28.6315	24.0113	23.7797	6.3918	16.9841	10.8026	10.5501	14.7918	17.2544	4.3952	13.2986	10.1220	21.7965
5792.0465	-5.0267	-11.8363	2.9805	-6.4818	-4.9223	-16.5298	-4.0582	-7.5341	-4.5806	-5.8600	-1.8633	-0.2749	7.4662	-10.6301	-2.5701	10.5103
5800.0465	-10.7378	-4.7953	-11.0815	2.4925	-1.5605	-14.8301	-2.3031	-2.8191	-11.1054	-7.4309	-14.7827	-15.0697	6.3298	-7.9501	7.1378	11.9001
5808.0466	-2.3174	4.6070	-20.2416	8.0723	0.9448	-0.2965	-3.0101	-3.6258	0.4007	2.2703	-2.1556	-6.0180	-0.6198	1.5569	0.4176	0.0843
5816.0467	-5.9357	-9.0732	-20.8838	0.8917	-18.2199	-9.4958	-8.2077	-12.2654	-3.2803	-4.6331	-0.4685	-5.7801	2.4389	-10.8564	1.0034	-1.3305
5824.0467	-0.3664	-7.2557	-24.0526	19.5480	-8.2015	-2.2800	-11.5597	-13.0189	1.3637	-1.0729	4.3954	8.0711	1.7512	-5.2045	-1.4767	-0.0548
5832.0468	-10.8551	-22.0197	-11.8550	-13.6562	-27.9792	-27.6939	-14.9438	-34.2713	-10.6571	-13.2263	-8.8190	-6.0662	1.7493	-21.1416	-12.5662	-13.5258
5840.0468	-11.6635	-18.8087	-8.8814	-4.9005	-28.4512	-19.8237	-6.3155	-19.8909	-14.0826	-15.0423	-13.0321	-12.2247	1.1380	-19.1103	-0.9097	-11.4175
5848.0469	8.5049	6.2108	4.1963	22.3801	11.5617	12.4967	3.6371	8.1651	6.9276	5.7395	6.3473	14.0069	-4.7835	10.3217	-2.3737	-5.9075
5856.0470	-3.7269	-4.4010	4.6513	-17.0265	-5.7021	-11.3815	-2.3828	-9.9168	-2.9674	-2.7098	-3.5894	-5.6693	0.1637	-5.4042	2.9647	-4.7487
5864.0470	-4.0637	-0.2598	-5.8541	1.7164	-11.5885	4.4162	2.4648	-1.6556	-6.0446	-4.3874	-6.1185	-11.3325	-1.5994	-3.6975	12.3216	-5.0509
5872.0471	11.3286	14.7185	22.7833	25.2892	16.2744	27.7891	15.2183	24.1421	6.7303	7.1522	7.2411	9.3479	-4.9341	15.5568	-3.7860	-0.0656
5880.0472	-1.0522	-1.7994	15.6801	-7.7125	-0.0461	-13.0258	1.6715	8.0202	2.2821	1.2678	3.8563	-2.6305	3.6507	-3.2218	-7.5333	6.5108
5888.0472	-9.2185	-13.7302	-3.9635	-13.6498	-16.1407	-21.2798	-6.3044	-4.4818	-8.5830	-9.4441	-9.0983	-8.3660	3.0797	-12.9672	-1.0857	-1.2544
5896.0473	-3.1215	-6.1929	8.6153	2.2162	-0.8743	5.8794	3.9481	7.5499	-11.6640	-10.3613	-13.6745	-0.4656	0.8802	-2.1786	7.3971	2.9520
5904.0474	6.6069	7.2189	9.8411	7.9911	10.5852	14.3826	5.7480	10.7670	5.8508	5.6774	8.1916	7.3187	0.5916	7.5077	5.8749	7.5309
5912.0474	6.6235	3.8616	18.8974	-7.9171	-1.6473	9.3028	7.3950	0.9249	7.7462	5.5266	14.0321	3.9419	-0.7813	1.9381	-0.9452	-1.6272
5920.0475	-6.8087	-12.5090	9.3136	-10.6205	-27.9920	-11.1947	2.5605	-4.1498	-8.1052	-9.9407	-3.8999	-12.5348	-0.0985	-14.7511	4.6877	-10.5765
5928.0476	-0.5561	-3.4131	4.3346	11.1800	-11.8117	-6.6158	2.9877	2.5353	-0.2052	-1.8204	0.1067	-2.6425	-4.6396	-3.1672	-1.0801	-15.3342
5936.0476	17.4502	16.8113	26.2122	23.0013	32.4590	23.5347	15.6721	12.2427	16.6465	15.8488	19.7059	21.8461	-1.9820	19.6635	5.5163	6.0210
5944.0477	13.9714	10.2323	20.7492	14.6408	16.9034	10.5878	7.6231	2.7951	19.5695	16.6431	29.1326	16.6431	3.8547	8.5901	12.8007	12.5120
5952.0477	-2.1487	-7.4522	20.2823	-15.1741	-22.2573	-8.1287	-1.9983	-20.4493	-1.1442	-3.2022	6.4837	-8.0297	0.9717	-13.1468	0.6142	-8.9628
5960.0478	-6.9097	-9.9874	15.3772	-14.2357	-19.9805	-2.9786	-1.3613	-19.7643	-13.5727	-12.5448	-12.1208	-11.9250	-0.7940	-12.6712	3.1793	-11.0523
5968.0479	-1.1126	-2.4290	-2.2479	15.2661	-4.1602	-6.0169	-3.9636	-3.1906	-0.3481	-0.7086	-0.3019	-0.0879	-0.3366	-2.7721	2.0866	-3.6904
5976.0479	2.1927	9.8369	-11.4485	21.0478	9.1877	13.9214	-0.8510	3.3712	2.5990	4.8076	2.2553	-0.2651	1.3919	6.3100	-1.3293	10.0203
5984.0480	2.0179	9.9330	-23.8594	5.3396	-0.9422	19.5079	-2.6435	-1.6188	4.8303	5.7495	7.6121	-3.0421	1.0492	4.1518	-8.9152	8.7631
5992.0481	1.4372	-2.5792	-6.4082	-10.6255	-13.8283	-4.7369	-2.9960	-6.7622	8.3245	4.3520	15.4218	0.3551	1.5898	-5.7035	-16.5585	-0.9225
6000.0481	9.3880	11.4086	10.3099	17.6492	16.3735	20.6827	10.8602	13.8264	9.4393	9.1456	14.2532	9.1475	2.9850	10.0972	-1.8664	15.6676
6008.0482	14.9653	19.6355	4.6783	23.9664	20.5294	35.8332	12.1077	14.7015	16.7110	16.0733	24.3262	13.4164	2.1291	16.1981	-3.0816	18.4608
6016.0483	-3.2813	-9.2778	-8.8133	-25.1072	-17.8264	-1.2665	-5.0299	-27.6719	0.2951	-1.9733	12.4619	-4.8434	10.6440	-15.2863	4.0348	15.9563
6024.0483	-10.3365	-8.7228	-24.1169	-10.8344	-19.0077	4.1039	-0.9857	-17.1416	-12.0815	-10.1015	-5.9005	-16.9992	10.0972	-15.1922	18.5247	18.3185
6032.0484	8.3896	13.3279	5.4005	11.4240	4.7123	28.2077	14.3039	14.2336	7.5238	7.5301	12.2163	1.4658	-2.0789	9.7620	0.3105	3.7961
6040.0485	7.1042	0.7879	21.0634	-17.7623	1.3285	-3.6827	-2.5597	-18.0080	12.0702	8.8740	19.5847	9.0954	1.5413	-1.1933	-0.0947	-1.3416
6048.0485	1.8583	-1.5226	-0.5351	-0.5396	-3.6703	-4.0485	-6.7743	-23.8358	5.9795	4.6795	12.2427	2.7445	3.5280	-5.2099	9.6293	2.1616
6056.0486	14.5708	14.3510	-1.5234	21.5962	10.0632	42.5087	7.9936	0.6341	12.6966	11.2759	21.7915	15.6414	-0.5401	12.4850	2.6442	8.7941
6064.0486	8.1618	2.9042	-0.4850	-4.4258	1.9041	17.8605	-1.9103	-19.0519	9.7870	7.2859	19.9417	11.8196	4.3135	0.6472	-0.2646	10.1827
6072.0487	4.2094	3.7134	9.4295	-0.4779	0.6370	3.3820	5.7795	-16.6316	7.4532	6.5960	15.2205	-0.2274	3.5894	-1.9504	2.1361	4.9478
6080.0488	13.8410	15.5976	12.1199	9.6273	16.2544	29.8828	12.6819	-1.5269	14.5256	13.8216	22.6114	11.5271	0.6188	12.1924	3.8405	9.1815
6088.0488	0.9428	-0.3183	-0.0995	-12.5159	0.3238	0.2800	-4.8347	-21.9124	3.6729	3.2900	9.4548	0.9911	5.7446	-4.3496	0.0441	9.9328
6096.0489	0.5880	4.4691	1.9707	4.1560	4.6087	17.1245	2.6320	-10.9748	-2.9482	-0.5547	1.3058	-3.0690	5.8581	-0.6011	1.3265	16.1711
6104.0490	12.7815	13.9063	0.9854	8.4805	10.9687	41.1833	5.7743	-0.0124	10.7996	9.8795	19.5184	13.3470	1.7147	11.1617	-7.7944	14.6180
6112.0490	4.7242	4.2850	7.7386	-26.3630	-9.9314	7.7881	-2.8219	-20.6928	10.2668	7.7946	19.9941	-1.0682	1.7257	-3.4232	-14.6659	0.7475
6120.0491	6.6626	16.6321	10.7710	-14.3302	-1.9184	43.4918	0.1176	-12.0384	1.8894	4.7219	7.7182	-4.7999	-2.0639	6.7473	-2.0071	3.7690
6128.0492	13.5649	16.8115	5.8326	-3.8576	-1.3837	63.5946	-2.7660	-0.7175	6.1990	6.1045	15.5309	11.1130	-2.9275	11.9429	-5.8683	7.5970
6136.0492	13.6466	12.9786	9.2418	7.4890	9.2163	37.6241	2.9143	5.3382	12.9726	11.1619	22.6146	15.2061	1.9606	10.5403	-0.3978	14.7484
6144.0493	10.3885	18.0129	5.9711	26.8441	20.4656	35.7472	7.6936	14.8568	6.1730	8.4637	6.8360	8.8509	-1.5290	16.4095	0.2653	10.7169
6152.0494	3.9334	1.9703	13.9903	-1.3132	-7.8027	21.5552	4.0546	-0.2023	-1.5860	-2.5585	2.8734	1.7447	-2.3439	0.5295	-15.8845	-3.4550
6160.0494	13.0017	11.3135	15.1372	-1.6121	9.6445	45.8520	9.6180	-1.5754	5.4691	5.0270	13.0240	13.9841	-1.2640	11.1683	0.9705	6.8563
6168.0495	7.3389	12.9376	3.2952	-4.8918	12.2569	49.6662	6.5695	2.1848	-4.0700	-0.5072	-3.1327	5.6807	-2.0580	12.7534	11.4777	8.9921
6176.0495	-9.1498	-10.9741	0.9001	-21.5114	-15.5679	5.1795	0.6229	-2.7896	-16.4410	-14.4972	-13.8639	-12.3788	6.6314	-12.1852	21.4380	12.4696
6184.0496	-0.3057	0.0234	-0.5371	7.7204	7.5491	13.5639	3.9590	14.8944	-6.0508	-4.0023	-6.7061	2.2228	3.7518	2.9181	27.9019	14.9548
6192.0497	2.1310	-1.0967	9.4560	-9.0263	3.1438	11.7489	1.9144	13.9440	-5.1262	-5.1915	-9.5171	7.2854	-5.5957	5.9276	-0.9572	-7.9768
6200.0497	-3.0322	-11.6484	-0.3600	-21.4565	-3.8797	-3.4676	-3.2743	0.5888	-9.1939	-10.2268	-13.2236	6.0993	-2.5626	-2.6565	2.1574	-7.9455
6208.0498	-4.5761	-6.6447	-18.6093	3.2916	4.6433	-2.1940	-2.4815	6.4605	-9.9750	-8.4692	-17.6649	3.3017	-1.7476	1.4747	11.2257	-2.0502
6216.0499	-7.2330	-14.1147	-6.9133	-12.6194	-12.0165	-18.4502	-0.4689	6.3111	-7.4623	-9.2368	-8.8970	-3.3041	1.7951	-9.2564	1.2442	-1.7029
6224.0499	-4.8993	-5.4393	-2.2805	-8.2858	11.2543	-16.3305	-1.8771	9.2281	-5.0361	-3.6456	-10.6000	0.6451	4.3950	-0.5612	9.6389	10.8630
6232.0500	-6.5744	0.6195	-4.7439	5.6383	23.8057	-14.9924	-1.2144	12.1526	-10.8775	-5.5823	-25.9673	-2.2286	-0.9146	6.9039	2.6131	2.9428
6240.0501	-4.3751	-9.1465	-13.8719	4.9477	5.4351	-32.8780	-3.8824	13.2036	0.5593	-1.3303	-7.4674	5.1729	-1.4264	-0.5559	-8.1491	-6.7099
6248.0501	-6.7938	-8.6085	-16.9147	23.8634	15.2293	-46.1874	-6.2982	27.3300	0.1947	-0.3836	-12.8875	5.0677	0.3219	1.6760	-3.2003	-0.6268
6256.0502	-10.0516	-11.7672	-1.1159	35.8953	16.3109	-41.0903	2.6828	32.9728	-10.9644	-9.1298	-24.3978	-0.4683	3.3287	-1.3942	6.0454	6.4765
6264.0503	-4.0216	-10.9624	-1.3748	28.7687	7.0189	-29.9137	3.5470	30.4560	-1.6788	-3.4226	-6.6269	5.7116	3.4746	-2.0041	12.5374	6.1765
6272.0503	-12.4207	-10.1757	2.2696	15.3771	2.1353	-46.9395	-2.7653	32.7063	-8.7337	-7.2929	-21.3724	-10.7768	0.8331	-5.0439	4.5238	-1.6446
6280.0504	-5.3863	-11.1732	4.9334	22.2498	6.7534	-43.2430	1.0536	37.0223	0.8893	-1.5174	-5.5713	3.2756	3.6056	-2.9300	1.1428	5.3664
6288.0504	2.3494	-7.6866	-10.0238	17.8685	13.2117	-31.8247	2.2540	34.1905	12.9753	7.5640	12.1569	16.7128	5.3397	2.4617	2.4621	12.6078
6296.0505	-11.4339	-4.8843	-14.9296	8.5983	10.8314	-38.1739	-0.1664	26.9593	-5.9848	-3.2125	-17.5201	-11.0578	4.2843	-1.5573	8.6922	10.1652
6304.0506	5.3728	9.1395	-5.8562	22.1821	23.0467	-11.8697	1.4755	30.6820	13.6893	13.2032	8.4115	10.1703	-0.6542	13.2594	12.2870	6.5086
6312.0506	5.3827	-4.4733	4.7054	-20.9190	-2.5368	-23.4898	-6.6917	15.7725	16.2098	9.7623	16.6962	14.1827	-4.1913	2.2919	1.2475	-12.5631
6320.0507	-20.4382	-26.7130	-7.5217	-39.3166	-39.7423	-52.4066	-17.2692	-1.2214	-17.4303	-18.9143	-25.1784	-21.7532	-3.2019	-23.6446	6.8886	-25.0241
6328.0508	-7.9917	-5.6370	-10.2840	17.0791	-8.7171	-24.8486	-9.4047	23.9779	-5.7453	-5.1489	-16.0578	-7.0937	-5.8540	-1.7689	9.4548	-14.8942
6336.0508	-3.2497	-6.5023	0.6543	14.0831	-0.2398	-23.6525	-7.8657	29.4961	-0.9838	-2.5212	-9.2141	4.3306	-3.8668	1.1246	0.4947	-8.5970
6344.0509	-13.1027	-17.0154	-11.5339	-6.2974	-23.8440	-26.9730	-16.0112	8.1792	-13.9502	-14.4061	-21.0913	-9.9253	-2.6202	-12.7936	3.9106	-13.6089
6352.0510	-4.9874	0.2180	-6.0629	-0.8546	-13.8837	-10.8178	-9.8158	10.4485	-1.9347	-1.4755	-7.3451	-10.0400	-6.2541	-1.6610	-1.4978	-15.3121
6360.0510	-9.1436	-10.6493	-3.2772	-15.0331	-21.3929	-29.2020	-13.5824	3.1908	-4.5862	-5.9774	-8.9673	-10.4493	-3.3677	-10.4367	-4.1532	-15.9836
6368.0511	-17.9190	-16.1265	-13.9168	-18.0645	-29.0180	-22.9468	-16.1769	-4.6811	-22.0920	-19.4758	-31.2267	-21.6478	-3.5546	-15.8241	5.5794	-17.0857
6376.0511	-8.1682	-0.2112	-7.9835	-12.2657	-11.1272	-1.2040	-3.7631	8.7097	-11.8050	-8.4740	-20.4385	-15.3432	-6.6412	-0.8764	4.4881	-13.9066
6384.0512	-2.0353	-10.8425	-15.5191	-11.8108	-17.9827	-20.9515	-8.0458	4.3489	3.1419	-1.7828	0.3769	4.2973	-7.8174	-4.2479	-10.3670	-24.8453
6392.0513	-5.6319	-7.8083	-10.5653	-6.3030	-12.9047	-21.8908	-6.5579	-2.9671	-4.2453	-5.5458	-11.9776	-4.0333	-9.2171	-3.6810	-19.4535	-28.0346
6400.0513	-3.2330	3.1579	-1.9405	-9.5661	5.5312	-11.0143	-2.3232	-6.3092	-2.4265	-0.0032	-10.0812	-6.3894	-4.6934	2.6858	-10.8917	-11.5024
6408.0514	-10.3074	-18.4682	-19.8393	-26.4050	-19.1395	-31.0592	-16.2664	-30.2480	-7.8570	-9.5970	-10.6539	-4.3486	-0.7218	-15.2686	-5.2487	-16.1083
6416.0515	-18.9630	-18.5261	-28.2734	-24.6819	-26.8067	-25.5920	-13.7345	-33.2426	-23.1917	-20.1999	-31.5224	-21.8706	-2.8058	-18.6355	-3.1541	-20.6131
6424.0515	-4.9738	3.2201	-23.7274	-1.0865	-1.2621	-1.6542	-1.4878	-5.0019	-5.0963	-2.2155	-12.4535	-9.7335	-5.4028	2.2428	-4.8975	-11.5086
6432.0516	3.5308	5.5578	-4.7577	14.7326	7.4479	-2.6871	5.5465	6.6003	6.4466	5.6566	3.7565	3.5456	-4.5200	6.7866	-18.1574	-8.4666
6440.0517	1.2229	5.0404	2.4535	14.5082	12.1819	-7.1771	8.7473	-6.5988	2.9865	4.0890	1.1231	-1.4792	-0.2899	3.3091	-17.8774	-1.6462
6448.0517	-2.5174	-1.5316	-12.3219	-9.6556	1.5271	-10.2445	2.8603	-20.1668	1.8745	2.2687	4.5007	-5.1309	4.8971	-4.8608	1.8454	6.1196
6456.0518	-5.8007	-2.2499	-2.8862	-6.2993	-3.4421	-0.9590	6.7138	-11.2794	-7.5174	-4.8559	-5.4193	-12.9262	5.7254	-6.9728	13.9668	10.0103
6464.0519	4.5685	6.3282	17.4453	18.8859	12.4767	1.8178	10.1054	-1.0682	3.1925	4.1711	2.6336	2.5418	-1.9509	5.5985	-2.3621	-3.7921
6472.0519	2.3251	-2.8403	17.9995	-4.8162	-2.1942	-12.0525	3.3920	-6.0768	3.0629	0.9421	2.4224	3.3618	-5.4510	-0.6068	-10.3754	-18.4497
6480.0520	-4.7965	2.6741	7.2132	-11.2721	-9.7679	7.3812	4.2281	-2.9431	-9.4634	-6.1413	-11.7981	-16.0992	-3.5048	-2.3246	3.5153	-8.3259
6488.0520	2.9444	11.0916	8.7556	-1.1849	7.8130	9.1012	2.3537	-6.6132	3.6895	6.2267	3.7123	-4.4770	-1.2155	5.3888	3.8923	0.3170
6496.0521	3.6807	3.2534	11.1619	-1.7405	14.4752	-10.2803	-0.3109	-2.5908	8.8091	8.4586	10.2834	6.0368	4.0701	2.7662	9.2160	9.1528
6504.0522	10.3841	15.1709	10.4762	17.7165	15.3265	13.7647	6.4692	17.7989	15.1893	14.4810	18.5183	8.0018	-0.0745	12.3248	0.1967	8.6779
6512.0522	8.0266	6.6661	24.3104	-8.8962	-4.5766	8.8785	3.7930	-2.9126	11.8213	8.8697	20.1914	2.9925	-0.8576	1.2912	-15.5950	-2.5241
6520.0523	-7.8784	-12.4135	14.7640	-22.2496	-10.4647	-17.8371	-5.8519	-22.3103	-10.2316	-9.5637	-8.8785	-8.3171	5.0286	-14.0542	3.5486	1.1163
6528.0524	0.6758	6.3810	5.7013	17.3151	12.4289	-1.2535	-2.0392	-6.8779	-0.2175	2.6813	-4.1816	-0.6207	-1.0901	4.4363	0.2177	-1.1178
6536.0524	5.5806	9.7737	23.1644	18.6572	11.3189	8.1499	3.7653	-7.3523	4.8579	6.4394	7.2884	1.3752	0.5834	4.5984	-3.4095	2.9496
6544.0525	2.1616	1.5941	26.8736	13.8068	9.7365	3.8175	4.0567	-2.5411	-2.5660	-0.8392	-1.2751	2.2158	2.8770	0.6521	10.9062	6.7704
6552.0526	12.4408	10.7807	30.9982	14.6575	17.5589	8.4230	7.1877	5.4152	13.0820	11.6036	14.8366	14.6125	-4.3988	11.9210	-4.2111	-6.2320
6560.0526	8.7450	2.6812	24.7684	11.1913	7.3189	2.0434	2.5432	-10.3134	9.8435	7.4225	15.6236	12.2262	0.1028	2.3870	-3.8428	-2.2423
6568.0527	-7.9553	-15.0303	9.7158	3.3602	-10.4510	-15.5491	-6.5950	-31.4278	-12.8758	-11.8603	-10.2183	-5.4907	6.3714	-16.2907	10.3053	1.9617
6576.0528	-10.2746	-11.8026	7.1880	-5.2291	-11.0789	-13.3746	-4.0023	-36.8714	-14.2428	-11.1268	-10.4822	-14.6854	8.9835	-17.8708	22.1492	8.1328
6584.0528	5.1978	6.4949	6.5275	23.2187	13.4357	9.4341	6.2374	-4.6481	5.0840	6.4542	9.1735	4.6589	4.2444	4.0597	26.7351	11.9993
6592.0529	11.7519	7.6797	15.9351	16.0104	10.4282	9.1554	5.8012	5.1874	13.1270	10.5143	15.3588	15.6021	-5.9323	10.5221	3.0521	-10.8759
6600.0529	4.0629	1.0731	7.6816	6.9312	-3.7722	5.7659	0.8356	-9.3547	3.3185	2.2495	6.2066	3.8634	-3.4015	0.4861	7.5766	-10.2716
6608.0530	15.1726	18.3249	4.4722	48.4929	29.9164	23.0045	18.5894	26.9388	16.4791	16.4311	17.8608	17.2357	-2.2643	20.8785	22.3182	7.7728
6616.0531	21.7459	17.6636	11.6439	17.8399	29.4995	14.8972	20.5088	23.1597	30.9950	26.0048	38.0099	26.9009	-2.7095	21.8099	15.1112	3.6182
6624.0531	-0.3418	-8.1571	-11.7496	-24.2276	-16.8999	0.5035	-0.5635	-21.3264	1.3648	-1.2395	8.1636	0.0109	0.2916	-8.1681	25.0414	-7.0713
6632.0532	-3.5473	-3.5852	-2.4885	3.1362	-8.7322	13.7343	13.1749	2.4782	-13.1324	-10.7737	-15.2312	-8.2172	-4.4390	-1.3903	27.7661	-10.5232
6640.0533	12.4819	10.0033	14.7385	15.2093	19.5951	9.7249	18.8242	13.6835	14.0796	12.3178	16.0743	14.2794	-4.0895	13.8874	17.1184	-4.3271
6648.0533	7.2914	2.5162	-1.1079	3.8359	10.0252	-6.3914	0.8141	-9.8036	13.5060	10.9535	16.4269	12.5317	-0.6946	4.4716	11.3919	-3.7643
6656.0534	-4.7618	-1.0627	-2.6719	-4.6011	-7.1245	-1.2507	1.7536	-8.8259	-7.2398	-4.9578	-9.5454	-10.8721	-2.2642	-3.4913	9.1929	-8.1444
6664.0535	-8.2896	-6.3749	-5.1083	-10.5207	-15.1181	-13.6906	-6.2563	-18.2959	-8.1817	-6.4739	-9.8088	-13.9771	-0.7345	-10.0793	11.7344	-9.9157
6672.0535	-9.2517	-13.7604	-5.6893	-14.3764	-13.3368	-25.5481	-10.7948	-18.5527	-8.9503	-8.8707	-12.1506	-6.9097	0.0883	-12.1770	8.3566	-10.7118
6680.0536	-0.2211	2.9727	-7.6320	-0.2577	-5.3071	2.7928	-1.2833	1.0332	0.9117	1.2217	-0.4940	-3.7188	-4.0698	1.5643	2.1416	-8.6564
6688.0537	2.1345	5.4019	-12.2911	7.9266	-10.5660	0.8429	-7.6164	-6.6928	8.4441	7.0926	10.4688	-2.2576	-4.4439	0.4623	-6.0655	-11.5993
6696.0537	-15.7108	-21.8566	-15.3699	-19.3634	-29.5637	-25.2851	-14.9685	-23.8076	-18.1355	-18.2381	-19.7038	-14.4961	2.6483	-21.6822	-4.9649	-8.2832
6704.0538	-14.1615	-4.7263	-26.8368	-9.1363	-18.6442	6.1900	-10.3740	-14.0847	-21.6158	-16.1413	-28.0250	-22.2000	-1.0463	-9.1740	-0.3991	-3.7012
6712.0538	13.1990	34.9465	2.6525	18.7232	28.5232	40.8196	7.1335	10.6324	14.2030	19.2638	10.6084	0.8530	-7.9647	26.3480	-11.7312	0.9005
6720.0539	16.8082	19.1187	21.5801	4.1315	37.1778	15.4948	15.0026	12.6703	21.3464	20.1743	24.2547	19.8152	0.7720	20.2928	-11.4995	13.2158
6728.0540	1.0336	-1.0427	-0.0119	0.4768	12.6994	-4.2325	2.9142	-3.3035	1.2597	1.2207	1.3480	5.9022	4.3751	1.2708	-6.5284	10.4787
6736.0540	-1.1326	4.9605	4.9539	-5.0873	5.5298	5.1718	-2.9714	-11.3893	-1.1406	1.3380	0.8498	-5.6281	5.7351	-1.2843	-8.6033	14.6972
6744.0541	-3.7359	-7.2261	3.8531	-18.4657	-8.5861	-5.0292	-5.6566	-12.7479	-1.4347	-2.4657	6.9452	-4.1553	11.5582	-12.0095	-1.9440	21.8094
6752.0542	-2.2911	-6.3742	0.3602	-4.0953	-6.6099	4.5436	-1.1426	-3.0033	-5.7117	-6.2284	-2.3861	-0.1208	4.3812	-5.9743	-2.7334	8.6697
6760.0542	5.2151	10.8535	-2.4315	0.2299	6.7260	27.9567	5.3080	1.5576	1.9820	3.3925	3.7845	1.5907	-1.0332	8.1524	-10.1942	5.9524
6768.0543	-5.0238	3.6428	-21.1586	0.7288	-4.7532	13.4138	0.7254	-0.7864	-7.1316	-4.1358	-7.6710	-12.1116	2.4884	-1.3539	-8.3146	9.7441
6776.0544	-1.9780	2.2525	-11.1442	5.7963	4.2165	28.7274	0.5970	8.5318	-11.7151	-8.4131	-12.8752	-1.0635	3.6429	2.8897	-3.6325	17.9243
6784.0544	8.8559	0.6830	1.4630	-12.5325	2.4684	30.7275	-0.3603	6.7968	5.6768	2.1167	14.8538	17.6922	5.0108	3.9067	-11.4758	19.1935
6792.0545	-5.8894	-13.1611	1.2654	-6.9060	-18.2102	-9.1056	-0.7542	2.2198	-6.5701	-9.1105	-1.5674	-4.7066	5.9009	-13.0975	-12.5640	7.4197
6800.0546	-2.1502	1.4125	3.7625	21.2794	-0.6622	23.5036	0.1713	7.1951	-12.0667	-8.8135	-11.8054	-3.7039	3.2262	-0.3650	1.0690	13.4367
6808.0546	15.5450	17.4210	6.5589	19.6642	13.4173	45.1943	0.3982	9.6543	13.7778	12.6579	21.5972	17.9477	-0.0494	15.1458	-5.8864	13.9816
6816.0547	9.9618	5.4472	10.5588	7.0027	8.5284	11.7385	4.8358	10.4764	13.3705	9.8127	20.9778	14.1388	3.3778	5.8115	-11.2362	12.4371
6824.0547	-1.8947	-10.9898	8.1577	-16.8576	-11.8580	9.1317	0.5575	-9.2497	-7.0156	-8.8267	1.7852	1.2968	8.4719	-10.9782	-1.7548	15.8340
6832.0548	-7.5697	-13.1551	21.9933	-25.9816	-29.0616	1.0699	2.3624	-21.9631	-12.9136	-13.3440	-2.5394	-16.1176	7.2696	-20.4208	1.7779	5.4183
6840.0549	-3.3167	-5.4727	18.4635	-4.8377	-15.6353	-5.6066	-0.6201	-16.9664	-3.0512	-3.4826	4.7035	-9.9108	5.5583	-12.7613	1.2448	4.2698
6848.0549	-1.8140	-12.3737	-8.5861	-11.0938	-18.7046	-0.8720	-14.6541	-26.1725	-1.3328	-4.8098	7.1879	4.8314	5.5198	-13.2063	-9.6016	4.3791
6856.0550	2.9434	-4.3742	0.0517	-0.8395	-3.2989	14.3259	-2.1838	-4.1602	0.1470	-2.0429	7.3613	9.0732	5.4975	-3.1400	-4.0498	13.3981
6864.0551	15.8691	16.9571	9.5764	12.7416	16.4427	44.9740	5.1988	20.1275	13.9951	12.5730	21.6388	18.8322	1.0137	16.5625	-1.1003	18.3408
6872.0551	6.1945	1.9917	5.3359	-15.8641	-12.7766	21.8818	-1.7574	-2.0813	5.7623	2.3271	13.8420	5.7127	-1.5587	0.0101	-18.2445	-1.7689
6880.0552	-1.7662	-6.7196	-0.2033	-11.4744	-8.4894	4.2318	0.6594	-7.0718	-3.9374	-5.1785	1.2608	-0.4985	4.8901	-7.0794	-5.6107	8.5604
6888.0553	-1.3163	-4.7584	-9.1034	-20.5127	-3.4390	15.9723	-6.2108	-8.1044	-5.8738	-5.7687	-2.1026	3.2629	5.7643	-3.7056	3.1633	15.4685
6896.0553	-9.5020	-15.0047	-2.7902	-30.7871	-22.0878	-9.6966	-7.1460	-22.3548	-12.7066	-12.8851	-10.4224	-10.4208	3.1808	-16.0300	2.9363	-2.8320
6904.0554	-2.0218	-5.8157	2.5442	2.0676	-10.2414	-9.0587	-1.6255	-19.9472	0.1046	-0.7634	5.8335	-3.9979	3.7888	-9.6326	12.1994	0.1284
6912.0554	-1.7900	-7.4360	4.9829	-21.4418	-10.5838	-3.2601	-3.0284	-24.7328	-2.7804	-3.7990	1.7867	-1.6212	1.8933	-8.8140	3.4412	-3.4674
6920.0555	-4.2837	-8.4341	1.1622	-23.3545	1.5025	-15.7160	1.0212	-14.1194	-5.4106	-5.0832	-8.0592	-1.2740	0.8544	-4.8752	6.3108	-4.1872
6928.0556	11.8397	13.7632	-1.6774	15.5526	17.2006	11.2481	4.9396	9.8597	18.5148	16.6625	21.7197	13.5086	-1.3114	13.4047	1.8065	4.3904
6936.0556	3.9345	0.8606	4.7234	-3.8514	-5.7767	5.1888	2.1448	-7.2052	6.1778	3.6799	12.4030	2.7613	0.5174	-1.6109	-13.8526	-0.8090
6944.0557	-8.7858	-15.6334	-1.7945	-13.3774	-8.0566	-20.7283	-6.2742	-26.8797	-10.7551	-10.6474	-9.8888	-4.6327	6.5113	-14.8067	-3.1728	3.6261
6952.0558	5.2458	3.0940	5.9129	-2.5750	8.8659	9.2380	-2.7488	-10.9254	5.1574	4.6357	8.9569	9.1827	2.8923	2.7109	-1.7834	8.2582
6960.0558	10.9787	8.7106	6.7639	4.8491	18.0651	16.0996	4.8644	0.8337	11.3812	9.8959	14.2071	16.6054	-0.7367	11.2693	-5.3438	4.4811
6968.0559	2.6825	0.0553	-13.1849	2.2375	8.5550	0.5437	-1.6286	-3.4709	5.1869	4.0959	6.6062	8.8105	3.0141	2.4603	0.7551	8.3703
6976.0560	2.9173	1.1527	-11.4035	-18.1030	-3.7103	22.1792	4.7548	5.7343	2.1641	0.8252	8.9751	2.8743	4.3466	0.8216	7.4702	15.2619
6984.0560	5.5575	2.2630	-6.6640	-13.8791	8.8243	17.4608	10.8911	15.2203	4.5082	2.9990	7.6961	9.5731	2.2280	6.9062	11.0278	12.4120
6992.0561	0.3990	-2.4199	5.9836	-9.1885	8.3418	-5.5045	5.2170	9.5128	0.3444	-0.1218	-0.3936	3.9896	2.6465	1.4059	5.9928	7.2873
7000.0562	1.2111	-1.4527	12.4343	-1.2662	11.9863	7.5751	8.9036	7.9447	-4.0145	-2.8637	-2.8524	4.5198	5.3762	1.7695	18.8076	15.7779
7008.0562	1.2243	3.9953	-0.3191	-8.4079	14.5250	9.1461	1.5327	-5.7831	-0.9745	1.7878	-1.1908	2.1195	4.1588	4.0212	26.0831	13.6334
7016.0563	-10.1046	-2.7391	-1.4001	-35.1530	-17.0009	-5.2410	-12.1413	-24.4411	-11.0474	-7.2673	-12.4893	-20.6043	0.7827	-10.7316	11.4811	-3.9996
7024.0563	-8.5522	-9.5064	-7.4238	-5.7263	-15.2281	-3.8077	-8.1866	-12.2389	-14.6464	-12.8069	-18.6617	-8.8428	-2.4610	-8.5748	5.7753	-10.9490
