Time	Fz	Fpz	C3	C4	T5	T4	O1	O2	F7	F8	F3	F4	T3	T6	P3	P4
0.0000	6.6818	6.6341	2.9125	14.7340	3.8577	8.1132	6.1299	6.1383	5.6749	-3.2992	9.3820	22.5611	0.6039	17.3236	1.7248	14.0731
8.0000	4.8041	7.1803	21.9488	17.7923	0.4916	7.4980	4.1844	5.3592	2.1930	-4.5527	3.1501	13.4550	3.6271	8.9979	-12.9725	5.4651
16.0000	5.6203	10.8832	45.8212	15.6216	6.3334	14.3309	6.6237	6.8537	8.5584	4.5505	8.8722	23.6723	-1.2570	12.8254	-1.4822	11.5176
24.0000	3.8756	5.2894	13.7642	8.9305	4.3944	6.5156	3.0379	3.3765	5.1428	1.2746	7.4073	15.1049	-1.7795	8.0906	6.1956	7.6773
32.0000	10.5313	5.5653	14.6465	13.2171	1.9744	0.7768	4.4948	3.6240	-2.6818	-8.3961	-0.1589	1.5440	0.9433	2.7087	9.1048	11.3175
40.0000	15.4000	8.8792	21.8647	7.2425	8.4243	7.6713	11.7953	7.7345	4.4820	5.2965	6.6216	11.2409	-4.7827	17.3613	27.1222	27.3635
48.0000	20.9281	7.7146	23.3199	6.8724	6.5565	0.7795	4.5126	5.8459	-0.5710	-8.5454	9.7704	10.9795	-0.7679	-1.5356	23.0583	14.6777
56.0000	28.7701	12.5560	37.4427	18.5700	9.3207	5.5490	5.1396	7.6588	3.0476	-9.6454	17.3213	25.1456	0.9707	-11.0119	24.2475	23.3433
64.0000	10.4532	5.1126	4.7264	-3.8897	9.8774	8.6219	8.5441	5.1373	8.9185	-0.6149	13.5829	29.7351	-4.1490	14.3311	24.5391	26.8186
72.0000	-6.8114	-5.9087	-2.8960	-18.0237	-2.3290	-7.8824	-1.4915	-4.1295	-9.4343	-29.9580	-12.0157	-2.6231	2.9870	1.6036	-3.4209	-4.5547
80.0000	8.4691	6.9046	35.0291	12.4268	3.0106	4.4555	6.1042	2.9817	-1.2155	-2.6862	-3.6285	-0.2834	-0.1064	-1.3293	8.2233	15.0969
88.0000	16.9348	12.4801	28.4361	17.2101	10.4394	14.8158	12.7795	9.5319	12.7072	31.5728	13.8407	11.9816	-8.0965	14.5020	29.1346	30.6909
96.0000	2.2674	-1.0014	3.2457	-3.9843	-0.8757	-4.9426	0.5535	-0.6846	-6.4672	-14.5451	-6.3134	-5.9614	1.5330	-0.9794	3.4507	0.8423
104.0000	-13.1514	-7.6044	-11.6003	-7.8213	-6.1427	-9.0302	-3.7190	-7.5864	-11.6039	-32.4224	-18.9382	-9.2265	5.5761	-6.7142	-13.0409	-5.8577
112.0000	-17.3501	-7.9676	-13.6189	-12.8997	-1.9808	-4.0455	-4.1627	-8.7259	-3.1224	-12.9806	-11.9219	-3.6602	-0.5598	-6.3029	-1.6707	-3.5173
120.0000	-8.3681	-5.6907	1.5842	-14.8265	-0.7348	-5.6620	-4.4964	-6.6433	-5.2588	-18.7236	-8.4506	-1.7849	0.7547	-11.7812	1.1608	-4.8193
128.0000	-2.3680	-2.3472	3.2937	-5.8742	-2.0192	-4.8470	-3.1262	-2.1718	-6.0686	-21.9776	-4.7535	1.9281	3.7654	-3.7580	-7.6735	-7.4453
136.0000	-6.4875	-2.5846	-4.8954	-3.6111	0.1618	-3.8776	-2.5157	-3.0900	-3.0089	-9.2866	-4.3051	-3.7300	-2.2071	3.2258	7.0300	-5.9012
144.0000	-6.6562	-2.0569	-7.8236	0.4854	1.7691	-1.9052	-0.5975	-3.9567	-0.4248	1.7440	-4.9733	-7.7642	-5.2502	0.8059	17.5177	2.9713
152.0000	-4.2190	-1.4080	0.3350	5.4619	-2.4466	-2.6066	-5.8736	-3.4676	-2.0370	-5.0001	-1.6952	-2.8730	1.9496	-12.7819	-7.7157	-10.4638
160.0000	-2.0858	1.4970	13.0608	11.9262	-1.1999	-0.6374	-4.9542	-2.2317	-1.9646	-9.5262	-0.8490	1.8624	2.3124	-11.5689	-7.0865	-8.4088
168.0000	3.1022	7.5575	6.0909	25.7185	2.9205	9.1201	5.8959	4.6245	6.5455	14.0508	4.7273	6.2953	-2.7897	13.3386	6.1919	13.1948
176.0000	3.9468	6.8493	-3.7056	18.8208	1.8363	11.2338	6.2125	7.5755	10.6361	26.9840	11.2910	9.3707	-2.2586	20.2817	-4.2257	7.7696
184.0000	-4.4975	-0.4641	-3.6232	-0.7685	0.1155	2.3163	-0.7972	-0.0270	3.3370	7.0411	2.4079	2.7312	-1.3858	4.7433	-3.5182	-4.0190
192.0000	-13.1507	-3.4146	0.0411	0.4208	-1.6054	-0.1326	-6.2051	-6.1230	1.2583	4.1747	-4.1723	-4.6756	-1.5185	-11.1498	-5.6986	-10.8668
200.0000	-2.4537	3.8898	12.7187	13.5740	0.8378	9.1216	-0.0654	1.0144	9.1798	29.0613	5.6090	0.2382	-2.6049	-5.0351	-6.2449	-0.0965
208.0000	14.5190	9.0346	2.8868	19.8104	3.7645	10.3335	8.9762	9.2023	9.4672	28.9254	12.5974	6.2273	-2.4836	12.9523	7.7468	18.3207
216.0000	10.4903	3.3490	-24.8869	11.1479	2.5933	3.9235	3.2836	5.0160	6.8303	10.1834	14.4070	14.7048	-0.2068	7.3320	7.5202	12.2501
224.0000	8.2205	2.9877	-11.9141	7.5023	3.1555	5.1089	-0.0882	3.0210	8.3452	10.0378	16.1134	19.1667	0.2016	-3.3815	2.9534	7.0199
232.0000	8.2307	4.6065	4.5710	11.8580	0.8052	4.0552	-0.8536	4.1178	5.5880	18.5786	11.6187	3.0391	-0.3070	-3.4319	-2.7535	-3.4153
240.0000	-11.4791	-6.7689	-25.1845	-9.8153	-4.9803	-3.7657	-7.1206	-3.8027	1.2168	15.4913	-0.4171	-12.4882	-0.7362	-3.7724	-13.9061	-20.9785
248.0000	-21.4439	-14.7349	-38.4015	-26.1357	-9.8592	-13.5406	-10.2828	-9.7445	-9.3084	-10.5662	-15.5700	-22.9857	2.8826	-6.5003	-21.5747	-28.7464
256.0000	-14.5211	-9.1066	-22.3956	-9.3397	-7.5457	-12.2947	-12.3905	-7.5038	-8.3599	-10.7482	-8.3394	-18.9327	1.8835	-9.7450	-14.9775	-32.8979
264.0000	-10.0345	-3.5621	-26.8568	-2.8223	2.4112	3.4513	-7.2727	-3.7877	12.1895	29.9369	13.6773	5.7844	-7.1781	-5.2319	7.0189	-10.9346
272.0000	-9.7655	-7.2119	-33.1267	-10.8431	-1.0663	0.3713	-6.2781	-6.1773	7.8385	23.5489	5.4509	-0.5939	-2.4779	-17.2881	-1.9110	-4.3142
280.0000	-15.9132	-12.9205	-31.8119	-14.5562	-9.3742	-11.9503	-15.4301	-12.0624	-5.6907	-0.8479	-8.3980	-19.8890	4.4379	-35.6078	-22.0517	-28.0762
288.0000	-13.1414	-9.2755	-35.4527	-13.3677	-4.7126	-5.5869	-7.6728	-6.6146	0.7847	14.3879	-2.5403	-14.2233	-1.4131	-10.2767	-7.3688	-15.9992
296.0000	-6.0620	-7.5587	-44.8814	-14.6975	-5.7687	-6.6519	1.6552	-0.1585	-3.4207	10.1555	-7.1215	-20.2300	-0.3611	15.9360	-5.5678	-5.4546
304.0000	-4.8790	-6.8265	-6.3902	-13.2291	-6.3319	-6.8839	-10.5481	-5.6518	-4.3976	-10.5107	-1.5426	-2.0942	7.4164	-27.2126	-26.2509	-20.8339
312.0000	-4.0831	-1.5436	9.6000	3.2166	-2.3265	-0.0037	-7.7821	-4.9330	1.0234	2.2000	0.7042	0.4427	3.1033	-27.4910	-13.8331	-10.1301
320.0000	-12.7318	-8.8508	-25.3038	-17.9969	-4.0117	-5.4034	-3.6454	-6.0083	-2.4123	0.7738	-8.4715	-11.2893	-0.0808	-4.0378	-6.5562	-7.8181
328.0000	-28.3959	-21.2177	-25.6848	-37.8624	-12.1677	-21.1634	-20.2038	-20.5448	-16.4896	-33.7916	-25.2942	-26.1283	7.2955	-46.4502	-26.7526	-36.3290
336.0000	-18.5551	-7.2480	14.2292	-8.7797	-2.9728	-6.6899	-9.7564	-12.3219	-6.7173	-11.8018	-16.8826	-17.1803	-0.9895	-26.7781	-2.1501	-15.0970
344.0000	-5.6476	-1.4797	-0.1924	-6.4920	-0.0936	-1.1217	0.6038	-0.2021	-0.8811	4.3009	-4.0214	-8.7161	-3.4790	11.6569	3.5508	-5.9242
352.0000	-7.3022	-3.9016	-9.7986	-9.9054	-2.0649	-3.3864	-4.1359	-1.7040	-1.4911	-5.0113	-0.6212	-0.8636	0.1760	4.9765	-7.9256	-14.7455
360.0000	-2.3185	0.2575	-12.4645	-6.0504	4.4325	3.8478	6.0888	2.4119	5.5822	14.2365	2.8029	1.7460	-7.3882	23.3644	18.8407	10.2287
368.0000	-7.9495	-11.2318	-27.4707	-27.4342	-6.0445	-13.0468	-4.2479	-6.3684	-10.4450	-15.0493	-13.6638	-19.2188	2.8143	-7.4201	-5.6967	-10.7203
376.0000	-17.9919	-13.2485	-4.2437	-25.7072	-8.7957	-14.0285	-10.9554	-13.1670	-13.7112	-24.6483	-22.7849	-23.5160	5.6954	-30.6535	-19.6619	-20.9723
384.0000	-10.9433	-7.6029	-17.6832	-20.8432	0.3826	-3.1322	1.7608	-6.0857	-0.0014	16.8391	-11.4607	-21.1640	-7.0979	-1.4008	17.8720	7.0735
392.0000	-12.7454	-21.1120	-51.7493	-44.4814	-9.4632	-25.5423	-12.9991	-16.0451	-17.6571	-23.5482	-21.4445	-35.8789	3.7607	-37.4328	1.0087	-18.4568
400.0000	-22.6189	-22.1630	-26.5752	-43.0773	-11.8259	-28.7379	-17.6993	-20.7578	-25.8842	-57.9848	-33.0777	-31.9329	8.4408	-43.2774	-13.1351	-29.5614
408.0000	-18.4426	-12.5145	-22.8342	-26.0505	-5.5678	-12.2429	-4.5127	-10.0042	-10.9696	-18.2734	-21.3422	-22.6444	0.0140	-4.1829	-1.7298	-10.4857
416.0000	-12.5330	-13.7910	-37.1388	-24.9250	-6.7664	-14.3371	-10.1175	-10.9365	-8.5293	-9.5421	-11.8094	-20.5786	2.2152	-23.8070	-5.4530	-16.1940
424.0000	-9.3965	-8.3608	-21.8989	-12.4443	-1.5905	-11.0992	-7.1821	-8.8632	-7.3547	-17.9025	-8.9460	-10.6749	-1.2790	-13.2067	11.8057	-7.9619
432.0000	2.2715	1.8211	-14.0523	5.8249	3.0526	-0.9710	4.3331	2.7230	-0.3895	-2.2008	1.1793	-0.5615	-4.7823	21.5866	20.6529	7.1473
440.0000	2.5277	0.9913	-10.9793	-4.4463	4.9195	1.9780	3.9245	2.6321	4.6878	10.0487	6.6828	4.3614	-6.3918	16.5586	21.0979	7.8089
448.0000	-11.5114	-5.0376	-13.1793	-12.5223	1.9312	-3.4504	-1.6992	-4.6849	0.4347	9.9866	-5.1615	-13.9659	-8.7280	7.4004	20.5122	-5.0477
456.0000	-3.5771	-1.1419	-13.4209	13.0898	-4.7753	-5.4719	-4.7750	-1.5603	-3.4497	14.2872	-4.3954	-25.7963	-1.8351	-2.8638	-1.4337	-16.3763
464.0000	9.1042	5.3962	-9.4388	23.6209	1.3055	3.0894	-1.1569	3.6514	5.9661	20.9238	12.9162	0.5788	-2.0766	-2.7855	7.1871	-0.0148
472.0000	3.2162	0.3319	-22.5705	10.2156	2.2668	-0.7251	-4.8513	-0.9897	4.9844	8.6546	12.3926	6.7498	-2.7601	-7.8795	13.0354	-2.0572
480.0000	3.0157	0.0137	-23.7823	16.3258	-2.4303	-3.0762	-9.3696	-0.8298	2.8324	11.4525	12.5277	-0.7666	0.9487	-14.9055	-4.4984	-16.9717
488.0000	0.4254	2.5418	-28.3132	19.8328	1.9060	4.6378	-4.7508	1.7461	11.5735	29.5020	18.8283	7.3782	-5.0164	2.1845	6.3863	-7.8206
496.0000	-11.2115	-7.1683	-43.8068	8.4144	-6.3249	-6.7159	-13.8614	-7.6439	1.0852	10.6005	3.6886	-9.6548	1.2341	-22.4208	-12.3175	-23.9316
504.0000	-9.4599	-7.4424	-32.2757	17.1824	-13.7278	-10.4548	-19.8665	-9.0858	-5.2212	2.3726	-1.2312	-18.2513	10.4622	-45.3230	-42.2084	-38.4915
512.0000	3.9465	3.9451	-35.6666	33.8157	-4.5712	5.5917	-6.2473	4.4636	10.9850	33.6535	20.4946	5.8495	2.9082	-4.0892	-23.0330	-14.7947
520.0000	8.2695	4.1061	-52.0025	29.9673	-3.4440	7.6258	-2.2915	7.8162	14.7717	44.0776	26.1589	9.7071	1.7865	6.2574	-19.2503	-7.2533
528.0000	-3.8252	-2.8517	-43.4227	16.9375	-8.0646	1.6546	-7.5065	-0.9838	6.9976	28.1396	9.4426	-2.8597	5.4853	-16.0335	-31.5311	-13.9635
536.0000	-6.4563	-3.2509	-40.2611	20.2125	-9.4141	0.8887	-10.2264	-2.6251	5.7506	23.0685	7.9584	-2.5815	7.1215	-21.8165	-37.7823	-19.0559
544.0000	7.5321	5.2611	-35.7498	38.1702	-6.0647	10.6043	-7.4360	5.9156	16.2660	41.9066	28.3696	17.7860	7.8060	-15.9832	-41.7051	-13.7157
552.0000	14.3470	10.7576	-31.1843	30.2756	3.6475	22.8471	8.3434	13.9008	26.7251	56.0508	35.8444	37.4729	0.3319	18.7132	-16.1712	19.9126
560.0000	6.6384	1.7182	-49.5116	-3.7251	1.2249	14.4271	12.1130	11.3101	18.7835	47.5534	20.5520	19.3195	-1.3373	33.3280	-11.0962	20.4600
568.0000	-12.4327	-11.0776	-62.9623	-17.3917	-10.4912	-1.0582	-2.9831	-1.7478	5.3442	32.7816	0.2339	-12.6321	4.4872	0.2026	-37.3584	-12.9812
576.0000	-19.5639	-17.6852	-67.4955	-22.3576	-14.0772	-12.7174	-5.9269	-11.1354	-9.0500	-4.4013	-21.2257	-26.6913	8.4291	-18.4141	-31.5879	-8.3406
584.0000	-14.6185	-20.2732	-69.3282	-38.0013	-13.0560	-19.7325	-3.1273	-11.5947	-16.9815	-27.1217	-27.7011	-28.9163	9.3502	-15.2325	-18.8772	-0.8720
592.0000	-17.5382	-15.7879	-55.8411	-37.7357	-6.7771	-6.7513	-4.6167	-7.8086	0.8455	16.4860	-7.1771	-15.2834	0.2158	-6.4428	-15.1332	-9.9806
600.0000	-5.9482	-7.1167	-38.2171	-31.5422	1.6124	5.3195	3.0312	0.5166	13.6492	45.8177	9.8616	-0.6001	-6.8432	9.3206	2.9684	4.6242
608.0000	3.2694	-5.5353	-25.2564	-35.8558	2.8571	1.4501	7.6150	2.5065	6.9315	32.4498	4.1944	-6.8102	-6.1871	11.5205	14.7246	14.0029
616.0000	-10.2885	-7.4713	-13.9304	-34.7902	2.5427	1.7947	4.1908	-2.8791	6.7478	36.2692	-4.2528	-16.7563	-10.0830	7.6523	16.3427	6.1153
624.0000	-4.9488	-1.5765	-2.0820	-24.9882	6.5004	6.8332	8.9447	2.2921	9.8679	37.3065	1.5027	-7.2722	-12.6323	24.7699	25.1355	12.6245
632.0000	8.1375	3.7698	0.5003	-14.0534	9.7084	6.8817	11.6888	7.2589	8.7458	21.3931	9.7290	7.6155	-10.8529	32.0857	34.7359	20.8289
640.0000	1.1671	-1.4744	-7.3623	-11.6064	4.4712	-1.5638	1.9579	-0.5195	1.1996	1.9130	2.0070	0.4117	-5.6942	6.5200	23.2877	6.9677
648.0000	1.6997	1.4922	13.3856	2.0252	0.6489	-3.4789	-1.9073	0.3452	-4.3897	-10.8948	-1.2969	-3.5045	-0.8221	2.4550	5.4936	-8.2789
656.0000	13.6374	15.6245	43.1473	29.5678	9.9008	12.5381	6.6195	10.7507	8.8592	8.7380	17.1092	20.9183	-6.6607	25.4806	20.5864	7.8295
664.0000	13.9314	15.4173	33.3656	26.7588	13.2314	16.2767	9.9891	10.5814	14.0173	16.0730	20.5036	28.9536	-9.3660	27.4653	31.8502	22.1629
672.0000	11.6472	12.9130	40.4713	23.7938	6.3413	8.6982	7.1572	9.5855	3.2015	-0.3655	8.3599	12.3334	-3.4019	24.5704	11.8078	6.4850
680.0000	16.3291	19.6024	60.2247	38.4893	8.8993	16.8584	10.8276	14.1006	9.3750	17.3461	14.2865	15.8281	-5.6190	29.9326	12.6706	11.7281
688.0000	10.3043	15.0834	34.1021	31.7703	9.9628	19.6146	12.0524	9.8024	14.8333	23.6185	14.3516	24.1657	-6.3396	22.1040	17.0506	27.7707
696.0000	12.0295	16.3040	42.9340	45.8643	4.6620	15.8653	8.0883	9.1691	7.6300	5.3048	9.1841	20.8721	1.3192	10.3912	-2.9137	18.2034
704.0000	30.0197	28.3700	79.0893	61.5686	11.5977	26.5733	14.2171	19.2141	16.1075	21.4983	26.1564	37.2071	-1.1590	19.4855	6.1982	27.8728
712.0000	18.7730	19.8094	52.5651	31.4254	13.5270	24.2130	14.3740	14.6909	18.0268	18.4541	23.9522	42.4936	-5.1032	27.9199	15.8943	31.0142
720.0000	-1.2922	7.4315	38.7927	28.1575	-1.1228	4.5557	-2.6108	0.9768	-2.1423	-17.0720	-1.9801	8.8922	4.6411	-3.9550	-17.4389	-8.0460
728.0000	8.2587	12.0347	56.1869	38.7148	-1.0544	7.8906	-1.8563	3.7783	-0.0416	-4.9797	2.5705	7.3782	6.4416	-16.1442	-21.5889	-4.9129
736.0000	14.7289	15.2695	41.5329	23.1579	9.4477	22.9248	13.0373	11.6873	17.3062	23.0491	18.8982	36.2878	-1.5573	15.4016	1.6293	30.8796
744.0000	5.6399	9.0681	25.1506	25.0883	2.7680	12.8065	5.7813	4.6021	7.3639	4.2837	5.9084	20.2499	2.7247	0.6682	-8.5840	17.6747
752.0000	-1.3763	2.4714	23.5461	18.5786	-3.8276	-1.1426	-2.0348	-2.6068	-7.3343	-21.5326	-10.9979	-3.2063	6.6905	-15.3988	-15.3120	-0.8297
760.0000	-0.0117	5.4393	40.9713	4.0327	0.7196	4.8961	5.4078	3.8381	-3.1235	-16.3732	-6.8173	6.4833	2.5239	14.4232	-10.8821	2.4795
768.0000	6.2099	10.7925	57.5891	18.6130	1.7014	9.7421	6.0251	6.7229	0.4597	-4.7445	-1.2545	8.4480	2.7340	9.1458	-13.2448	4.0733
776.0000	8.6269	9.8587	37.8593	22.7876	2.9925	9.3991	9.0193	5.2517	1.5691	0.5222	-2.4773	5.6274	0.9907	4.8875	1.8841	20.7471
784.0000	8.2141	8.3765	25.1714	11.4291	3.8284	10.0690	11.7179	7.6622	3.6580	3.3291	0.7645	10.4195	-0.2981	20.2366	2.6021	21.5945
792.0000	11.9130	9.0026	35.2629	15.3317	2.7253	6.8908	3.3940	6.3845	2.3409	-2.5737	7.5903	13.8980	2.6673	1.5400	-5.3099	5.0150
800.0000	20.7879	13.3384	47.3438	18.1982	8.1858	9.4690	6.3908	9.2569	4.8073	-4.2814	14.6918	24.3039	-0.0278	4.5972	12.1437	15.2436
808.0000	9.8346	5.1533	35.7163	-5.5699	3.2627	2.6512	3.4821	5.2380	-1.4463	-15.0682	3.9299	13.9284	2.3227	6.5493	-2.1470	2.0437
816.0000	-15.0971	-9.9981	11.7870	-17.6851	-7.5322	-13.4143	-13.6180	-12.3201	-14.6011	-39.8267	-18.3596	-11.0838	7.9665	-33.4019	-22.9873	-26.0162
824.0000	-6.9099	3.1543	45.2151	15.3022	1.0544	0.6648	-6.4803	-5.9775	-3.9497	-20.2264	-7.5821	2.2908	0.9329	-21.5520	-1.6591	-7.6193
832.0000	3.4668	10.5218	47.0991	17.7721	5.1289	11.4607	4.0360	6.2382	6.5243	9.0464	6.9469	12.1284	-3.2584	13.8635	0.3626	0.8727
840.0000	-11.8706	-7.1973	-12.5631	-9.9509	-4.6057	-8.3959	-5.3705	-6.7213	-8.0797	-18.4687	-12.6212	-11.1613	2.1446	-6.2794	-7.1121	-11.6165
848.0000	-12.2603	-3.7891	17.0441	5.8766	-4.1615	-8.6972	-6.2823	-9.7907	-13.7814	-40.4264	-21.5953	-10.4796	4.6852	-19.6816	-5.3246	-6.5292
856.0000	-7.6823	4.5853	48.2577	9.3811	0.1692	5.4224	0.7796	-0.4910	-2.7038	-18.7074	-9.4030	6.8066	2.3872	3.2155	-14.6840	-3.5014
864.0000	-9.6322	-2.0979	0.1679	-10.7695	0.8799	3.1099	1.9017	-0.7790	2.5481	0.7205	-2.9089	4.6725	-2.2179	13.2913	-2.8959	-0.0405
872.0000	-7.6753	-3.3959	-3.4542	-5.1962	-1.5440	-3.3576	-2.4749	-3.6091	-3.3897	-9.0084	-6.6319	-4.6548	-0.0252	-0.9046	-1.6595	-5.7145
880.0000	-9.0537	-1.4679	17.9459	-2.0598	-1.6211	-1.3936	-3.8224	-3.7911	-3.6172	-11.2947	-7.8272	-3.3302	0.9171	-5.2190	-8.6752	-10.6587
888.0000	0.1425	3.3916	22.8161	1.6812	5.2194	5.7653	0.8855	0.0017	5.7789	11.6762	4.3854	5.1629	-5.2346	-2.5486	13.1330	4.8540
896.0000	-1.7410	0.4159	24.2224	-0.8873	-0.3622	-1.4386	-4.8848	-2.2953	-2.3554	-5.1920	-1.7925	-2.8737	0.6628	-12.8032	-4.6994	-11.6519
904.0000	-24.0409	-8.0021	7.2145	-16.0510	-5.3838	-7.3219	-7.2275	-8.0373	-9.8111	-28.8928	-18.8269	-9.6263	1.5407	5.5800	-18.6525	-25.7826
912.0000	-23.0513	-3.6435	4.4814	-6.0001	1.5227	1.0226	-0.1377	-5.7821	-0.8634	-10.2907	-13.3286	-2.4291	-6.5998	20.0313	7.2912	-4.8547
920.0000	-15.8217	-5.6708	6.0079	-2.1560	-4.2918	-6.1018	-8.2611	-9.1965	-7.3058	-19.5666	-14.2644	-9.7023	2.2342	-16.8901	-10.6907	-14.9192
928.0000	-13.9711	-5.5711	2.4808	-6.0694	-2.1457	-5.6380	-9.5538	-8.4592	-4.6449	-19.5056	-7.1429	-0.8442	1.0664	-15.3236	-6.3169	-16.8178
936.0000	-8.5987	-0.0290	6.9000	-5.7418	7.5442	4.2734	-3.2516	-3.1972	7.6679	0.2711	8.4358	18.2708	-7.9864	4.4077	20.2140	-1.6366
944.0000	-23.9432	-14.8506	-7.9966	-34.4297	-4.9836	-12.7766	-13.4410	-14.9944	-10.1487	-34.2164	-16.8483	-5.8734	3.0454	-24.5409	-12.8181	-23.6982
952.0000	-24.8836	-15.9867	-6.5533	-34.0987	-8.8762	-18.2550	-10.3453	-14.9991	-19.4534	-45.3970	-31.1680	-24.5066	4.9797	-17.3986	-15.3259	-23.4012
960.0000	-1.2214	0.7843	13.7436	-3.1961	2.0302	-2.1606	2.8832	-0.0201	-4.9478	-14.5963	-7.3527	-3.5267	-2.3615	11.2079	12.1587	2.9997
968.0000	-2.9844	-0.7233	12.1222	-10.7885	3.9893	1.6328	0.6987	-2.0005	1.3967	-7.5717	-0.3802	9.4544	-2.4684	-0.2869	9.8689	5.6441
976.0000	-8.2323	-3.6299	10.4217	-17.1863	2.9848	-2.0304	-0.9630	-4.7819	-2.0300	-12.9434	-6.4410	1.8567	-3.4351	-0.6527	12.0225	0.8058
984.0000	-1.5713	-2.2517	-1.4751	-10.7982	-0.0719	-6.4000	-0.3033	-0.2644	-7.2032	-24.1335	-4.9918	-0.0500	0.3735	12.3243	4.4981	-6.1267
992.0000	-9.1267	-5.7135	-8.6536	-15.5456	-1.5909	-5.9554	-4.2465	-4.0260	-4.8085	-18.6798	-5.2772	0.4817	0.7258	2.6048	-3.6018	-11.5894
1000.0000	-16.2495	-7.4681	8.7315	-15.9248	-1.7111	-6.7866	-7.2041	-10.1743	-6.4528	-14.9187	-14.6584	-12.2602	-1.4679	-16.3516	1.3164	-12.0187
1008.0000	-8.5461	-6.2033	1.2731	-17.4238	-1.1847	-7.4447	-2.1757	-6.3060	-8.2631	-22.3744	-13.5633	-7.9942	0.3250	-5.6556	4.4014	-2.3395
1016.0000	-1.0272	-1.8202	-6.1134	-12.0126	2.0063	-1.0907	2.5759	0.2725	-0.0447	-0.3055	-0.9689	-0.6342	-3.1296	10.3841	10.7659	3.7977
1024.0000	-1.8776	-3.1680	7.2270	-5.2006	-4.6840	-8.3011	-5.2777	-3.0926	-8.6977	-7.8528	-9.0513	-19.3846	2.4148	-12.0904	-7.8349	-16.3145
1032.0000	5.8297	-1.6742	2.9961	-5.7174	-5.0664	-8.5873	-1.6250	0.8264	-11.1437	-25.0255	-6.7905	-6.9360	7.5814	-4.0213	-14.5198	-9.0600
1040.0000	17.6181	4.6173	-9.4904	-0.9475	2.8610	0.9416	8.0374	9.5345	0.5727	-4.7978	10.7422	12.9169	1.4721	22.1040	7.7019	12.5118
1048.0000	7.7755	-6.6018	-29.2821	-14.9336	-6.1907	-13.5400	-4.1308	-1.2524	-11.2719	-24.5720	-3.1154	-6.7767	8.5815	-12.0781	-10.7378	-7.9054
1056.0000	-2.2888	-13.4672	-34.2699	-25.4369	-12.0704	-19.5300	-9.3974	-7.9661	-18.1808	-41.1408	-15.4290	-14.2622	14.3117	-28.8580	-29.6695	-16.6454
1064.0000	6.4822	-3.9227	-11.2938	-9.6484	-6.3635	-10.1586	-0.4718	0.2140	-11.3326	-17.2362	-8.7302	-14.5626	7.4065	-6.5437	-12.7026	-4.8379
1072.0000	19.6429	-0.4548	-10.6270	-9.1376	-3.4339	-10.1523	2.1490	5.1848	-9.8064	-10.6319	0.5105	-12.1028	5.9622	-2.6493	-0.6143	-0.1949
1080.0000	25.4442	2.2126	-10.0123	-7.6359	-0.9578	-6.4756	2.7753	8.4497	-4.9281	-6.5845	11.0664	1.6403	6.0344	0.2050	-0.3126	1.7988
1088.0000	13.1822	0.5250	-5.8803	-0.1000	-3.7605	-6.8612	1.1390	3.8687	-7.6836	-8.4341	-0.9747	-10.0490	5.4653	-2.0434	-5.7656	-2.0890
1096.0000	2.8644	-6.6310	-29.5070	-11.7242	-5.1465	-9.8517	0.6038	-2.8332	-8.8696	-10.7272	-10.2716	-15.7775	4.7165	-9.8540	-1.5137	5.7917
1104.0000	7.0339	-4.6520	-23.1316	-13.2171	-4.3619	-8.0045	-0.5823	0.3077	-6.2013	-8.0176	-1.7924	-7.2730	5.5198	-6.9366	-7.6110	-1.2513
1112.0000	4.7333	-3.7698	-12.3586	-6.8373	-8.6490	-10.5959	-2.0703	1.2971	-12.2216	-18.9229	-8.3209	-14.9772	9.2553	-1.9890	-23.9008	-14.0628
1120.0000	-0.8372	-7.8016	-39.8848	-10.1820	-8.4033	-10.0093	1.2508	-2.0802	-9.8207	-9.9866	-13.3124	-19.2475	6.7310	-2.2178	-13.5580	2.0725
1128.0000	-9.1863	-12.3411	-39.5657	-15.5506	-10.8923	-15.3367	-7.5225	-8.2901	-12.6938	-13.4268	-16.7940	-27.5243	6.8258	-19.6021	-18.4762	-15.2468
1136.0000	-14.1314	-12.2453	-20.7654	-15.7586	-11.5351	-16.6116	-11.7446	-10.1944	-15.4153	-24.0376	-19.5496	-27.2808	7.5309	-22.9687	-25.1385	-27.9727
1144.0000	5.1120	0.5975	-12.2459	0.7694	0.3489	0.8499	2.6849	2.4659	2.3848	12.2777	3.8463	-2.4633	-1.0367	3.6211	4.5111	5.7932
1152.0000	18.8695	4.0674	-14.0350	3.8337	1.7506	-0.7228	3.1523	7.8652	2.6491	15.7633	14.5047	-0.0538	-0.8049	6.9199	10.5944	3.5226
1160.0000	6.8526	-6.8070	-35.4351	-11.2165	-5.3124	-13.2972	-5.3367	-2.5237	-8.5465	-9.2533	-1.3917	-14.3551	4.7585	-16.4527	-1.2143	-8.0946
1168.0000	4.7523	-4.1950	-22.5325	-1.7798	-2.2883	-6.2077	-6.2778	-4.3270	-1.1923	4.1715	3.2691	-6.2560	2.4818	-28.8133	2.0076	-1.5967
1176.0000	17.0988	4.1092	1.1264	9.0845	3.0191	0.3366	-6.5411	2.4428	6.0628	13.3797	21.7744	11.6525	0.7006	-24.8220	6.4864	-5.3834
1184.0000	14.4827	1.9057	-17.3007	1.1259	4.6719	2.5184	-1.0253	2.4127	9.0268	19.4547	19.8933	13.6440	-1.8678	-14.2420	15.5295	9.7208
1192.0000	6.2904	0.0716	-17.8909	-2.7793	1.3643	2.3336	5.2744	2.6563	4.5227	19.7426	4.1764	-2.8108	-2.2463	3.6634	9.5344	14.2104
1200.0000	10.1642	2.2018	-10.6833	-1.9413	-2.0873	-1.6695	7.2613	8.4404	-3.0221	5.2129	0.7594	-9.0294	1.1279	25.9476	-3.1928	0.9861
1208.0000	8.0038	1.2223	-28.7399	-2.9035	1.7728	2.5399	7.6447	6.9344	4.9163	15.5858	8.6552	3.7716	-2.5112	24.8470	8.8051	11.5859
1216.0000	-4.4862	-5.4867	-31.0934	-10.4120	0.9663	-1.3409	-0.6376	-4.0399	3.6905	11.1840	1.1001	-1.5759	-3.3387	-5.6250	12.0543	7.7923
1224.0000	-8.9167	-10.3217	-30.0802	-15.4100	-4.5153	-10.0800	-6.7854	-9.4704	-5.5811	-3.1958	-10.1320	-17.5088	0.9626	-23.9804	1.2445	-5.0540
1232.0000	-4.4914	-6.5339	-42.8602	-12.8321	-0.4600	-2.7246	0.4757	-2.5806	3.2645	17.5540	0.7151	-8.2548	-4.0244	2.5920	11.0984	5.1773
1240.0000	-1.1387	-2.0564	-40.1789	-5.6799	2.7220	-0.6601	3.3171	2.7175	5.1219	18.3531	7.2340	-2.8415	-7.9035	26.5685	21.1310	2.6699
1248.0000	2.7439	0.8130	-22.4012	10.2461	2.2447	-0.3533	-0.6279	0.3250	4.1695	16.9760	7.2077	-4.4106	-5.4213	1.9844	19.1848	2.8027
1256.0000	5.3949	0.3199	-26.8231	3.2146	3.9542	5.2090	1.3536	0.6585	11.6345	33.8088	13.8286	4.4761	-5.3748	-7.1413	17.4031	14.0371
1264.0000	-4.4757	-6.3461	-48.3462	-12.1600	-3.0542	-4.6706	0.0856	0.3627	1.1817	17.0637	1.3174	-12.6265	-2.9264	15.5231	1.8468	-6.2450
1272.0000	-6.9127	-3.2019	-45.1097	5.6174	-2.7452	-1.8412	-0.9233	0.4947	3.4742	23.9653	2.5643	-14.0773	-4.8613	17.3582	3.4644	-8.4871
1280.0000	1.3491	0.0518	-39.6531	0.3737	6.4007	8.6201	2.2517	1.9306	17.6500	44.1064	20.3534	12.0087	-9.5781	7.4107	22.9796	13.4778
1288.0000	-11.5374	-12.6839	-56.7610	-25.6605	-3.6303	-8.5052	-6.3092	-7.1097	0.8337	14.0737	-1.0785	-13.4950	-2.8110	-7.2157	2.9808	-9.8705
1296.0000	-20.4467	-17.4521	-76.9372	-20.5944	-9.7583	-14.6597	-11.4580	-11.9127	-4.1562	14.5008	-10.2847	-32.0159	-1.1515	-15.3303	-6.6862	-21.6705
1304.0000	-8.8583	-14.3495	-80.0868	-21.9912	-3.5844	-8.9194	-8.1391	-8.8913	4.7744	29.4894	4.4069	-15.7643	-3.9031	-20.5026	10.0206	-4.4417
1312.0000	2.3713	-11.7292	-53.2683	-22.8293	-4.5862	-12.1522	-8.5909	-7.0961	-1.3354	18.6878	2.7483	-20.1179	0.6517	-34.2781	5.1548	-6.5704
1320.0000	11.5100	-3.7209	-50.0905	-10.8234	1.6194	-1.9422	-1.3026	1.6204	9.2730	39.7775	18.2608	-4.8627	-4.6386	-9.9922	17.7990	4.7498
1328.0000	-2.5123	-9.6203	-74.1622	-23.2098	0.2014	-4.6915	-3.3147	-1.2606	8.5163	30.7515	14.5086	-2.4850	-6.2630	6.8646	14.2534	-4.6828
1336.0000	-15.0351	-16.3143	-60.0185	-25.9613	-11.5283	-16.8088	-11.9228	-9.3325	-8.8216	0.7086	-10.6823	-29.6314	3.6620	-15.5471	-19.7240	-29.2277
1344.0000	-0.0901	-6.5628	-43.6728	-12.5074	-4.9635	-3.1179	-1.2856	-0.3462	3.2993	30.3464	3.1441	-15.9922	0.1848	-5.4584	-8.4136	-4.1872
1352.0000	-4.0684	-5.3053	-30.4016	-18.0340	-0.5857	1.9302	0.7089	-0.1018	8.5108	39.2195	5.4998	-10.4740	-5.2013	2.7907	1.5868	-1.1307
1360.0000	-9.2790	-5.1953	-7.0353	-14.7845	-2.8709	-2.6602	-2.5407	-2.6460	0.3436	22.6286	-5.4793	-22.2922	-4.2221	0.3322	-2.8004	-13.9359
1368.0000	1.1375	2.2679	-16.7534	1.2751	3.5647	7.5077	7.3491	5.0821	10.0892	34.2084	7.7339	-1.2481	-7.5420	22.7964	13.6481	11.3526
1376.0000	-7.6530	0.8252	-10.6013	0.6575	3.8319	9.4434	4.3634	1.2494	11.3473	25.7734	5.7001	7.6302	-6.8644	17.0653	7.6149	9.0291
1384.0000	-16.0946	-4.2995	11.2354	-9.5181	-1.5472	-1.4951	-5.0941	-5.9044	-1.5315	-0.2367	-9.2129	-9.7311	-2.7670	-2.8170	-5.4841	-15.3729
1392.0000	-11.2429	-4.3850	9.1384	-5.9478	-4.0244	-6.8382	-6.3857	-5.6200	-7.4474	-9.0038	-12.1922	-18.0967	-0.0248	-7.3879	-7.0038	-19.3251
1400.0000	-4.0185	2.2190	29.3534	8.7100	-1.1239	0.0844	-4.4236	-1.8400	-2.3666	-1.8122	-4.1729	-7.2164	0.0516	-9.0304	-6.9845	-13.3892
1408.0000	0.2934	7.5761	41.9808	11.3220	4.3543	7.8767	1.6761	3.5614	4.2238	5.7657	3.8648	6.8498	-3.8147	9.5988	2.7357	-3.3531
1416.0000	2.8649	9.1579	38.4363	13.2393	5.8408	10.0605	6.7231	5.9453	5.0128	4.3566	3.6410	10.9673	-4.3226	20.4271	8.0537	7.8026
1424.0000	12.6216	13.0834	55.0053	21.6639	7.7532	12.3077	8.7885	6.9822	5.3139	3.6205	5.4673	14.6950	-2.5036	6.3487	13.0605	20.3140
1432.0000	11.2929	9.4649	45.3261	13.3782	5.0941	8.2212	5.8787	5.0725	2.2720	-4.7176	3.7568	14.0167	0.7698	-0.2719	4.4986	14.6467
1440.0000	6.7861	4.5973	30.1069	1.5645	0.9017	4.9948	2.1667	3.6062	0.8616	-7.3096	3.2496	13.3362	4.5263	-3.2024	-13.1183	3.1325
1448.0000	6.0035	4.5790	42.4252	2.0140	1.3292	4.1726	0.0887	1.2008	0.0436	-3.9875	0.6585	6.4450	3.1589	-14.6988	-8.7002	1.2627
1456.0000	-5.9080	3.0113	41.5590	11.6709	-2.0421	-0.0368	-4.1856	-2.3674	-5.4486	-12.7176	-9.3492	-7.0421	2.0370	-9.0450	-12.5405	-14.0507
1464.0000	3.0477	11.0532	37.8318	26.6566	1.9870	11.0857	3.3714	7.6693	5.1462	3.6708	7.0952	14.0435	0.4598	18.5205	-12.9168	-3.7551
1472.0000	16.1616	16.3773	49.9118	26.5062	8.6249	19.5846	9.9731	12.3329	13.6671	15.6269	19.1880	32.6068	-1.1190	16.4245	0.3111	18.9948
1480.0000	9.1528	12.4364	60.5265	22.1806	4.9846	11.9517	3.5526	6.2415	4.9266	-1.3095	7.5081	19.0239	1.1119	0.6275	-5.4252	5.3288
1488.0000	15.7412	17.1772	62.0191	30.7547	7.3492	15.9139	6.4378	11.7723	9.2032	8.9286	16.5603	24.7539	-0.9937	14.3374	-0.9512	6.5276
1496.0000	13.2645	16.8871	56.2054	29.0087	10.4008	19.1614	8.7533	10.8151	13.0536	9.8192	18.0968	33.8534	-3.3728	17.6937	8.2751	17.5038
1504.0000	-1.0139	9.0587	40.8026	15.4797	6.6672	12.1778	5.6217	4.0095	5.7119	-12.2356	4.0171	27.4859	-1.5705	17.6073	2.4025	11.4855
1512.0000	-2.0286	4.2599	23.2819	3.5877	3.5214	6.4608	4.8457	2.4738	1.7152	-12.6383	-0.7865	16.1358	-0.3496	15.5908	-0.1412	8.1412
1520.0000	-12.2694	-3.3163	27.2887	-4.3204	-2.8126	-3.5924	-5.0147	-7.7877	-7.9701	-24.4303	-16.3255	-5.9871	3.3571	-17.8558	-11.2450	-7.7676
1528.0000	-14.5087	-1.7867	41.0812	3.1971	-4.5473	-5.0601	-6.2907	-7.8742	-12.7620	-39.6504	-21.5349	-7.0692	5.7849	-15.1461	-19.0694	-14.7955
1536.0000	3.5159	11.3482	50.0114	23.7697	2.7542	8.4654	7.2826	7.2044	-1.4881	-16.2968	-2.9507	11.2392	1.0579	24.2528	-5.3602	4.7922
1544.0000	12.6017	17.2862	59.2607	31.6227	8.3831	17.4003	12.7712	11.8924	8.3510	10.1799	8.2785	18.3658	-3.8355	27.0087	9.2777	20.1448
1552.0000	11.5533	13.3597	54.8381	24.5398	6.2714	12.5920	8.6762	7.5208	4.0478	-5.3965	4.5857	19.8255	0.5030	9.0837	3.4033	18.6809
1560.0000	13.8478	15.0455	54.2274	33.5070	5.2961	11.0988	8.0925	8.7427	1.1069	-18.4809	4.8560	23.8643	3.1842	12.4025	-0.3832	16.4306
1568.0000	20.4035	21.3003	55.6342	40.0017	12.4966	21.0726	15.8132	15.3425	12.4887	8.6597	17.7732	34.0521	-4.7398	33.4050	20.1941	31.5616
1576.0000	8.6329	9.7323	30.9318	12.6540	7.2996	11.5570	8.8648	7.1106	6.7171	-1.5237	8.3140	23.7704	-1.9302	17.7417	9.4644	19.2800
1584.0000	-9.9054	-3.9193	19.2281	-1.8766	-4.3257	-7.2158	-8.3139	-7.8784	-10.4755	-33.3780	-13.7619	-4.0186	5.8791	-21.3715	-15.0740	-14.6688
1592.0000	-2.6279	-0.3666	19.7960	4.5204	-1.7633	-4.2247	-4.9939	-4.3243	-6.7144	-18.9547	-7.7423	-4.4944	2.9975	-16.8145	-4.4445	-7.4922
1600.0000	-1.7569	-3.5036	-2.5057	-5.1251	-4.9798	-5.9844	-3.0901	-2.4556	-7.8973	-22.5841	-7.6841	-1.9468	7.1232	-8.9615	-17.4116	-6.8623
1608.0000	-14.4604	-9.2261	-9.1291	-10.0888	-9.3891	-10.8173	-8.8099	-8.8837	-12.4647	-30.6899	-17.9302	-12.1135	8.7451	-18.5447	-28.3645	-18.9360
1616.0000	-10.4218	-4.1263	9.3549	-5.8458	-3.5055	-3.7521	-3.1672	-5.8146	-6.2059	-13.6554	-13.6451	-9.5516	2.3941	-10.4485	-9.9744	-6.1889
1624.0000	-7.6324	-2.6801	10.0520	-5.9783	-4.0965	-3.5895	-1.1843	-2.3119	-7.4479	-20.0250	-12.1308	-5.2745	4.2329	1.6692	-16.1097	-8.3313
1632.0000	-15.2034	-4.0197	2.4383	-4.2668	-4.4505	-2.6789	-3.0984	-3.9838	-5.4189	-16.4878	-12.2886	-4.9194	2.3928	6.0887	-17.7291	-13.6588
1640.0000	-11.6845	-0.9621	19.4434	0.9871	-1.5711	0.3297	-2.0801	-3.8461	-3.0293	-8.6754	-10.6182	-5.2418	-0.0216	-1.1005	-8.2078	-7.5099
1648.0000	8.0570	7.5341	32.5530	18.0177	1.2859	2.4863	2.5955	4.0266	-2.8400	-9.6774	-0.6093	2.0737	1.6705	2.7426	0.0459	2.3694
1656.0000	17.4788	14.0944	23.0098	30.3101	6.9137	12.7445	10.2082	11.5515	8.6098	11.1891	15.0985	20.2141	-2.0926	21.4328	11.8042	20.3529
1664.0000	5.8766	10.7179	20.6855	28.3464	4.2978	13.3668	7.5774	7.2156	8.5496	8.9164	8.5175	19.0149	-0.8082	16.6539	-0.3902	15.8200
1672.0000	-0.1806	5.0031	13.9915	24.5513	-2.1777	3.1100	2.1095	1.4428	-2.7038	-10.6512	-5.7906	1.1616	4.0199	2.6189	-11.2769	3.9966
1680.0000	-2.6003	0.0680	12.4866	13.0435	-6.7104	-3.6375	-2.0565	-2.3064	-9.4718	-21.6172	-13.5416	-8.7490	8.5019	-12.0079	-23.3753	-5.0485
1688.0000	-0.9385	1.8280	26.3006	13.6177	-7.7039	-3.2305	-2.4339	-0.2395	-11.0746	-27.6062	-13.1041	-6.2166	10.9367	-9.1659	-33.5579	-11.6813
1696.0000	5.5318	4.0086	6.3210	15.1435	-4.1689	0.1846	3.8487	4.8203	-5.5339	-14.4448	-4.6313	-0.0889	6.9929	9.9605	-18.5822	1.2486
1704.0000	-7.7869	-5.5065	-0.8632	-1.8758	-10.7686	-7.7421	-5.6441	-4.5345	-11.9047	-25.6608	-16.1205	-11.6778	11.8387	-15.9382	-38.8411	-15.9993
1712.0000	-10.4631	-5.1353	20.7387	3.2229	-13.2524	-10.2866	-9.5674	-7.2780	-17.4407	-38.4306	-23.3378	-17.5832	14.9849	-28.5395	-48.5611	-25.0408
1720.0000	-0.5264	-2.5122	-5.3269	4.2631	-6.3454	-4.4344	0.2175	-2.5704	-8.6533	-21.4723	-12.7028	-5.4942	9.1020	-12.4937	-19.4626	4.7909
1728.0000	-8.4237	-8.7865	-8.7523	-11.0398	-9.9816	-8.9710	-5.9083	-8.0146	-11.6980	-28.0609	-17.8370	-9.5847	12.1670	-28.2283	-33.2720	-7.1234
1736.0000	2.0036	3.7865	38.3551	4.3120	-3.9571	1.2047	4.3237	3.1198	-8.0551	-20.0185	-12.4833	-3.3097	7.5616	3.9819	-24.2181	-0.3809
1744.0000	16.6841	12.5352	30.2332	8.8608	8.0321	14.5505	20.3013	14.0968	6.2904	4.1629	5.4283	20.3464	-2.1577	41.3202	12.9675	36.3421
1752.0000	10.2686	1.1884	-5.2503	-8.7295	2.5194	3.3490	7.8470	4.1473	2.1606	-3.8189	4.0078	14.3378	2.6039	5.4485	3.0863	21.8149
1760.0000	10.3064	-1.3468	-11.3134	-10.3549	-2.0612	-4.2874	7.5855	3.2363	-6.8588	-12.6515	-6.7763	-4.9228	4.9166	5.6734	-0.3597	16.1350
1768.0000	5.8188	-1.1366	-11.8633	-9.1141	-3.3348	-4.8793	12.4449	4.7974	-11.2781	-24.1604	-16.1065	-9.2581	5.0360	26.6730	-2.0421	19.0147
1776.0000	3.1202	-0.8795	-3.4670	-5.6258	-3.2946	-3.7929	5.7190	2.6614	-8.6732	-25.5677	-9.8663	-0.1729	6.2779	13.6740	-10.5611	7.0506
1784.0000	8.2316	2.6968	4.5539	-6.7402	2.9633	2.7173	10.0852	5.5137	-0.6393	-6.9176	-1.0481	7.2062	0.1350	19.3346	8.1762	19.2301
1792.0000	3.8667	0.8051	-4.9053	-9.8536	1.6590	3.1688	10.5033	4.9996	0.8830	4.3326	-2.8736	0.3343	-1.3910	23.0228	5.8914	17.4456
1800.0000	3.3466	-0.2140	-11.4971	-8.5628	-0.3885	5.2416	4.8930	4.0976	5.8575	14.7505	5.8122	7.7931	1.7308	7.8756	-10.8336	8.1160
1808.0000	-6.8196	-8.5314	-19.3284	-29.3491	-2.2695	-1.4858	-0.5751	-4.1138	0.4480	-6.6467	-3.2448	8.1881	4.2176	-8.3668	-14.3304	3.8800
1816.0000	-19.3687	-18.7327	-37.2639	-40.1618	-11.7100	-19.6410	-8.7971	-12.8616	-17.7578	-33.6310	-26.6230	-26.5691	7.7542	-17.9417	-22.4602	-19.4970
1824.0000	-7.0345	-13.2764	-38.6208	-29.3176	-7.7040	-18.1088	-6.7368	-7.3325	-13.9051	-19.7360	-14.5040	-25.1442	3.5363	-9.9466	-4.4466	-16.5774
1832.0000	-1.7842	-9.5743	-23.4348	-30.3279	2.5854	-11.2033	-6.1686	-8.1725	-5.0267	-24.4261	-0.6895	5.4243	-1.0503	-18.2624	21.4060	1.0179
1840.0000	-10.0807	-10.8046	-14.5966	-22.5234	-0.4380	-11.2529	-9.4993	-12.9784	-7.4289	-30.1093	-9.4515	0.3910	1.5379	-32.3363	10.0870	-2.1313
1848.0000	-12.7666	-8.5486	-17.1328	-17.9499	0.1054	-5.5620	-4.6778	-9.2367	-2.2797	-9.8541	-8.2103	-3.3550	-2.2493	-13.0665	9.7536	0.1238
1856.0000	-17.5030	-11.5275	-31.1117	-27.5357	1.5816	-8.5116	-5.3689	-10.4868	-2.4879	-10.6819	-8.2796	-5.5307	-6.5178	-2.3379	21.6120	-3.6832
1864.0000	-21.4061	-12.5123	-28.5060	-16.7695	-5.0803	-12.9323	-8.1124	-12.5191	-9.8817	-16.0272	-19.8010	-23.8323	-1.9477	-10.2096	4.4342	-13.8929
1872.0000	-12.3062	-3.1191	-5.6558	-0.1836	-0.2063	-2.0741	-0.7836	-4.8306	-2.4257	-4.8305	-10.2054	-8.8633	-3.7121	5.0486	8.2521	-0.8789
1880.0000	-0.8617	1.3122	-14.1409	-1.3627	6.4832	4.4953	5.1154	1.9796	7.5493	15.6233	6.8010	5.8236	-9.1123	20.5494	27.2670	12.3695
1888.0000	-6.1576	-5.5255	-26.3295	-15.0928	0.6437	-2.4805	1.5047	-2.5117	2.0369	19.3372	-3.2071	-14.9470	-6.6993	6.5746	16.2257	3.0929
1896.0000	-4.4915	-1.3417	5.9563	-12.0645	6.4169	-0.5490	1.2760	-2.9014	1.9283	6.6627	-1.6723	-5.2330	-10.0919	5.9048	32.4582	5.4344
1904.0000	8.0028	9.8901	15.9730	7.7167	17.2213	12.9839	7.1284	5.9524	17.1751	26.8821	23.0235	24.6444	-17.5655	25.7072	56.5743	20.7920
1912.0000	-2.2874	0.0819	-20.0960	-5.3413	9.4844	5.4896	-0.5457	-0.3338	14.0103	28.3663	17.6384	12.7351	-13.0458	10.0119	35.8217	5.5293
1920.0000	-7.7777	-8.2393	-23.2682	-15.6279	1.2500	-12.0517	-10.4557	-8.9277	-4.3958	-9.1033	-1.0453	-10.1135	-5.6986	-14.3833	24.1492	-15.2299
1928.0000	3.6707	3.5766	-1.7282	11.9986	4.7775	-0.0956	-4.3801	1.1228	4.4404	9.4935	12.9522	3.5373	-6.7651	2.9397	21.5390	-8.8763
1936.0000	4.1760	1.2298	-24.1255	15.1439	-3.2870	3.8476	-1.3671	2.5055	7.5533	33.5190	9.9127	-5.4059	1.0307	-7.8177	-11.9203	-2.1170
1944.0000	16.9609	8.1512	-13.1855	19.7855	1.0239	13.6413	5.0085	10.7501	16.5662	47.2145	25.0275	14.9314	1.4115	2.2242	-13.3114	10.3442
1952.0000	3.0511	-4.5771	-41.0145	-8.6595	-3.7927	0.1406	-3.3643	1.0714	7.5499	30.8406	12.6138	-1.4211	1.9475	-9.8533	-14.6598	-6.3312
1960.0000	-1.0329	-7.5882	-54.1849	-8.8750	-4.4305	-2.9639	-3.6218	-2.7392	5.6329	33.4491	6.0037	-12.8200	-0.2302	-15.1847	-4.6388	-1.6307
1968.0000	-0.6462	-4.0897	-38.7901	-2.2623	-3.5940	1.9288	-2.0830	-0.4015	8.3179	36.5559	8.2063	-6.8809	0.0665	-10.6204	-10.6933	-1.3568
1976.0000	-2.2296	-11.6217	-55.7405	-18.7725	-8.1739	-12.6602	-10.6611	-5.2463	-2.8509	14.8364	2.4916	-20.5897	3.0721	-22.3304	-12.6156	-21.8714
1984.0000	6.6285	-6.8117	-46.2754	-12.9548	-3.8432	-9.5406	-6.1404	-1.2121	-0.5048	17.6405	8.0981	-14.5187	0.5087	-14.8092	2.0566	-11.1473
1992.0000	3.7019	-0.1220	-25.7389	-5.9334	2.5965	3.8711	0.8776	4.0753	10.4850	32.5981	15.8813	3.7660	-5.4844	10.9890	7.8971	-1.3376
2000.0000	-4.2619	-2.9391	-41.7254	-6.7735	2.8912	4.8844	-0.6254	0.8614	14.1367	42.6024	15.6613	2.2462	-8.6718	10.2912	12.2820	-0.8385
2008.0000	-2.7223	-1.1205	-30.0313	1.0885	2.8032	5.6320	0.6311	0.1406	12.7442	44.1247	11.0944	-4.1144	-8.5369	2.9316	14.9174	4.9286
2016.0000	-7.1187	-2.9948	-30.3049	-5.8174	2.2035	2.3277	2.0795	-0.5092	7.9203	32.1659	3.4710	-9.4102	-9.2756	14.4266	17.5926	3.0327
2024.0000	-14.8878	-9.4422	-60.8686	-17.0133	2.1930	-0.7588	0.4392	-5.5798	8.9576	33.6688	1.1832	-11.0028	-11.6487	11.2631	26.4947	7.0628
2032.0000	-18.8791	-15.3245	-57.9254	-26.0331	-2.5500	-9.1401	-9.7992	-13.0015	2.2715	21.0563	-4.6186	-20.0787	-6.5869	-21.3784	13.4344	-9.2565
2040.0000	-13.5782	-15.2442	-55.0772	-29.0196	-3.8968	-13.2968	-10.7420	-11.5290	-2.4392	9.8396	-4.6849	-21.4801	-3.7462	-21.7220	9.9079	-14.7378
2048.0000	-8.3685	-9.8288	-57.7605	-21.6425	1.3435	-4.3559	0.1196	-5.1468	5.1547	26.9493	0.5263	-13.8679	-9.0439	3.4468	26.1048	7.3778
2056.0000	-12.2251	-12.9124	-50.9794	-26.9295	-4.1258	-11.8399	-6.0495	-7.3502	-2.9827	15.9819	-6.7341	-28.1484	-5.3719	-3.4558	10.0696	-14.4582
2064.0000	-3.8630	-10.8013	-62.9188	-22.0308	-5.3315	-13.0059	-4.5355	-2.1031	-3.7670	13.9736	-0.2761	-24.5829	-2.8078	7.7575	5.1559	-16.9704
2072.0000	2.3061	-6.6557	-69.8101	-12.2383	-0.9558	-4.3579	3.5378	1.3052	4.3165	27.8932	5.9124	-12.1709	-4.9044	14.0475	16.9739	9.0678
2080.0000	-7.6456	-14.1241	-61.0386	-23.5278	-4.8040	-12.9962	-10.5750	-10.0236	-1.4397	15.7923	-0.9022	-21.6430	-1.8419	-27.7460	7.0989	-12.0874
2088.0000	-8.7755	-11.5079	-52.5137	-20.6215	-0.4869	-8.4690	-11.8522	-9.1548	5.2212	28.4943	7.8925	-14.4282	-7.2514	-23.5560	17.2974	-15.4118
2096.0000	-6.5341	-7.9869	-39.9113	-15.3833	-1.2130	-8.3943	-3.4617	-4.3562	-0.8955	17.6710	-2.4107	-22.6678	-6.8666	1.3142	18.2052	-8.1671
2104.0000	1.0743	-7.1457	-26.6447	-12.0644	-6.6827	-15.9154	-4.9572	-2.6975	-13.2993	-14.1995	-9.8698	-26.5290	2.8781	-4.1872	-1.0463	-16.7705
2112.0000	19.6391	8.3167	-9.8510	15.0694	5.6518	6.8499	4.0436	9.9494	10.5643	22.2637	24.6676	17.8875	-2.6771	11.5911	13.5849	9.0083
2120.0000	18.9255	12.1724	3.5571	21.5625	8.8919	14.2920	8.1261	12.0200	16.4346	34.7947	27.0771	23.1309	-6.0505	19.1868	18.4471	17.5519
2128.0000	6.6598	4.5373	9.2700	8.5458	1.6230	1.6108	-0.1855	4.3423	1.7469	3.6738	8.2272	4.2263	-0.9282	6.9798	1.8677	-5.7515
2136.0000	6.5597	5.8780	23.7907	14.0413	2.5576	2.2118	-7.0439	2.2308	3.2792	-3.1125	14.8267	15.3645	0.6990	-9.0748	-3.3402	-16.0076
2144.0000	5.5446	4.7684	32.7335	17.8013	0.1186	-2.1311	-9.7524	-1.4943	-3.5412	-21.3757	6.2207	10.6126	4.7396	-24.1049	-8.0249	-16.8923
2152.0000	1.8682	3.4926	25.2251	10.6683	-0.0769	-2.0040	-3.5727	0.0266	-5.7760	-28.1014	-1.0943	9.0063	4.0580	-3.4529	-6.3943	-8.8469
2160.0000	2.5931	3.8962	27.0148	1.7333	1.6119	1.1931	-0.9526	2.7404	-2.0495	-20.3755	3.2232	14.5224	2.4836	6.8027	-6.9150	-7.7715
2168.0000	4.2854	5.6185	42.9286	3.9627	1.2121	0.5714	2.4821	3.5922	-6.1896	-23.2912	-4.7384	4.3352	2.3748	9.5418	-4.2756	-3.5187
2176.0000	8.2391	12.0865	52.2039	12.6680	6.4533	9.8021	13.4349	10.1077	-0.0928	-10.6565	-2.1092	11.0714	-2.8145	36.7280	10.0505	16.1066
2184.0000	8.9708	7.8239	47.1645	0.1078	5.2803	6.3452	10.2384	6.2109	-2.2687	-21.9536	-3.1699	16.0454	1.4062	16.9864	4.7620	18.1345
2192.0000	4.0976	1.6020	39.4156	-7.9844	0.7857	-2.3956	4.4757	-0.5158	-10.6855	-40.5004	-13.6679	6.1232	5.9096	-3.6064	-2.2171	11.6425
2200.0000	3.7680	6.9036	43.7566	8.6694	2.1756	2.2188	7.1435	4.1434	-7.2901	-30.1042	-9.7052	6.0772	2.1936	17.6844	0.8151	8.3952
2208.0000	9.9523	10.3694	56.7429	18.2914	1.7991	3.2380	5.9519	6.0825	-7.6719	-33.1053	-5.9226	10.1933	5.1487	10.8480	-5.7238	5.9896
2216.0000	17.9264	14.8110	59.9135	22.6238	5.5146	10.1251	9.5106	10.9293	0.3707	-15.1082	5.9517	20.7968	2.9893	15.6757	-0.6004	14.3040
2224.0000	17.8852	16.5949	50.5027	26.9426	7.6849	13.7490	11.5458	13.6518	6.0931	2.3795	12.4039	21.4780	-1.7172	29.0192	7.5676	15.3027
2232.0000	10.6596	8.2433	47.0207	18.3812	0.2223	-0.0908	3.4834	3.6944	-9.5731	-34.4764	-7.2357	5.6140	6.5786	-0.7989	-5.5311	5.6103
2240.0000	7.9855	6.1757	53.1891	8.6233	-1.3748	-0.8360	0.9645	2.5980	-10.4511	-39.1203	-7.9180	8.1537	9.1365	-5.8910	-17.7317	-2.0889
2248.0000	3.4602	4.6865	44.0485	-0.5181	0.3252	2.6111	0.0684	3.1757	-3.1905	-19.6739	-0.4066	11.6255	4.7886	1.4598	-16.5285	-7.6357
2256.0000	-0.4003	-1.7740	26.3972	-2.3848	-3.4670	-6.8390	-6.6049	-5.3152	-10.8947	-37.1409	-9.8154	1.8198	8.5904	-26.5410	-15.5514	-8.7227
2264.0000	1.1809	3.0767	39.5797	15.1986	-3.1211	-2.1113	-5.5343	-3.3287	-8.8782	-35.4784	-8.0619	6.5980	9.5730	-25.6197	-20.3634	-6.3657
2272.0000	-0.1416	9.4383	55.9090	21.6970	0.6850	10.1739	4.2778	3.7031	-0.3313	-16.6142	-4.8059	15.0548	5.0275	5.0940	-20.1828	4.6810
2280.0000	6.5049	10.0198	50.6371	16.4666	2.3112	9.7250	7.9052	6.3991	-0.2950	-16.1574	-2.1837	16.8178	4.4491	11.3193	-12.1784	12.3727
2288.0000	14.5870	15.8985	67.5013	27.9632	6.0158	12.7009	7.7595	10.0209	2.7839	-11.1955	7.2390	23.2319	2.1124	12.8502	-2.9497	11.1024
2296.0000	9.8613	17.8331	68.7301	29.2996	9.4712	20.2248	13.1029	11.7833	9.5326	0.9649	8.8247	30.3244	-2.4975	29.4429	3.6579	21.3838
2304.0000	3.1165	8.1268	27.7277	11.9021	3.6208	11.2532	8.6103	6.8704	4.3742	-9.4417	3.2965	23.9908	1.8898	22.6496	-7.9600	14.0145
2312.0000	-1.5598	3.0027	34.7901	12.9467	-3.4450	-2.1859	-3.3339	-1.2675	-9.7857	-39.1206	-9.5109	6.8907	8.7605	-7.9278	-21.8980	-9.0945
2320.0000	7.6201	13.2253	65.4537	30.9684	3.9219	8.6317	5.7533	5.1339	-2.6233	-22.9823	-3.5252	14.0333	2.7411	5.8541	-1.6539	10.6532
2328.0000	19.2041	19.9026	44.9058	34.8077	11.8263	22.1675	18.8438	16.2379	13.6955	13.9592	16.4585	33.0929	-4.7686	40.3486	18.0002	36.6814
2336.0000	8.8617	10.4629	26.0916	18.8732	6.4815	12.2468	12.1704	7.7642	5.1359	-7.9845	4.2428	24.7324	-0.1517	22.7316	7.9868	27.9316
2344.0000	5.4213	5.8303	27.0415	9.6072	3.2242	5.2269	7.0031	2.8222	-1.6592	-21.9826	-3.4134	16.2478	3.0278	6.3772	1.8592	19.1645
2352.0000	12.9231	8.1875	20.0604	10.4917	2.4067	5.9639	7.2349	9.0863	1.4357	-5.1569	7.2248	14.4765	2.5551	18.2760	-3.9774	8.5344
2360.0000	5.1982	1.8199	12.7612	0.6876	-2.7610	-1.5788	1.5351	3.2042	-5.9308	-20.2947	-3.0189	4.5253	6.7662	4.1204	-16.6577	-2.6244
2368.0000	-4.3705	-5.0435	-0.6124	-3.8804	-6.3049	-7.3400	-4.9392	-5.8664	-10.4062	-33.2104	-12.5234	-0.8114	9.9722	-21.1402	-21.9119	-4.5453
2376.0000	-0.4337	-3.4678	-4.3819	5.2369	-8.1621	-8.2454	-6.9215	-4.1022	-10.7073	-29.8042	-8.6850	-3.0015	11.7717	-23.2946	-28.0843	-11.1403
2384.0000	7.6478	2.5995	6.6519	6.1829	-2.1449	-0.1685	0.6426	3.2033	-3.3399	-17.9023	1.8981	10.8719	7.5073	-1.7270	-16.2330	0.5991
2392.0000	-2.6577	0.8192	6.0355	-1.1051	1.5914	5.3372	1.6787	0.1114	3.8718	-3.8554	2.0645	15.2604	1.2719	1.6854	-6.0206	6.7761
2400.0000	-20.9299	-8.5731	9.3659	-9.0903	-7.4787	-5.4372	-10.2698	-11.8311	-7.4494	-19.1029	-18.3916	-10.3863	6.0364	-28.6408	-28.3586	-18.1710
2408.0000	-16.2731	-7.6753	5.2339	-11.3665	-5.6019	-4.9693	-8.0112	-9.7387	-6.1871	-17.6562	-14.5131	-6.5721	4.9743	-23.3732	-21.1695	-12.9478
2416.0000	-5.3169	-4.4699	-11.9911	-8.0042	-2.3337	-3.4554	-1.9620	-3.5179	-3.1299	-11.8073	-5.2422	0.3482	2.7272	-5.1333	-6.4106	-1.0874
2424.0000	-2.9058	-2.9771	15.5064	-6.2041	-6.8632	-7.2602	-2.7303	-2.3860	-12.1591	-26.1850	-14.9100	-11.6115	8.2672	-9.1155	-23.9359	-11.9835
2432.0000	-2.9740	5.6871	40.9071	1.5139	3.2445	10.3158	6.3952	3.7385	4.5909	7.6441	-2.1851	6.2965	-2.4526	14.7858	-4.7513	5.6645
2440.0000	-8.4896	2.7038	11.1350	0.2257	5.7667	11.1132	7.1910	1.0933	9.8642	21.5093	0.0986	5.6585	-8.4732	19.3153	13.6231	14.4983
2448.0000	-7.6349	-5.3662	4.2541	-15.3673	-2.8027	-5.6632	-0.9598	-4.8193	-7.4752	-14.7235	-14.1121	-11.4578	1.6363	-5.5328	-4.0241	-2.7145
2456.0000	0.8857	0.5816	24.5827	-7.6467	0.6160	-1.4277	-0.6775	-0.2023	-3.6874	-11.0048	-3.3799	-0.4412	0.8367	-2.8177	-1.5468	-4.7875
2464.0000	6.0378	5.9270	28.9928	10.1648	1.8713	2.4268	1.4536	3.6057	-0.7951	-2.2228	1.7434	1.0894	-0.4003	3.8565	1.7886	-1.8663
2472.0000	5.5996	6.7278	22.1139	3.9175	5.2304	7.7548	9.3849	6.7393	4.1543	8.3749	2.6649	5.8123	-4.5183	24.0843	12.0695	13.3530
2480.0000	2.2099	3.2519	17.6920	0.4862	3.8348	2.5245	3.0178	2.0272	1.9029	10.0553	0.8379	-4.4545	-5.5313	8.0375	15.2220	2.9351
2488.0000	8.6747	5.1402	11.7336	9.4464	2.4729	4.1273	2.5434	4.1198	3.9815	15.0753	7.0038	0.3447	-2.0203	0.8240	6.5406	4.5839
2496.0000	12.3623	9.1142	19.2771	16.1361	6.3844	10.1490	7.5494	6.6290	8.6785	21.0732	10.6923	9.1353	-4.3182	6.9365	16.1563	18.8582
2504.0000	18.5139	16.3505	23.3432	19.9883	15.3750	22.8949	20.2306	14.9088	20.7707	43.9655	21.6907	25.1394	-12.9554	40.0805	40.1469	43.7785
2512.0000	-1.1403	2.0305	-2.9078	-4.4970	7.9330	7.1046	10.7834	2.0011	7.1764	16.7489	-0.1765	2.5802	-10.3146	23.3136	33.2725	26.3864
2520.0000	-9.5310	-7.0236	-20.7929	-19.7830	2.3091	-2.4359	0.3069	-6.0078	2.2808	14.9097	-5.5327	-12.2010	-7.7665	-2.3495	22.2158	7.0016
2528.0000	-4.1574	-4.3060	-18.8040	-9.6438	-0.6438	-1.9199	-1.3854	-2.4999	2.0306	15.8513	-0.4264	-10.1196	-3.2781	-3.1986	5.5388	-1.8743
2536.0000	-13.4733	-6.6792	-14.7658	-12.3244	-3.7183	-5.0177	-0.0283	-4.7305	-5.4903	-5.8893	-14.8800	-15.6898	-0.8648	6.8394	-3.0031	-3.9257
2544.0000	-7.2922	-3.4746	-8.2600	-13.3809	1.5724	0.1000	4.1047	-1.9670	0.6138	6.5700	-7.2289	-7.7824	-5.0871	10.8056	12.6486	8.2744
2552.0000	6.5264	-2.8820	-23.3502	-6.9909	0.2700	-5.3850	-1.4140	-0.7055	-0.7389	5.1353	4.2294	-5.5606	-1.0523	-7.9020	12.5751	2.1997
2560.0000	10.2686	-4.0779	-38.4132	-9.5314	1.5306	-7.7447	-4.3648	-1.0778	1.0037	7.7852	11.9633	-1.7674	-2.1344	-13.0759	20.4619	-0.1171
2568.0000	14.1844	1.4515	-20.1369	-1.1180	7.0301	1.3704	-1.4006	1.4120	9.9299	24.7461	21.0115	9.7919	-6.1890	-13.3031	30.3742	10.4696
2576.0000	10.0609	3.0643	-10.1254	8.2788	3.5474	3.4459	0.2373	2.4445	7.7814	23.1844	13.8430	4.3253	-3.3151	-7.6193	14.1460	7.6254
2584.0000	10.3083	4.9882	-15.9287	8.3464	3.9733	6.8999	4.5765	7.5912	11.1071	34.6646	17.5427	4.9392	-5.6076	15.7850	12.2887	6.4058
2592.0000	17.8692	5.3486	-17.0140	9.7352	4.1018	5.1112	1.6130	7.2875	11.0376	32.3640	23.4327	9.4999	-2.9605	-0.4591	12.3035	6.5824
2600.0000	13.7658	0.4460	-24.2421	3.6688	-0.0145	1.0945	-2.2996	2.1302	7.1422	23.7007	16.5684	5.2402	2.0172	-20.5827	-0.2881	4.7973
2608.0000	10.4840	2.5992	-24.6168	4.5330	2.0292	6.9631	1.2001	5.7435	13.0905	37.3699	21.1259	10.0872	-1.9587	0.3192	0.4824	4.5707
2616.0000	14.2607	6.1711	-16.9166	11.6831	4.4809	9.0938	2.8009	8.3293	14.8305	40.7697	25.1268	12.5620	-4.2922	7.1065	8.4723	6.2827
2624.0000	15.1022	4.1538	-22.2629	13.6749	2.8601	5.9268	2.4167	4.7577	11.3083	37.1271	18.3898	4.2868	-2.4270	-9.0005	11.5561	14.2492
2632.0000	10.2214	1.3315	-33.1384	17.3506	-0.2767	2.1052	0.3114	1.1227	7.0991	29.2250	10.8659	-3.2781	-0.4116	-15.7850	7.8097	13.0349
2640.0000	-2.4105	-3.2463	-40.9222	2.6619	-1.5818	1.3175	1.0062	-0.7574	6.4221	29.5386	3.5226	-8.9134	-2.9723	-0.1080	3.9131	6.5470
2648.0000	-11.3316	-6.2810	-47.0644	-7.8190	-3.7632	2.0681	2.3067	-0.7863	6.9810	36.4527	-1.3546	-15.0009	-4.0781	13.2773	-5.6467	0.4281
2656.0000	-15.7150	-8.6063	-58.9061	-2.1066	-7.2775	-3.2378	-2.1992	-3.5439	1.9534	23.7071	-5.6593	-19.9046	-1.5371	9.8024	-12.0440	-9.3579
2664.0000	-27.0022	-15.4022	-70.7933	-18.0747	-7.7120	-9.0934	-4.5464	-9.9022	-2.5873	10.1753	-15.6524	-25.8813	-3.5688	9.1214	-4.2869	-11.5321
2672.0000	-29.0860	-16.5976	-56.8307	-19.4737	-9.4782	-11.3851	-7.6109	-13.2132	-6.6528	-0.7101	-21.6094	-28.7302	-0.5306	-5.7395	-11.4628	-15.1730
2680.0000	-22.4685	-13.5876	-48.6445	-11.3919	-8.0856	-8.2566	-9.3561	-12.3342	-2.7515	5.5127	-13.3407	-20.4085	0.8440	-19.5934	-12.8641	-12.9249
2688.0000	-23.6056	-15.6185	-65.2474	-27.6331	-4.3248	-5.4962	-3.1214	-10.5104	2.8331	23.3634	-10.8497	-20.8443	-5.7105	-1.7473	3.9723	-1.2377
2696.0000	-12.7923	-7.5967	-47.6675	-13.6707	-1.3359	-1.4183	3.4069	-2.5860	3.4483	24.0760	-5.9224	-16.6956	-7.0377	18.6406	11.1434	4.8380
2704.0000	-2.4772	-0.0349	-37.0752	-1.8638	6.1539	8.7834	7.2215	2.7961	14.5823	37.0179	11.7144	7.6278	-10.3749	23.3667	24.6425	19.1443
2712.0000	-21.3254	-15.5443	-84.1879	-30.0380	0.4323	-2.0059	-1.5801	-9.7038	10.1479	29.4889	0.1320	-4.3007	-9.0853	3.2049	18.6263	9.7713
2720.0000	-25.8549	-19.8606	-81.4935	-26.8913	-8.6237	-14.3627	-12.0329	-14.7841	-3.4014	6.9927	-11.8287	-24.7971	-1.5456	-16.5991	-4.3607	-18.0529
2728.0000	-4.8786	-5.3502	-34.0267	-9.3424	-0.3471	0.7367	-2.2545	-2.9577	7.6248	29.3951	5.6664	-5.4752	-3.9696	-7.6368	4.4220	0.6603
2736.0000	-4.1146	-9.2411	-48.3789	-20.6044	-2.6946	-1.7123	0.7559	-4.0564	5.1266	29.7805	-0.6520	-12.5266	-1.6134	-11.6373	1.6038	10.0049
2744.0000	-7.2139	-13.6598	-64.1440	-21.7972	-9.5790	-12.4902	-4.8971	-6.1050	-5.0939	15.6796	-8.7981	-30.4692	2.4062	-13.0820	-10.7081	-9.9346
2752.0000	0.6730	-4.6585	-43.0448	-11.2569	-2.8998	-0.7419	3.5455	2.2489	4.6293	34.5605	2.6648	-16.3990	-2.8387	9.5804	0.3217	2.9117
2760.0000	-3.7693	-5.2880	-27.9768	-14.2193	-2.8721	0.2238	2.1365	-0.3791	4.2676	32.5592	-1.4587	-17.2009	-2.7221	1.4759	-2.9919	1.4839
2768.0000	-1.7937	-4.3080	-1.7981	-18.3906	-1.4539	-1.4110	-4.1201	-1.8709	3.6246	30.6256	2.6886	-16.6787	-3.3070	-13.7794	-2.5978	-12.7015
2776.0000	8.9027	0.8226	1.2956	-16.0438	4.4185	4.2856	3.4438	3.9644	8.7583	34.0552	11.7607	-1.6383	-5.8596	0.5012	13.4781	5.8009
2784.0000	3.4343	-2.9316	-17.7360	-14.4456	0.6513	-3.6880	1.2422	1.0888	-0.0438	8.9077	2.4176	-7.2075	-2.8826	5.8396	10.7667	0.1206
2792.0000	0.5677	0.8154	12.7303	-4.7562	1.4000	-2.8965	-2.8486	1.0554	-1.5882	1.4948	2.4024	-6.3774	-3.7549	6.0571	7.3771	-14.7680
2800.0000	10.5089	11.8104	51.6443	13.8768	8.0743	9.7865	3.8346	7.7295	6.8803	12.9623	12.3757	10.9087	-6.2183	12.8578	14.6845	0.4861
2808.0000	19.3681	17.5503	62.8109	28.7330	11.0121	13.0498	3.5633	11.0116	10.1882	16.0444	22.2794	20.2162	-6.6800	10.4359	20.5154	2.2508
2816.0000	23.1999	18.9200	49.6692	37.6701	12.0592	12.9955	2.3374	12.0711	12.1420	15.5163	29.4902	27.3907	-6.7665	10.9202	25.5007	3.2031
2824.0000	18.8543	12.4020	18.8656	31.2263	7.4826	6.6294	2.4512	7.7163	5.4236	-5.6537	19.1278	25.6724	-0.9313	5.2996	17.9310	11.0266
2832.0000	17.3119	10.2450	44.3740	21.7137	3.2872	1.0373	-0.5065	4.9533	-4.2353	-26.2628	7.1386	16.2561	4.9123	-8.4702	1.6471	0.9718
2840.0000	20.3383	16.8803	78.1856	27.6061	7.1818	10.6890	3.1238	9.5196	2.9259	-8.6733	13.3974	22.9172	1.7856	-1.9600	1.1758	3.4133
2848.0000	16.2540	13.4601	43.3590	23.9901	8.7243	13.7650	4.3568	7.7145	10.6748	7.5194	18.9826	29.7302	-1.2117	-0.9525	9.0191	14.9767
2856.0000	14.2286	6.8473	22.1454	13.5775	3.6641	3.4284	1.4866	3.4829	1.0959	-10.2736	8.6136	16.7997	3.0923	-10.0555	4.5788	10.8663
2864.0000	9.6890	6.3529	32.6240	13.6371	0.2434	0.2059	2.3806	3.4182	-6.2435	-24.1943	-2.8160	6.4116	5.3438	-1.3076	-5.1007	4.0251
2872.0000	-3.2326	5.3377	49.3965	10.3239	0.8518	4.6421	-0.0914	-0.0813	-2.8955	-21.4402	-6.1576	10.1121	3.2831	-2.1460	-12.5284	-2.7366
2880.0000	-5.1136	5.6650	63.4480	7.4020	0.9716	5.7773	-1.3072	-0.5728	-2.7322	-22.8330	-6.7241	11.8425	3.6927	-5.0762	-17.6647	-7.1068
2888.0000	3.1237	6.3129	41.0963	11.1540	0.2458	3.2141	0.8468	3.2284	-3.4685	-20.1143	-1.8072	9.9617	4.3289	3.6559	-13.2984	-4.3543
2896.0000	11.9522	10.4111	38.8501	21.4602	3.9857	7.2660	3.2143	6.0363	2.1258	-7.6196	7.8019	16.9320	1.9828	1.8968	-0.2319	6.8399
2904.0000	18.1836	14.5997	52.6823	24.0912	7.3880	11.6684	8.3549	9.7623	4.7266	-3.1562	10.8620	22.1105	0.2185	9.3521	7.8468	17.3236
2912.0000	11.5502	6.8753	35.9587	5.5673	2.1870	2.8723	5.1539	5.6112	-3.1080	-15.9716	0.4737	9.4705	3.4680	5.3900	-2.2519	7.3388
2920.0000	1.0657	2.0806	48.9916	1.9930	-2.4048	-3.1952	-2.7811	-2.4963	-10.3855	-29.1085	-12.4547	-3.9977	6.6080	-18.9270	-14.3972	-6.7713
2928.0000	-2.6812	5.1539	60.5981	11.4976	-0.8833	-0.8384	-1.6491	-1.2982	-9.8915	-28.7613	-13.9174	-5.1823	3.2751	-5.7566	-9.4690	-9.7857
2936.0000	-4.8996	2.7758	35.4523	1.7817	-0.0323	-0.4772	0.8426	0.6733	-6.4777	-20.4093	-9.7256	-2.5628	0.2546	12.5925	-4.6751	-8.7966
2944.0000	-3.9733	-0.9875	24.7555	-7.5870	-1.2211	-2.6462	-1.2499	-2.3091	-6.1482	-15.7300	-9.6669	-5.1680	1.8321	-4.4856	-6.1461	-6.1133
2952.0000	-5.0785	-4.1007	19.9933	-7.0312	-4.9327	-10.2057	-5.6884	-6.2486	-14.0712	-32.9437	-17.1946	-13.9358	5.7493	-18.1530	-10.6077	-12.4980
2960.0000	-4.8667	0.7395	30.1562	5.0121	-2.4083	-4.2643	-2.5624	-2.9243	-10.4907	-33.7456	-13.3639	-2.5541	4.5833	-4.2100	-9.8605	-8.2338
2968.0000	7.2076	11.1800	40.4874	14.7089	8.0995	12.3544	9.0192	7.8786	7.0573	3.6503	7.7479	19.0191	-4.5974	23.3672	12.9076	14.8969
2976.0000	8.7874	5.4338	20.6485	-3.6634	6.6849	4.5708	7.6534	5.7682	2.7280	1.6411	5.0151	8.3718	-4.8321	18.6080	19.8360	12.7932
2984.0000	0.6625	-1.4242	17.7109	-8.6917	-0.6700	-5.6151	-3.0147	-2.3475	-7.2691	-20.4946	-5.8791	-2.9092	2.3854	-9.2257	-0.9023	-6.9278
2992.0000	7.9027	4.5535	23.5862	12.1199	0.3196	-0.7005	-4.4530	1.3206	-2.0058	-10.2891	5.7263	6.1206	3.2530	-12.8309	-4.8668	-8.9511
3000.0000	13.0501	7.8626	27.3013	20.6106	0.8527	2.0849	-0.5765	4.3586	-1.5604	-12.5264	6.7784	11.2147	4.9330	-7.8374	-5.9936	-0.1370
3008.0000	9.5786	10.0559	35.9055	21.1663	2.9019	10.6677	3.0880	6.3166	5.4767	-3.0730	10.1619	23.6628	4.0072	0.8433	-12.2973	6.7832
3016.0000	9.7578	9.2684	19.1588	14.6563	5.1906	13.8030	3.7805	8.0709	13.0522	18.0496	19.8164	27.6074	-0.3014	8.1850	-5.7513	7.2866
3024.0000	3.3503	4.9919	16.5535	7.7323	2.7381	8.0981	3.6297	3.5468	5.9035	6.9803	5.9513	12.9821	-0.0244	4.3308	-3.1133	8.1090
3032.0000	-7.9970	4.9676	25.7711	9.2273	3.8903	11.1565	5.5108	1.6617	6.6276	6.5629	-1.6134	10.7048	-3.9184	16.7065	0.2981	8.9456
3040.0000	-13.4452	0.9146	7.3954	1.5291	3.4615	7.2115	3.1047	-0.8840	5.6416	5.3887	-2.7996	6.6574	-6.1419	20.0146	5.9982	3.5040
3048.0000	-9.4751	-0.5920	9.5066	2.7831	0.6079	1.4644	0.9277	-3.5981	-1.4487	-9.4913	-9.3150	-0.1278	-1.2559	1.7825	2.4643	4.7935
3056.0000	-2.6910	3.3954	15.1579	10.7915	2.4151	6.1860	2.3143	-0.2484	3.1747	-2.6062	-0.7322	10.1870	-0.4953	0.8640	0.9727	9.5131
3064.0000	-6.4810	-1.9371	-8.1020	-2.1023	-0.8763	2.0831	-1.4024	-1.5972	2.2633	-5.1094	0.8254	10.7635	2.0247	0.7108	-10.7572	-1.1073
3072.0000	-16.0476	-7.6644	-12.8522	-7.4234	-7.4156	-4.2296	-8.7291	-7.1566	-3.8483	-13.6364	-8.3724	-1.4486	6.5556	-14.2543	-31.0235	-18.8516
3080.0000	-18.4907	-5.1556	-0.9090	1.1894	-5.3004	0.1243	-9.0091	-7.8027	0.2048	-3.4434	-6.7779	-0.5924	3.4650	-16.8704	-26.1734	-17.3747
3088.0000	-11.6072	-0.8630	1.5442	1.5372	-0.4195	4.3456	-0.1891	-1.8555	3.3308	4.1315	-3.1971	2.8812	-1.4571	6.9412	-7.7852	-2.5955
3096.0000	-7.5096	1.2796	2.7051	6.3178	-1.5762	3.3493	3.5931	1.7950	0.0651	2.0382	-6.1111	-3.6828	-0.8105	19.6427	-8.2935	-1.4136
3104.0000	-5.7139	1.0156	13.9538	13.3950	-5.3121	0.4122	1.0130	-1.2169	-5.9950	-12.6450	-13.6488	-7.7255	5.8066	-2.1894	-20.9791	-0.6450
3112.0000	7.6118	4.8838	24.3177	11.6776	-2.9934	1.2050	5.4505	4.1778	-6.4623	-15.8105	-8.0137	-1.4782	7.1736	2.3137	-15.9645	7.3677
3120.0000	15.6285	9.6326	18.6335	10.9648	5.2100	7.6036	8.2837	10.5638	4.9477	5.6305	12.5830	15.1285	-1.3072	22.4902	7.5829	10.8526
3128.0000	7.4622	6.8098	18.9569	7.8783	7.6416	9.8258	3.9231	3.8851	9.5431	8.1476	13.2762	22.7373	-3.5292	3.3500	13.8398	14.6510
3136.0000	-1.2736	1.7415	20.0726	-0.8473	1.6878	2.8478	3.5546	-0.0062	-1.0171	-8.6366	-5.4170	3.9613	0.1544	2.8227	1.2239	8.3723
3144.0000	-0.1224	2.5371	8.9005	-2.9216	2.5870	2.1707	7.7937	4.1596	-1.4718	-7.0703	-4.4578	1.4600	-2.8647	27.8913	8.7765	8.2138
3152.0000	4.3626	3.7625	7.5710	-5.8737	8.0727	6.1815	7.5940	4.2204	6.0442	2.5446	7.1395	15.8708	-6.3886	21.2880	23.7434	16.8891
3160.0000	-7.7864	-6.1811	-7.6288	-17.9166	0.1548	-6.8070	-5.0332	-5.5281	-3.8611	-11.3831	-4.4416	-4.3002	-2.1864	-4.7231	7.8823	-9.4124
3168.0000	-17.7615	-13.0687	-24.3363	-19.4222	-6.2385	-16.0579	-14.8304	-13.1214	-10.9984	-23.4559	-12.9481	-17.6405	1.5620	-24.1360	-5.0152	-27.9279
3176.0000	-9.6072	-6.2271	-11.8966	-10.5229	-0.1690	-5.3364	-8.2184	-7.5502	-0.7852	-3.8384	-1.3527	-2.8470	-2.2105	-15.8277	5.8393	-10.9484
3184.0000	-8.4904	-5.3734	-24.9251	-9.3119	-0.7493	-1.7220	-5.4551	-3.7760	3.8826	11.0379	4.0852	-0.6674	-2.6506	-3.5866	-0.1619	-10.1539
3192.0000	-11.8706	-9.5761	-37.8099	-12.8562	-3.4095	-4.2167	-10.4417	-8.3688	3.4454	7.6536	3.4097	0.8107	0.8913	-22.7970	-9.4388	-12.8401
3200.0000	-15.0658	-9.2999	-16.2487	-14.9202	-2.7285	-6.2731	-10.1242	-10.3999	-1.5896	-3.2457	-5.7769	-6.8497	-0.4988	-23.1523	-3.3701	-13.8785
3208.0000	-15.3954	-9.4225	-26.5069	-10.9611	-6.6868	-12.0179	-7.7264	-7.3404	-9.8852	-16.8839	-13.7382	-19.0440	1.2469	-0.9920	-8.3070	-21.4237
3216.0000	-7.4895	-8.7719	-39.4727	-7.7507	-6.5006	-9.8513	-5.6654	-6.0172	-6.6665	-11.6282	-7.9273	-11.0971	4.2392	-10.5079	-9.6691	-8.2742
3224.0000	-7.6251	-9.6047	-22.8590	-12.7889	-6.1245	-10.5177	-5.4166	-9.0949	-8.9399	-13.2068	-14.7540	-17.5740	4.4017	-25.3828	-6.1009	-2.3430
3232.0000	-6.5953	-6.7036	-18.0389	-4.9722	-7.0233	-9.7693	-3.5269	-5.4285	-10.4987	-17.2193	-14.9747	-17.6755	5.1205	-10.2227	-11.5564	-6.8819
3240.0000	0.1924	1.6649	-15.3699	8.6566	0.8445	5.4742	4.4771	2.3631	5.8815	14.8370	3.6111	3.9846	-1.5482	9.6257	1.8201	11.3825
3248.0000	1.8651	-0.1155	-22.7252	0.2740	2.6612	4.3280	5.5068	1.3683	7.1368	23.4764	4.2661	-0.6834	-4.6950	6.5064	14.7846	17.2071
3256.0000	-6.7853	-9.1020	-34.6854	-15.4149	-4.0463	-9.2117	-5.1756	-6.2963	-4.5660	-3.6010	-6.0855	-12.5697	0.8612	-11.5617	0.0639	-6.5472
3264.0000	-24.6524	-15.7495	-37.8669	-23.7142	-6.9080	-12.7924	-13.1141	-14.8133	-6.5555	-8.1819	-15.0047	-20.2520	-0.1597	-22.9226	-7.5754	-22.3026
3272.0000	-21.7161	-17.9637	-59.2636	-25.7527	-7.9088	-16.9713	-12.8228	-15.0212	-8.1506	-3.2636	-15.2467	-29.3310	-1.0693	-23.2460	0.3373	-20.1655
3280.0000	-12.2058	-13.4798	-54.1723	-21.7367	-4.9046	-13.7450	-10.8682	-9.6941	-4.3933	0.2444	-4.0148	-17.5602	-1.4955	-15.4367	4.0232	-18.2913
3288.0000	-16.7394	-10.5732	-36.4610	-20.9287	-2.2124	-7.3298	-7.9464	-7.6465	0.1042	7.9176	-3.0429	-12.4631	-5.0808	-1.2786	4.5362	-18.0329
3296.0000	-14.7513	-14.8240	-65.1478	-27.0168	-5.4990	-13.1125	-7.6786	-8.3941	-3.3806	8.9216	-6.0484	-22.9574	-3.3304	-3.0804	4.5503	-16.2529
3304.0000	-20.4222	-21.3658	-70.1237	-33.6355	-10.3574	-20.5310	-16.8600	-16.8281	-9.0575	-2.1208	-13.2513	-31.3982	1.7343	-36.8266	-7.3545	-26.4599
3312.0000	-16.9265	-15.4904	-40.0733	-17.8733	-10.5210	-16.7406	-16.8962	-14.3515	-9.5226	-5.4859	-12.7813	-28.3403	4.1833	-39.6158	-17.0057	-29.7267
3320.0000	11.3133	5.1847	-31.7598	17.1467	2.8079	5.9842	2.0523	8.0453	12.1795	36.2290	22.5762	7.2812	-4.7100	15.5264	9.7700	1.8672
3328.0000	15.2264	6.1451	-47.4012	12.4342	8.1841	13.7358	8.1942	10.4528	22.9826	58.1357	32.8479	20.4879	-9.2727	21.7383	24.7893	22.8434
3336.0000	-8.7460	-15.4932	-74.0024	-24.4844	-8.3312	-11.8277	-7.3671	-8.6430	-2.2330	11.9842	-4.3582	-18.8379	3.1023	-22.1246	-9.5567	-6.7359
3344.0000	-17.0421	-18.1094	-69.0563	-26.4969	-13.0798	-19.1956	-11.3737	-10.5364	-11.5129	-3.2012	-15.6177	-35.1335	4.2730	-14.4923	-19.5457	-27.5342
3352.0000	-1.6819	-7.8147	-55.4862	-13.8630	-5.0916	-7.2985	0.3973	-0.1252	-1.0523	20.2714	-1.5244	-21.3878	-1.4226	8.5783	0.6080	-4.0692
3360.0000	3.4740	-8.3695	-64.7159	-19.0548	-3.6456	-6.3313	0.3360	0.4819	2.3991	24.5342	5.8593	-12.6162	-0.7181	2.0772	2.8143	1.3769
3368.0000	2.0612	-5.2263	-45.8357	-12.4027	-0.1975	-3.3383	-5.0609	0.0744	7.3191	32.1006	15.0129	-5.9099	-4.7548	-2.6070	8.2561	-10.9441
3376.0000	7.4486	-1.4422	-39.1872	-5.5726	2.7795	2.7392	3.1098	2.6584	10.6362	40.6067	13.8088	-3.3930	-6.1866	1.5113	18.2511	11.8971
3384.0000	-2.0677	-8.5932	-66.4479	-21.7641	0.1933	1.9629	5.7357	-1.2188	10.6085	40.4369	5.1801	-5.4619	-4.8588	2.8497	12.2028	21.9129
3392.0000	-7.1706	-12.7281	-55.4811	-28.2655	-5.9606	-8.1607	-5.8768	-5.4787	1.7331	30.5616	-0.2140	-23.3299	-1.4965	-14.2705	-5.3330	-11.9616
3400.0000	-6.0262	-9.7947	-34.7421	-15.5853	-7.4372	-10.1283	-7.6112	-5.7306	-3.2831	24.3060	-5.7390	-33.4124	-0.5384	-19.4766	-7.1700	-18.6508
3408.0000	-4.9775	-2.7267	-30.2458	-7.0756	2.9697	6.6244	3.5687	-0.5173	12.9491	46.2344	6.7739	-6.0932	-9.0370	4.8663	15.6660	11.8845
3416.0000	6.3493	3.9165	-1.7254	-3.3688	6.0310	11.4952	6.4895	5.7910	15.2678	45.4792	15.5786	6.3615	-7.7459	9.8480	13.2511	13.4003
3424.0000	4.0663	5.7257	23.1389	4.3166	3.0705	8.1729	3.7155	5.3732	7.5233	27.5115	7.3064	-1.0414	-4.6010	9.3671	1.9652	-0.1375
3432.0000	9.6028	10.7452	16.3329	13.9181	9.1185	14.9324	11.6623	10.2705	14.4448	38.6546	14.8645	9.3931	-10.3235	29.9613	23.7277	19.2048
3440.0000	18.3330	13.2589	20.1250	17.1860	8.9970	13.3013	15.0626	13.7913	10.3723	26.2000	14.4441	11.5674	-7.3027	35.3915	24.1790	24.8974
3448.0000	14.5515	11.9029	46.3193	21.5006	3.7794	5.8448	5.7015	8.4826	-0.6918	-5.5219	4.6481	6.9256	0.4786	11.4208	3.6854	4.8872
3456.0000	23.6737	15.3556	53.2189	30.2414	6.2111	8.0547	5.7151	9.5999	1.6437	-6.2878	11.7968	16.9908	1.9133	-0.7862	8.8444	13.4712
3464.0000	4.8144	-2.7804	-40.0154	1.0918	-4.4405	-1.7125	-1.6100	1.9508	3.0506	17.1251	8.1863	-2.7123	3.4642	-3.8659	-12.6170	-3.0983
3472.0000	-10.7773	-11.8558	-43.0236	-5.9974	-13.6194	-12.6468	-10.8081	-8.6833	-9.3896	-3.8587	-13.0877	-25.5054	9.7111	-29.5067	-34.4428	-21.0955
3480.0000	-3.4914	-4.0573	-39.9857	2.4193	-3.5406	1.3899	-2.6801	-1.6306	6.6343	23.8014	6.0863	-1.5917	1.0709	-8.6574	-10.7983	-0.4747
3488.0000	-0.8090	-5.7393	-52.9289	-3.7319	-6.3536	-2.2146	-3.0289	0.6072	3.9508	20.9104	7.2667	-4.3368	3.7037	-2.0572	-19.5681	-7.8183
3496.0000	-13.6415	-16.2233	-52.7133	-13.7554	-19.0299	-18.9156	-13.8775	-10.4857	-15.2631	-7.5762	-19.8417	-39.2808	13.1600	-34.4048	-47.8481	-32.7540
3504.0000	-6.6579	-11.8256	-52.0785	-10.6197	-12.7079	-13.0425	-7.1039	-6.1810	-9.1466	0.0290	-11.8329	-27.0891	8.4204	-20.0931	-27.5581	-15.0962
3512.0000	5.9588	-3.7233	-35.2262	-4.3245	-6.6490	-5.1137	0.1400	2.5106	-2.6366	8.4941	0.9411	-11.1010	5.6432	-0.9447	-16.9476	-3.9707
3520.0000	6.9054	-5.8985	-34.1388	-12.4852	-6.9182	-8.6765	-0.5061	0.5662	-5.7345	5.2576	-2.8645	-17.6683	5.6479	-8.5676	-12.3032	-3.1838
3528.0000	4.8926	-6.9860	-40.8762	-17.7184	-5.3030	-9.3317	1.4816	0.4402	-5.5959	6.1139	-4.2800	-19.5937	2.4151	0.7160	-1.8131	0.1894
3536.0000	6.8871	-3.7332	-25.1060	-12.6994	-6.0109	-6.3974	2.2965	3.7126	-4.6116	12.1402	-2.5253	-20.4149	3.2031	5.6602	-11.2876	-5.5211
3544.0000	8.0155	-3.6688	-33.4610	-11.9416	-3.0631	-6.3828	2.4016	3.0782	-2.5952	11.9049	1.3372	-15.1475	0.4217	6.5382	2.6252	0.0184
3552.0000	3.7048	-0.8738	-36.9916	-3.7709	2.0468	0.8970	5.9405	4.0742	5.3935	22.9689	6.6086	-4.3670	-5.8755	21.5212	17.6327	10.2880
3560.0000	1.0177	-2.0893	-34.3279	-4.9454	-1.1180	2.3952	3.7764	3.1482	6.9146	33.4406	5.8489	-8.5986	-3.3485	11.4994	1.2041	4.2336
3568.0000	-4.0924	-11.3766	-61.0155	-19.9789	-5.2022	-10.1263	-2.7232	-5.0149	-2.5313	11.9579	-4.1013	-19.5713	-0.1256	-8.0722	3.2077	-1.0160
3576.0000	-3.6334	-9.7993	-65.5786	-18.1944	-0.4856	-4.6744	0.4913	-4.4887	4.6070	24.9133	1.7791	-11.2774	-4.9666	-4.0050	18.7022	12.0597
3584.0000	-3.5920	-10.2703	-56.1473	-22.8413	-1.2390	-4.8961	-2.7671	-5.0300	5.3322	30.6193	3.9798	-13.3585	-4.4685	-12.6938	12.1194	2.9977
3592.0000	-20.1329	-19.3496	-58.4302	-32.7003	-9.3064	-22.2495	-12.5386	-14.6839	-14.7939	-20.2776	-20.2857	-32.8553	1.0694	-18.3958	-0.5666	-23.6367
3600.0000	-16.9740	-14.6755	-59.7241	-20.1863	-7.1885	-13.1176	-5.4992	-10.3139	-7.4129	-4.3922	-15.6279	-24.2388	0.0096	-7.4535	-0.1543	-6.9703
3608.0000	-0.8224	-8.5227	-54.9261	-9.8194	-4.4766	-3.4846	-1.5093	-4.4386	4.1622	32.7926	0.5707	-17.5996	-0.0880	-21.0745	0.1366	8.0869
3616.0000	-1.2680	-4.8171	-26.7284	-4.1481	-3.0358	-2.9744	-1.2360	-3.2332	1.1732	23.2176	-2.6928	-18.7882	-1.3557	-14.1820	2.6271	2.4847
3624.0000	8.9943	3.9626	-17.1401	3.1639	4.6698	7.7415	8.1402	6.9752	10.9351	34.9797	12.9301	3.1675	-6.4481	18.2992	16.8806	16.2105
3632.0000	13.9158	1.8216	-28.3298	2.4285	1.4870	0.4360	3.1394	5.9663	5.4357	23.5258	14.0271	-0.5723	-2.1545	6.5084	11.4160	6.6618
3640.0000	2.8994	-0.3186	-0.3136	7.7477	-3.7409	-4.9988	-3.9938	-1.2308	-4.5506	2.8066	-2.9946	-15.7146	2.0425	-13.7996	-4.5876	-9.2493
3648.0000	9.9731	8.7811	27.9913	20.3616	3.7450	7.9865	2.2613	4.7404	6.5497	20.9870	9.2841	2.4599	-2.7052	-3.9554	6.4646	5.2873
3656.0000	12.9343	12.4564	32.1554	25.2161	8.4515	10.9358	4.6820	7.6717	9.5696	18.0507	15.9391	14.1150	-6.2970	10.2690	20.4100	9.8593
3664.0000	1.4884	9.7836	43.2056	20.6266	6.9418	8.8474	3.8836	3.4124	4.3618	2.9394	2.9230	8.0301	-6.2949	12.5645	16.8108	5.9821
3672.0000	10.1466	13.1774	53.8081	26.0190	6.6699	8.8479	4.0622	7.0180	3.3934	2.3566	7.3786	9.1841	-4.0399	11.2950	12.6315	3.0762
3680.0000	26.6007	23.6490	64.2372	45.7617	12.9763	17.2481	8.4039	16.7585	12.1607	14.3723	27.9533	29.6708	-6.5416	26.5056	23.9316	10.2749
3688.0000	26.4007	27.8290	75.5913	46.8745	20.9551	30.2077	15.0149	18.5134	25.1532	33.7527	36.8239	49.7334	-12.6584	32.7957	39.3845	32.8099
3696.0000	23.8548	24.0114	77.3753	30.8140	19.5367	26.7213	15.4259	16.5819	21.5356	32.2784	29.5943	39.7520	-12.5919	30.1857	38.4744	31.4455
3704.0000	21.6156	19.8074	64.6793	20.0829	15.4624	18.3835	14.6772	16.2128	13.1624	20.3328	21.2810	25.5113	-11.0031	39.2167	34.2898	21.0113
3712.0000	8.9704	11.4964	45.7142	9.8270	12.0476	13.0708	10.6245	6.9789	8.4447	3.2250	8.7960	22.5482	-7.8802	21.6226	29.0257	23.7974
3720.0000	1.1449	5.8261	47.0675	4.2052	8.1042	6.3368	2.6892	-1.1672	1.8412	-14.8041	-0.6187	16.6817	-3.5033	-4.6657	19.0147	14.3803
3728.0000	6.4807	6.8152	53.1095	6.2095	7.3910	4.3437	-1.3360	-0.5676	1.2591	-12.7494	4.5708	15.3186	-2.0815	-15.2562	15.5293	4.9801
3736.0000	12.2456	7.7526	45.1986	11.6977	5.9627	5.5634	-0.9809	1.0505	3.0538	-6.1707	8.8864	17.4649	0.9428	-22.3578	8.4854	8.7231
3744.0000	16.4820	13.4456	52.3775	21.1987	7.0838	11.1549	5.2261	8.4881	5.8880	0.6011	13.1800	22.0217	-0.0852	3.4927	5.3751	10.7592
3752.0000	19.3216	17.9645	57.5271	26.1096	10.2711	16.9256	9.4765	14.0001	11.0782	9.0188	20.7501	31.1761	-3.1139	24.0680	9.2597	13.0650
3760.0000	14.7568	12.8251	36.4725	23.5032	6.7805	13.8282	6.4826	8.8933	9.4186	4.6058	16.0148	29.0911	0.6658	7.2305	1.3402	16.0369
3768.0000	5.8906	7.7703	28.4614	17.9072	2.3580	6.9798	4.0701	4.4114	1.2405	-12.1630	2.7996	16.9428	3.0223	6.0612	-5.5785	8.8704
3776.0000	-1.6239	5.1064	35.1948	11.6821	0.4201	3.4769	0.9066	1.4649	-3.3582	-24.6717	-4.2445	12.5001	3.8618	5.9490	-11.9197	-1.8577
3784.0000	-8.2959	1.9361	34.1016	7.9800	-2.2403	3.7862	-2.8669	-2.4110	-2.3105	-19.4787	-7.0216	9.7103	5.7193	-8.2976	-24.4442	-7.0765
3792.0000	-8.8011	2.3984	32.6403	8.9139	-3.0238	4.6281	-0.8542	-0.8469	-1.7736	-9.7444	-8.5173	2.2896	4.3320	-1.0859	-25.1184	-7.6767
3800.0000	-5.1648	1.8340	19.0750	6.4978	-2.5525	4.1523	1.9869	0.4417	-0.9891	-3.6247	-7.3365	-0.1310	3.3567	2.5995	-18.3089	-0.1977
3808.0000	-6.0996	-1.7634	15.1888	-2.2211	-3.3783	0.0405	-1.1931	-3.3773	-3.5008	-8.3840	-10.0351	-3.8827	4.3317	-12.0217	-16.6185	-1.4865
3816.0000	-1.8348	2.2293	39.6405	1.4097	-2.2980	-1.9679	-2.8032	-0.1504	-7.7379	-23.4699	-7.9297	-1.2131	4.6266	-2.9134	-16.6908	-14.4284
3824.0000	0.8134	5.0199	36.9185	6.5000	0.4808	1.3581	-0.6396	2.8499	-4.2533	-24.6424	-1.0766	11.1854	3.4005	8.7804	-11.7098	-10.1016
3832.0000	-6.1152	-0.4443	20.5904	-0.2550	-0.3132	0.0005	-2.0162	-3.7642	-3.7817	-22.7547	-7.3919	7.5484	3.3034	-8.4311	-7.9115	-0.4828
3840.0000	-1.5263	3.3048	27.3308	6.6261	0.8134	3.8447	1.3484	0.0840	-1.1887	-14.8286	-3.8495	9.7008	2.6915	-0.8166	-7.7056	3.6185
3848.0000	2.4208	5.8450	17.9535	6.9141	3.2638	7.8514	5.2496	5.5292	4.3873	-1.9228	5.4353	16.5965	-0.3650	19.0339	-2.8657	5.8283
3856.0000	-5.4837	-3.5644	8.4177	-12.7146	-3.1762	-4.8344	-1.1207	-2.2745	-7.4460	-18.7119	-10.6905	-5.8568	3.3340	0.3761	-11.0840	-7.6039
3864.0000	-4.0878	-3.6696	20.2850	-14.2719	-5.5822	-7.2461	-0.5927	-2.4017	-12.7153	-27.2553	-17.6504	-12.9798	6.5363	-3.8934	-18.6819	-8.9569
3872.0000	-3.3390	-1.0059	18.4628	-12.8997	-0.3750	-0.7272	2.8302	0.0372	-4.4764	-12.9543	-8.8579	-1.8954	1.0756	7.7232	-4.9754	-0.0637
3880.0000	-10.2526	-6.6728	9.6390	-23.1992	-3.9817	-7.1682	-4.2378	-4.7947	-7.9976	-13.4498	-12.8079	-13.6739	1.6282	-4.3803	-11.7060	-16.6927
3888.0000	-13.2602	-8.0607	11.3292	-23.4626	-7.1519	-9.5179	-6.3661	-5.9028	-11.4429	-19.2363	-17.3543	-18.8085	4.3524	-7.1816	-23.0016	-24.5050
3896.0000	-18.1719	-7.7381	13.5036	-21.3956	-2.9765	-7.9623	-5.0972	-8.4294	-10.1948	-26.8086	-19.3024	-12.1155	0.1381	-2.6220	-5.6937	-15.4667
3904.0000	-21.0941	-9.4887	6.1451	-21.2515	-2.7934	-11.0009	-9.7121	-11.0379	-10.6068	-28.7730	-17.5012	-13.2160	-1.4247	-7.4893	-0.6716	-23.4247
3912.0000	-13.6262	-8.8592	-2.2283	-16.5283	-5.8795	-14.4135	-12.4297	-8.5243	-12.6468	-27.4255	-12.4439	-16.7797	2.2455	-12.0291	-10.1534	-32.7735
3920.0000	-3.0411	-3.7408	6.0593	-3.7591	-5.0390	-11.9296	-8.2531	-4.2387	-12.7137	-28.1327	-9.5921	-13.2221	4.4218	-11.0837	-8.8871	-22.3967
3928.0000	6.4816	6.6846	21.8887	15.0944	3.1265	3.1599	-0.0297	3.8284	1.2791	-5.3146	7.2879	10.2057	-0.6194	5.2869	4.1921	-2.4782
3936.0000	14.2742	12.5751	32.0468	24.2871	8.1995	9.8998	1.3029	8.3206	9.3046	7.6338	21.5552	24.7064	-3.7052	9.4505	13.0023	1.4432
3944.0000	16.4633	11.0536	26.7793	29.8978	3.4513	5.4513	-1.3431	6.3901	3.9249	0.4784	16.2828	16.2719	1.9253	-6.4317	1.1031	-0.9669
3952.0000	14.6825	10.7667	12.5317	34.7782	3.4449	10.1174	2.8372	6.0089	8.0324	7.8539	15.1983	21.1420	2.6218	-6.3721	-0.2846	15.2033
3960.0000	11.5258	9.7671	15.8929	25.6328	5.3246	11.8022	3.3662	5.5229	10.1307	7.3560	16.2036	27.2261	0.9960	-2.3617	1.8152	15.9999
3968.0000	7.7359	5.9817	16.8388	16.2669	-0.2886	6.0488	-0.6892	4.0870	3.8197	0.4661	9.5169	15.4677	5.2219	-6.7555	-17.1819	-0.9508
3976.0000	4.5456	0.6808	-0.3468	7.2337	-3.6082	-0.3811	-1.4225	0.5651	-2.1037	-8.4927	0.4638	4.6990	7.2789	-12.0664	-18.3283	-0.1739
3984.0000	-0.6843	-5.6852	-8.2431	-8.8367	-5.4792	-8.2254	-5.3240	-5.0314	-8.6536	-24.5498	-7.7422	-2.2288	8.5070	-22.6218	-16.5306	-5.0944
3992.0000	3.2057	-2.6996	-1.9896	-6.3786	-5.5848	-4.3151	-4.2181	-0.4856	-4.8451	-12.6367	-0.7527	1.2871	8.9064	-15.2946	-25.6015	-10.0000
4000.0000	14.4294	6.2028	9.9504	5.8773	0.4903	5.9608	6.2168	8.7085	3.2037	3.9137	9.5034	13.2479	4.6661	9.0205	-12.0607	8.5423
4008.0000	8.3413	4.9972	20.1326	-0.5709	3.2621	5.8732	8.8504	5.5561	1.3262	-3.5820	0.6641	10.3233	0.8524	12.5031	2.5511	17.2992
4016.0000	1.1107	3.0929	24.0583	-7.3112	5.6867	6.0046	8.1643	2.1679	2.4449	-0.8892	-2.7199	7.2858	-4.0282	13.0115	14.6029	17.7164
4024.0000	-0.0343	1.8242	15.0912	-13.2688	6.5995	4.4790	7.8884	2.6389	2.9237	0.8883	-0.5651	6.6502	-6.5482	21.5017	20.7341	13.9516
4032.0000	-12.3710	-8.2928	-0.4216	-26.6665	-2.1803	-9.7074	-2.3816	-6.2638	-10.0772	-21.3466	-16.6240	-15.1210	-1.1774	3.0268	3.2989	-10.0644
4040.0000	-13.2445	-7.3297	8.7934	-19.0885	-2.3404	-10.6467	-4.2084	-8.1130	-12.0008	-24.4343	-19.7160	-19.5865	-1.3591	-4.5914	5.8000	-11.5681
4048.0000	-10.5734	-0.3736	14.5774	-7.8713	4.1355	2.4209	4.7677	-1.8302	0.0033	-2.3277	-9.6253	-3.6351	-7.2981	18.4448	17.6799	7.0224
4056.0000	-20.2187	-7.9897	-6.9576	-17.7667	-1.5648	-4.2270	-0.3804	-7.7969	-4.6116	-5.0882	-18.6911	-17.2879	-4.6960	6.5927	5.9460	-2.8425
4064.0000	-13.1298	-8.2146	-10.0280	-15.5384	-3.8065	-9.6621	-4.3020	-7.6148	-8.7663	-10.6447	-16.3342	-22.0010	-1.4009	-5.2207	2.5886	-10.7622
4072.0000	-3.8036	1.2999	-0.8151	-3.7496	2.1485	3.8238	6.0365	3.6420	2.8133	8.5786	-0.8685	-0.7529	-4.9345	27.7328	6.5535	3.2487
4080.0000	-9.5641	-0.7996	-3.8756	-6.6693	1.3132	3.7562	6.6359	1.3290	2.0748	7.4744	-6.6842	-4.1120	-5.2362	27.7364	5.5032	5.8248
4088.0000	-9.8313	-8.9247	-15.7729	-14.7540	-5.3554	-10.9498	-4.7164	-8.0259	-10.2689	-16.6409	-16.3722	-19.3263	2.3959	-13.8186	-3.2471	-7.2581
4096.0000	-10.8540	-14.8190	-35.4367	-20.3285	-12.5270	-19.2986	-11.7319	-11.7757	-17.1425	-31.4201	-20.1418	-24.4128	10.7767	-33.0925	-25.4502	-20.1269
4104.0000	-11.9587	-12.7786	-32.2928	-13.1561	-12.7346	-15.7577	-10.8241	-10.1937	-14.8708	-29.2073	-18.3752	-19.3367	11.5150	-27.9339	-32.2810	-20.1905
4112.0000	1.5095	-3.0701	-14.9569	3.7256	-6.5691	-6.4881	-4.0027	-2.0101	-7.1309	-15.8399	-4.9960	-4.8268	8.4217	-14.5661	-19.5313	-6.1915
4120.0000	8.2238	0.1658	-20.2796	9.4839	-4.8596	-3.1961	1.8538	2.5676	-4.6355	-9.6674	-1.2351	-1.0235	7.6499	-2.2519	-13.7195	5.4687
4128.0000	-1.2779	-2.4988	-22.7334	6.9175	-5.7492	-1.8192	0.5758	-1.0937	-3.2261	-6.7516	-5.9921	-2.5962	6.8338	-5.4688	-17.9151	4.8657
4136.0000	-3.6522	-3.3261	-11.7090	0.6085	-5.0536	-2.0402	-2.2213	-2.7378	-2.5352	-3.2639	-5.4909	-4.4373	5.3130	-11.7451	-17.4918	-2.0191
4144.0000	-5.9489	-6.9702	-17.3020	-11.5534	-6.7063	-9.2239	-4.2005	-4.0035	-8.6451	-11.7429	-10.7954	-15.8118	4.4813	-6.8315	-14.3359	-12.5462
4152.0000	-14.5608	-10.5228	-27.0342	-11.8827	-9.4524	-11.5552	-8.3014	-8.1091	-10.4136	-18.5804	-15.2509	-17.2882	6.1135	-12.3189	-22.8391	-19.6123
4160.0000	-11.4598	-6.3642	-19.9905	-1.9088	-5.5800	-3.6544	-4.8425	-6.4680	-3.0945	-7.5803	-8.8651	-5.1734	4.3379	-13.5495	-16.5615	-5.2264
4168.0000	-12.1095	-6.6756	-24.3588	-12.5261	-3.0124	-2.0872	1.1822	-3.9100	-1.4605	-0.5864	-10.0384	-7.3073	-0.2221	6.4941	-4.8525	2.3059
4176.0000	-16.9768	-12.3765	-29.6192	-23.9771	-8.8515	-12.0491	-4.2859	-7.5129	-11.5755	-19.1518	-20.0770	-21.0097	4.2083	0.0568	-18.2063	-15.0639
4184.0000	-7.8649	-5.9274	-6.3174	-6.9089	-4.1384	-8.6146	-4.8692	-6.5671	-9.1175	-20.9584	-12.8491	-11.2261	3.0503	-12.2971	-4.5923	-7.5188
4192.0000	-2.4490	0.9310	1.9456	2.5802	4.1554	2.7880	0.3535	-1.5794	3.9080	3.3445	2.5569	5.9616	-4.5514	0.4882	15.4036	6.6569
4200.0000	1.7843	1.1308	-4.8055	2.3005	1.1555	2.7721	0.4459	1.5332	4.3372	10.9856	6.0198	3.7659	-1.3710	1.7808	1.5023	1.3236
4208.0000	5.5827	4.5292	-5.1833	9.9581	4.3422	8.4722	5.8190	4.1053	9.3907	21.3991	9.6149	9.5757	-3.7882	8.1639	11.1839	16.6677
4216.0000	-2.3037	1.1493	-19.7411	5.2459	4.8054	8.1730	4.7648	0.7575	11.0056	22.3862	7.7091	10.3506	-6.1407	9.5552	15.9745	17.9170
4224.0000	2.9101	1.8241	-11.6930	9.4494	0.8846	2.2737	0.9604	1.7695	3.8361	10.6272	5.7999	2.2448	-1.3916	2.9322	4.4917	3.9985
4232.0000	13.2734	9.4757	-0.6030	17.6398	7.7565	10.6712	9.2343	9.3817	11.4382	24.8150	16.8652	14.3222	-6.7293	23.5210	22.8928	19.5455
4240.0000	6.0371	0.4997	-26.0997	1.0083	3.3165	2.0868	3.2903	2.4200	5.6705	9.0141	9.8500	10.1032	-2.5099	7.1949	14.5097	13.2395
4248.0000	-3.2282	-5.8617	-20.7496	-1.4062	-4.4174	-6.8788	-6.9814	-6.6573	-4.5284	-11.7796	-4.2465	-3.6922	5.1705	-25.8461	-8.3708	-4.0005
4256.0000	-10.2877	-2.5791	-6.9649	4.6291	-0.5493	2.4090	-3.4146	-5.6888	3.9953	10.6552	-2.6458	-2.0870	-1.7493	-13.6846	-0.9863	1.0600
4264.0000	-12.6242	-7.3395	-26.3375	-3.8218	-4.1499	-3.9062	-6.6953	-7.7073	-0.0768	6.3288	-5.5264	-10.2430	0.1682	-16.6141	-6.6205	-7.8259
4272.0000	-6.3658	-4.0996	-18.4569	1.2721	-3.0493	-0.7549	-3.6066	-4.7675	1.4053	7.1983	-2.5112	-4.2829	1.5907	-15.7466	-7.6253	-0.1984
4280.0000	-4.2998	0.4213	-6.1819	2.7554	0.4415	7.3311	5.3587	0.5941	6.4220	18.3228	-1.3697	1.2068	-1.6189	5.6574	-2.5099	13.7401
4288.0000	-3.8776	-3.4770	-17.7225	-4.5510	-5.4617	-3.6507	1.9954	0.4887	-4.7274	-0.0786	-8.9238	-14.0150	2.7154	9.7174	-13.0051	-3.5286
4296.0000	6.3092	6.2565	-3.2994	9.2149	3.6790	8.1668	8.5729	8.7630	8.1018	25.3606	9.5253	3.0548	-5.5762	30.2834	9.4813	8.7289
4304.0000	12.2290	11.5687	1.1467	12.3774	12.4312	19.5986	16.2234	12.7455	21.1079	51.0878	22.0010	18.6655	-13.3204	39.8525	33.6815	32.2807
4312.0000	-7.2810	-8.8112	-47.2006	-21.0390	-2.0631	-3.8554	1.8711	-2.8220	1.5782	16.4197	-3.7906	-12.4006	-3.2682	7.0855	6.2623	4.9977
4320.0000	-29.7441	-24.4774	-69.0984	-45.8352	-13.0998	-20.6223	-12.2158	-17.1155	-12.7873	-8.1463	-26.1791	-38.9428	2.5241	-20.3757	-17.6884	-25.1590
4328.0000	-21.8226	-17.9395	-35.1237	-32.2975	-10.5840	-18.0201	-11.8510	-14.8168	-13.3884	-10.9113	-23.9342	-36.8487	2.5650	-26.9624	-13.2490	-24.0116
4336.0000	1.8443	-2.5326	-11.9537	-0.4164	-3.5446	-5.8324	-3.2825	-1.4222	-3.7782	4.9830	-2.3603	-15.4051	1.1552	-10.0216	-2.1511	-7.8005
4344.0000	14.8367	8.1817	-19.5843	19.4263	6.8961	10.6821	7.4447	9.1030	14.7082	35.9067	22.5048	14.9072	-6.4432	17.2248	21.5574	19.4525
4352.0000	6.0109	-0.8416	-53.7633	-4.0120	5.6075	4.9793	6.5133	4.1969	12.7031	28.0100	17.2055	13.7212	-6.9457	19.3381	25.1443	21.3355
4360.0000	-10.5383	-16.7959	-76.2338	-34.4204	-8.7655	-17.6157	-7.4064	-6.5506	-8.3219	-4.4156	-7.0252	-22.1524	1.9479	0.1833	-6.9917	-19.6246
4368.0000	-5.6054	-10.9880	-52.1882	-11.0848	-10.8329	-18.0600	-11.1109	-4.6740	-11.3928	-4.3424	-6.4101	-30.4073	3.9079	-7.4910	-14.6259	-32.4980
4376.0000	7.9182	-0.0416	-42.5013	14.4646	-3.1871	-2.4550	-0.1164	2.9760	1.8896	17.0585	7.8152	-7.2964	1.1564	1.0832	0.1787	1.2771
4384.0000	14.3824	1.3423	-49.2774	11.4123	-0.1071	3.0200	5.9653	5.5782	7.7709	27.1672	13.4128	3.3347	0.7181	2.5989	6.6500	21.0525
4392.0000	18.6981	1.2122	-49.6473	10.9648	1.1571	0.8709	2.6123	4.3946	7.9462	26.0943	18.3449	5.6642	0.5511	-9.4542	13.1707	19.1242
4400.0000	10.8103	-6.7109	-66.1847	-0.1848	-4.0457	-7.6952	-5.3398	-3.1018	1.6353	12.1502	10.6362	-2.2881	4.9585	-30.8130	1.6458	7.4446
4408.0000	8.0630	-6.1607	-58.9560	0.9474	-5.4014	-7.2651	-4.6604	-2.2908	0.3862	13.5930	6.9921	-7.8634	4.8859	-24.4989	-4.1113	2.6603
4416.0000	14.8318	2.9871	-48.6008	13.1155	0.4440	5.5538	7.1699	8.2626	10.9984	40.7885	17.1605	1.0333	-1.7407	11.7508	6.8295	17.6771
4424.0000	7.0253	-3.7645	-59.3785	-4.0228	-4.2947	0.8287	4.8297	4.3990	6.9856	39.1793	8.1894	-10.4605	0.7953	5.5103	-6.6142	10.0503
4432.0000	6.6402	-7.4385	-52.2900	-16.6090	-6.2307	-7.3596	-4.7956	0.9528	1.9242	30.0986	9.6387	-16.5867	2.1743	-11.4006	-11.2451	-13.3307
4440.0000	14.6725	-2.8241	-47.7774	-12.6249	-2.7110	-4.2775	-1.6153	6.6473	5.5710	37.6877	19.1431	-10.0786	-0.7233	3.1606	-2.0113	-11.6187
4448.0000	13.4589	0.2987	-22.8953	-5.6184	-2.2684	-0.6955	4.3854	6.9645	3.3136	36.5337	7.9941	-17.6679	-1.1556	6.0499	-0.1511	0.8168
4456.0000	14.6387	5.1954	3.1914	-6.0206	5.0260	6.8306	5.9762	9.3089	11.0407	45.3752	17.5678	-3.1316	-7.4222	13.8557	14.5561	3.6804
4464.0000	9.3332	2.1040	-2.9757	-16.7572	6.7632	4.6567	0.4603	6.5463	12.3018	36.4701	22.8989	7.5875	-8.9055	12.9754	17.3827	-6.9567
4472.0000	9.3230	6.0952	32.9967	0.8083	7.5008	4.0170	-0.5312	3.0087	6.1312	19.6407	12.1555	1.3835	-7.9610	-3.4640	23.7050	-2.2239
4480.0000	15.5903	13.1444	47.7017	9.0987	14.8138	12.3547	6.3752	8.6448	13.2291	27.4277	21.2399	16.0982	-13.6007	15.7377	42.6687	12.0646
4488.0000	2.4608	3.7300	12.4165	-7.3310	8.8217	1.7790	1.0094	4.0459	4.6668	1.8292	12.1811	11.4429	-10.0946	25.6159	29.4402	-5.5482
4496.0000	-3.0858	2.1093	27.4251	5.5455	3.2859	-5.4652	-6.2069	-2.8000	-5.8938	-18.4816	-2.4077	-4.8156	-4.9919	0.1793	18.5756	-16.6590
4504.0000	-0.3348	6.2130	53.6183	11.2636	7.7610	2.8929	-4.7801	-3.3246	1.5403	-3.4446	2.3190	3.5133	-7.2555	-15.2024	24.8794	-4.3554
4512.0000	1.2911	9.8552	64.9775	10.8778	11.0559	10.4556	1.4618	0.8677	6.5520	-1.3269	6.0675	17.9552	-8.0387	0.0864	24.3967	6.7540
4520.0000	13.7252	14.8237	54.8419	15.5047	11.8151	14.7737	10.6962	10.8059	9.2787	5.1510	13.9777	25.9683	-6.5651	26.7606	21.9681	17.9257
4528.0000	6.2735	3.0091	15.7667	-5.4625	3.7157	1.4537	4.7075	3.6830	-0.6747	-9.0391	1.7942	8.0956	-1.0374	11.8546	9.1193	7.2727
4536.0000	-3.3002	1.3958	31.2409	5.0945	0.4966	-2.3435	-2.7101	-3.6638	-6.6938	-24.5161	-9.1155	-0.2555	1.4918	-9.8645	1.2471	-3.2398
4544.0000	5.6623	14.3107	60.7205	29.5887	6.9355	15.6323	5.5062	6.8223	8.0566	3.0371	8.1878	22.3388	-1.9431	10.5318	0.4458	9.2176
4552.0000	0.7353	10.1918	38.5969	17.6278	5.7466	14.7241	7.8398	6.5385	8.5499	5.5751	5.6183	20.8044	-2.5638	21.7407	-1.1067	11.8645
4560.0000	-2.1518	3.7921	14.9172	11.8648	1.9022	4.7877	3.4654	0.7643	0.6140	-9.3384	-2.9845	8.7964	0.0570	7.6268	1.0041	9.0214
4568.0000	-1.7876	-0.3447	9.7432	2.4280	-2.6165	-0.8671	-1.3544	-1.6801	-4.3106	-19.6111	-5.5616	5.5426	6.0113	-8.0925	-15.2401	-0.6811
4576.0000	-8.7409	-2.9106	25.2913	-1.3604	-4.9789	-5.9681	-6.4624	-6.5246	-11.5068	-40.1423	-15.1960	0.3426	8.5065	-18.6366	-22.3743	-12.0331
4584.0000	2.9829	8.2763	50.8100	25.3861	3.3367	5.5187	-2.9820	-1.3008	-0.5213	-21.4349	0.9198	17.4331	3.1698	-18.9796	-2.2742	2.7289
4592.0000	13.8061	15.7189	57.5907	28.5839	10.5416	17.3442	5.3003	7.8341	12.2824	4.7980	18.6409	35.8527	-2.1805	2.3098	9.7064	17.1135
4600.0000	-2.2271	6.8919	35.3445	5.3443	6.5700	9.3517	6.0632	4.0701	4.0064	-11.5448	2.1277	21.3718	-3.3975	24.4128	6.7663	8.0851
4608.0000	-16.3736	-1.6670	19.3521	0.8377	-0.7735	1.0138	-2.0589	-5.5740	-3.2194	-18.2994	-12.9124	1.1704	-0.0258	1.3463	-7.3393	-4.8876
4616.0000	-4.7440	3.8616	36.6411	9.0894	2.8564	7.6856	-1.5987	-2.3737	4.6630	2.6287	0.0537	9.3599	-0.8972	-13.3106	-3.3403	1.9353
4624.0000	6.3620	8.4877	42.4518	3.6797	9.5338	11.6132	3.6979	4.3699	9.8123	6.3829	13.1641	24.9005	-5.0378	5.3442	14.3143	10.0821
4632.0000	7.9617	9.9591	56.8166	5.0300	9.5584	9.5008	2.2578	4.9825	6.1143	-5.1392	12.0253	24.8315	-4.1229	6.4283	13.4407	3.2636
4640.0000	21.9867	19.7540	76.9000	23.0486	14.0215	16.7598	11.2550	13.7205	9.6958	4.6418	18.7141	29.9749	-6.3739	23.5431	25.2436	18.6291
4648.0000	26.9736	18.5617	50.3954	21.8978	13.2788	14.0991	15.1164	16.0044	8.1441	2.6791	19.1785	28.6895	-5.5784	33.6725	30.7055	27.4440
4656.0000	21.4932	12.8696	41.8980	20.2114	6.0243	3.7517	4.9203	10.0763	-1.5333	-19.3598	11.7242	19.3946	1.6130	12.7635	10.4798	6.0382
4664.0000	20.2602	14.0594	41.3329	25.7913	6.3024	6.7536	5.9978	10.6180	1.0250	-14.1410	12.7647	21.8715	1.2121	15.0077	8.8577	8.9690
4672.0000	10.9686	9.0677	29.8654	16.9369	5.9044	6.4204	5.6749	5.1227	2.2653	-5.9222	5.6261	13.9876	-1.3342	6.8046	13.7977	14.8646
4680.0000	12.5403	9.4108	44.7704	13.6095	5.6587	4.8315	1.4814	4.7828	1.5044	-3.8881	8.1652	10.8669	-1.2636	-2.1188	10.4230	2.7778
4688.0000	9.3309	3.1746	13.3881	-5.0091	2.4797	0.8189	0.9591	4.7279	0.7419	-4.2491	8.6762	10.3760	0.6979	5.8995	0.7958	-2.7170
4696.0000	-11.0059	-11.8140	-15.5718	-29.3550	-6.4517	-12.2029	-5.0448	-8.6861	-12.0556	-29.0011	-17.6798	-11.7174	6.1055	-15.4068	-13.8279	-8.3476
4704.0000	-12.0334	-9.2558	11.6915	-22.3709	-6.3956	-10.7050	-2.8509	-9.8290	-15.8547	-39.9331	-27.0835	-14.5613	7.6358	-20.3787	-15.3428	-1.9484
4712.0000	-10.0033	-4.6798	17.5286	-18.7083	-3.2624	-2.1889	3.1617	-3.9582	-8.5218	-26.5541	-19.6827	-3.2312	5.0759	0.3082	-15.4766	4.8714
4720.0000	-8.4893	-2.1869	15.9643	-16.6869	-0.6939	2.2919	3.6662	-0.5145	-1.6669	-8.9730	-9.4559	2.1606	1.1622	10.7781	-11.6618	1.3210
4728.0000	-7.7050	-4.5225	-2.3957	-16.9346	-1.8654	-0.7285	0.9374	-2.1053	-1.8815	-8.3907	-7.1046	1.2162	2.0109	3.5714	-10.7331	-0.2929
4736.0000	-23.2434	-15.3774	-9.4553	-27.2061	-10.4215	-15.6357	-12.7474	-15.2614	-16.1895	-40.0193	-26.1337	-17.8386	8.5226	-30.2954	-27.7761	-23.7953
4744.0000	-14.6022	-7.2021	24.8080	-12.3201	-5.9656	-11.4829	-16.1249	-10.9877	-12.0282	-33.8308	-12.5289	-8.7445	5.7831	-31.9549	-22.0110	-35.3511
4752.0000	-0.7896	-0.1411	10.4695	-3.2694	0.0216	-0.9381	-6.4784	-0.8676	0.4852	-7.1723	6.4395	9.2431	1.7054	-7.9926	-8.8684	-15.5293
4760.0000	-9.6479	-4.1228	1.7495	-6.0062	-4.3324	-5.0690	-3.5485	-3.9325	-7.3666	-21.7072	-11.0798	-4.3152	4.0234	-1.2632	-14.9857	-11.2455
4768.0000	-2.7722	4.2965	20.3936	9.3531	0.1926	3.4202	3.9247	3.3226	-1.9968	-10.8570	-4.7867	3.2484	0.3660	19.9656	-6.0762	-0.9595
4776.0000	0.1984	4.6283	7.0819	12.0791	1.3566	7.7230	6.8270	3.9148	3.8337	4.0716	-0.1781	7.9102	-0.0933	15.4306	-2.9891	12.7880
4784.0000	-6.6040	0.9485	21.5177	10.1502	-3.1435	1.7609	2.2633	-2.8002	-5.4613	-16.9302	-15.4815	-3.3266	4.9326	-5.9425	-14.5243	7.2077
4792.0000	-1.4475	5.5521	30.4790	11.0551	1.3082	7.4280	8.3725	2.7982	-0.9851	-12.0212	-8.9918	7.2493	1.7847	13.8243	-5.5546	15.7191
4800.0000	-10.6589	-0.2750	7.0210	-2.5463	1.5240	4.7004	8.2168	-0.9787	-0.3528	-5.8286	-13.3866	-0.4297	-2.7781	19.5952	4.9839	16.4633
4808.0000	-22.3582	-6.8822	-3.0902	-6.3328	-2.7922	-3.6908	-0.1846	-9.2748	-7.3206	-20.5071	-23.8077	-12.3911	-1.1812	3.1519	-0.0923	2.1344
4816.0000	-17.0510	-4.2398	2.8852	2.3028	-3.2969	-1.1097	-1.2451	-7.7916	-5.5529	-22.0997	-18.2823	-2.8026	2.8256	-5.9905	-10.1920	3.1731
4824.0000	-10.5957	2.4386	40.4400	8.9700	-0.2697	6.1291	0.1521	-3.7302	-0.8760	-11.5608	-11.5115	4.1915	2.1747	-8.5618	-13.5180	2.6999
4832.0000	-4.8805	5.1278	34.0702	3.6477	5.2143	10.9347	4.4419	1.6018	6.9905	5.0350	1.2830	14.4412	-3.7039	10.3059	2.0924	8.3042
4840.0000	-8.9331	-4.2986	-16.5857	-11.2609	0.5152	-0.1449	4.3317	-2.5928	-0.6347	-5.7905	-8.6074	-0.1575	-2.0175	12.0937	6.6366	11.5635
4848.0000	-13.0504	-7.2579	-5.7253	-4.8542	-7.3491	-9.3916	-2.5108	-8.0407	-13.2281	-25.8795	-24.2964	-20.8379	5.1182	-10.4280	-12.4435	-3.9585
4856.0000	1.7896	1.4740	13.4325	8.4887	-2.6040	-0.4550	-0.5146	-0.5517	-3.7184	-7.1996	-5.2581	-3.7989	4.3226	-10.6326	-10.5926	0.2152
4864.0000	10.2445	3.4384	17.0373	5.1707	0.9804	-0.3049	1.6176	1.8075	-2.2802	-3.5107	0.5325	-1.0176	1.8847	-9.6842	4.0445	6.6212
4872.0000	13.7138	6.6460	33.8075	12.2310	2.3272	-0.2868	0.7030	2.8629	-3.3954	-6.3909	1.9482	-1.4431	1.1250	-11.1513	8.3234	3.2237
4880.0000	24.3544	12.0359	20.4165	19.1265	7.5425	8.7617	6.0289	10.4775	9.1263	21.0296	21.4782	15.0236	-2.9419	3.8127	18.4654	14.8155
4888.0000	13.8528	0.5808	-12.3494	-1.0494	-0.4429	-4.7805	0.6747	3.1753	-2.4742	2.7387	5.5174	-5.4901	1.5346	-4.8841	6.9557	2.3764
4896.0000	-2.3335	-8.8805	-20.5491	-9.1305	-10.1026	-17.1731	-9.1861	-6.6831	-16.5651	-29.8039	-14.6833	-22.0442	9.3853	-23.3658	-18.6871	-19.5410
4904.0000	-0.6900	0.5060	5.7187	6.2414	-1.8966	-2.0873	-4.5595	-0.7493	-1.9470	-2.5954	0.5803	-3.4010	1.4015	-6.2880	-6.9582	-12.2692
4912.0000	-1.6465	2.6781	17.2439	4.6644	2.4780	1.1829	-3.6155	0.3937	2.6223	10.7837	4.9640	-3.5785	-5.2801	2.0634	7.8944	-13.3110
4920.0000	-0.5272	0.0755	6.6943	4.0424	-0.3363	-4.5294	-6.9296	-1.8393	-2.4274	-1.6475	2.2590	-6.7845	-1.5858	-8.0402	3.5662	-17.2230
4928.0000	6.6676	6.3484	17.0200	15.4634	3.1057	3.5778	-3.8066	3.6307	5.1020	9.6143	14.1384	8.4459	-2.3341	-0.8613	3.4646	-11.1470
4936.0000	3.8412	2.1328	0.0386	6.3700	0.8979	1.1634	-6.8118	1.5720	5.5771	13.3283	15.1401	6.7788	-1.0557	-7.2533	-3.2320	-16.4584
4944.0000	-6.9335	-5.9991	-27.2511	-3.3083	-3.7472	-5.5887	-9.5999	-5.2397	0.2283	4.9496	3.0019	-5.3203	0.7829	-15.5462	-7.6525	-17.5818
4952.0000	-10.3305	-3.9302	-15.0585	0.9931	-2.1728	-3.2248	-6.7450	-4.6882	-0.3055	-0.6967	-1.1890	-3.7686	-1.0029	-4.6345	-3.6355	-13.9403
4960.0000	0.4212	-2.3645	-11.1366	1.9570	-2.3932	-6.8392	-8.2468	-2.6628	-3.6132	-9.6041	3.3938	-1.6428	2.2796	-12.7503	-3.6049	-16.1671
4968.0000	0.8619	-1.7833	-12.6473	2.8441	-1.6343	-5.6468	-5.9887	-1.8897	-2.5112	-3.5419	2.8551	-4.3141	0.5728	-8.5935	1.2357	-11.6280
4976.0000	-6.8737	-0.5043	-14.3158	4.4279	0.5651	1.7556	-0.1364	-0.1960	3.4333	8.0897	1.5913	0.1631	-3.7431	12.6927	3.8561	-2.8887
4984.0000	2.4464	2.5922	-13.5395	9.7307	2.0699	4.5578	-0.1096	2.9006	7.2724	11.9906	12.1740	11.9950	-1.7562	7.0301	2.1650	0.7425
4992.0000	4.5551	5.1137	1.3319	11.6917	3.3209	7.6891	-1.8528	4.4226	10.7166	19.4192	18.5122	16.9341	-2.2380	3.7366	-1.6011	-5.1666
5000.0000	0.7421	1.5209	-5.6859	8.2942	-1.0015	3.1223	-5.4015	1.6324	6.5355	16.5716	12.7152	6.5137	0.5608	-5.0274	-12.4243	-14.0719
5008.0000	11.4320	3.9792	-4.2751	18.0287	-0.7481	0.4734	-6.1980	2.5612	4.1065	12.8109	15.8313	5.0416	2.5650	-17.5075	-6.0084	-9.9401
5016.0000	14.6070	10.2336	6.9645	24.8039	5.3286	10.3594	1.2465	8.3851	12.6335	26.0688	24.1071	18.9037	-2.7078	4.6878	5.9518	3.1474
5024.0000	10.4839	7.0942	-4.7795	19.3204	1.5247	9.6405	4.5711	7.7271	10.0530	25.3842	15.0516	11.5071	0.2120	8.3230	-5.2372	8.6231
5032.0000	8.1022	4.1743	-5.0964	15.7575	-1.1236	4.3859	3.9336	4.4304	3.3059	14.2740	4.4400	-0.0857	2.1531	0.7587	-5.9074	9.0471
5040.0000	6.9325	5.8959	-9.8287	13.4245	3.4968	9.0700	6.1196	7.2167	10.0224	21.9990	13.4905	12.5158	-3.0093	19.0849	4.9550	10.9497
5048.0000	7.2498	1.8836	-17.7743	8.3755	-1.5646	2.6189	-1.1400	4.2789	5.6838	17.2635	12.9081	5.6465	2.2233	-0.5824	-10.8934	-4.0655
5056.0000	-1.9419	-5.2075	-17.7963	-2.6682	-7.0971	-6.2168	-8.3218	-3.6018	-2.9397	5.5001	-0.7447	-12.3934	5.4249	-22.6039	-21.3373	-17.5895
5064.0000	-2.9912	-2.4645	-30.4680	-2.2293	-0.3959	3.7553	0.9786	0.2780	8.0504	24.5958	6.5155	1.5521	-2.1031	3.0981	-1.6423	4.4673
5072.0000	3.3103	-0.5152	-20.2260	-0.9536	-0.2330	3.0949	4.2479	2.0940	4.6367	16.0970	3.5199	0.8724	0.0350	2.9350	-0.3013	11.8712
5080.0000	-5.5935	-8.5817	-18.2938	-21.5894	-6.3906	-10.1122	-0.8843	-4.0094	-10.3048	-14.0443	-15.1988	-18.6270	4.2458	-3.3718	-10.7140	-5.4975
5088.0000	-8.5688	-10.8162	-49.1409	-28.9498	-3.8821	-8.7185	1.0317	-2.6423	-4.1476	-0.2773	-7.7744	-13.7977	-1.1805	14.8321	1.4498	-2.8154
5096.0000	-12.2819	-14.7834	-48.7757	-26.2765	-8.5735	-17.0149	-6.5551	-9.4300	-12.5234	-15.3411	-17.4465	-27.1630	3.0143	-11.2047	-5.3072	-12.9157
5104.0000	-19.4163	-16.9510	-28.7927	-21.4833	-13.2415	-22.1633	-10.9053	-15.9058	-22.2259	-36.7012	-34.0581	-39.8388	8.0297	-31.9741	-17.4313	-18.6295
5112.0000	-1.9716	-1.8848	-21.3843	0.5046	-0.3830	0.8406	3.9177	-0.6737	1.7518	10.6790	-3.3725	-6.1091	-1.7777	4.0386	6.4970	12.3044
5120.0000	3.1584	1.0049	-23.3129	1.8246	2.8321	4.5004	8.3207	3.3778	5.7305	17.3004	2.9861	1.2407	-4.2283	16.8900	15.3244	20.4089
5128.0000	-8.0870	-2.3978	-18.2868	-1.1271	0.6967	2.0454	8.9956	-1.8483	-0.3176	1.8164	-13.2865	-7.5102	-3.4916	15.8462	13.2513	23.6268
5136.0000	-0.4495	4.5851	-5.6989	4.7177	8.1621	14.3881	13.9143	4.2501	13.7550	31.0777	4.3521	10.2701	-9.5375	24.9932	25.6301	35.3135
5144.0000	-1.5930	-4.2434	-22.2054	-16.1448	1.8203	0.2250	1.3693	-1.3017	4.4521	12.1559	3.3553	1.7883	-3.1884	0.8818	9.5499	7.3514
5152.0000	-6.8765	-11.2874	-38.7443	-23.6261	-5.2006	-11.1852	-5.5322	-6.9413	-6.7143	-13.4484	-7.5105	-8.9160	3.6916	-13.3831	-5.9184	-6.6797
5160.0000	-4.9003	-8.2545	-33.3374	-16.8221	-2.4452	-6.7550	-0.2948	-5.2947	-3.7114	-3.8127	-8.1185	-9.7012	0.4768	-7.3378	5.3442	6.7467
5168.0000	-11.0414	-11.2147	-30.8723	-19.5399	-4.7985	-12.3713	-3.0142	-9.2110	-10.1817	-13.5863	-18.3959	-23.1872	0.3589	-11.3908	6.0676	-0.6014
5176.0000	-1.3394	-4.6345	-25.8219	-6.5427	-3.2945	-6.8522	-0.8175	-1.5052	-4.6580	-1.1554	-5.0155	-13.4879	0.3734	1.7817	1.6075	-3.3437
5184.0000	4.4613	-5.1289	-40.9360	-10.3672	-3.9489	-5.7906	1.2404	1.0260	-1.3987	13.6715	0.4202	-14.2941	1.0284	1.2960	-0.5714	1.3318
5192.0000	-7.2308	-13.4929	-54.2781	-28.1654	-5.5282	-12.9003	-2.1877	-7.3588	-6.8842	1.3992	-12.1338	-24.5280	0.0461	-9.4999	5.5725	0.4407
5200.0000	-1.6218	-7.2291	-39.8011	-20.1564	-0.0125	-8.9831	-1.8187	-1.9800	-2.3636	1.7017	0.9057	-9.8327	-4.2578	8.0029	17.2593	-4.9834
5208.0000	-3.1614	-10.5791	-55.2334	-21.0645	-4.1398	-15.1450	-5.2542	-3.9056	-7.4334	-4.7656	-3.1287	-19.1667	-1.4907	3.1252	10.3498	-13.5822
5216.0000	-18.5817	-22.0037	-73.8585	-41.5625	-9.3491	-21.6606	-9.8498	-15.3109	-12.6586	-12.2474	-20.3191	-32.9964	1.4290	-22.9249	1.4252	-12.2411
5224.0000	-22.3205	-23.9149	-59.4607	-46.0972	-11.0784	-23.9170	-16.7313	-19.1315	-14.3920	-16.8328	-21.3101	-34.3948	3.5519	-41.2675	-8.9576	-26.0202
5232.0000	-17.6440	-19.8116	-56.6494	-29.3077	-11.3603	-22.0119	-15.7110	-16.5425	-13.8312	-13.7917	-18.8156	-34.4870	4.3723	-39.6504	-9.9216	-24.2565
5240.0000	-8.9976	-10.9688	-60.7541	-21.2264	-2.0024	-5.2859	0.9923	-5.4066	2.0594	19.4168	-4.7550	-15.2905	-4.4106	0.9089	12.9220	9.1192
5248.0000	-13.0990	-12.2105	-57.9322	-26.0369	-5.3213	-8.2560	-0.8095	-4.2676	-1.5491	18.1162	-8.3146	-24.7518	-3.7439	11.1444	1.0852	-7.4529
5256.0000	-10.3358	-13.4348	-59.0414	-16.8833	-11.5074	-16.0350	-7.6237	-6.4731	-10.2847	0.3380	-12.6645	-32.9123	3.9270	-7.7200	-16.2366	-21.5007
5264.0000	5.2366	-7.0879	-65.4737	-12.8315	-3.6552	-6.6313	0.6656	1.1789	1.2820	18.4182	6.1450	-10.0771	0.2869	3.8136	3.2832	2.8383
5272.0000	-6.9415	-12.6708	-71.1876	-19.7927	-7.6303	-11.5081	-4.9760	-4.5695	-2.4672	17.4686	-2.9694	-24.3213	0.0576	-3.5959	-4.5828	-11.6570
5280.0000	-10.0568	-12.1145	-60.8426	-13.5579	-8.5170	-9.5093	-7.3910	-6.7234	-1.2369	21.8514	-4.4104	-25.7609	0.8297	-15.2607	-11.0175	-14.0030
5288.0000	4.8711	-5.1627	-48.3575	-14.4204	-0.1956	-1.1310	-1.2426	0.9488	8.8096	38.9260	13.8570	-6.6106	-3.9781	-4.4770	7.8973	0.1872
5296.0000	-4.1839	-9.2117	-45.2897	-18.3948	-4.1734	-8.2531	-6.1495	-3.8264	0.5889	23.8131	1.9970	-20.6913	-2.6660	-9.0010	1.4996	-14.3267
5304.0000	-4.3076	-5.5993	-36.5988	-6.3931	-2.8385	-4.0049	-2.3931	-2.2835	1.6298	20.6354	0.2878	-15.5109	-2.8145	-1.4738	3.0061	-5.3525
5312.0000	6.4043	0.8388	-20.3455	1.3435	2.5368	0.2945	0.4375	2.7977	5.2821	19.3060	11.1568	-0.4911	-4.5528	5.5251	14.9479	1.3126
5320.0000	2.5606	1.9931	5.7951	4.5456	3.3235	0.7405	-3.2926	-0.3020	3.0621	2.5972	8.0770	6.5694	-2.8266	-5.4770	10.6241	-3.5486
5328.0000	2.5919	5.9121	25.9374	6.9350	6.7623	9.3140	2.5470	1.9798	8.0277	5.0014	8.8212	19.4059	-3.5267	1.5137	10.4025	10.4702
5336.0000	4.3067	3.8049	23.5669	0.5829	2.0154	3.3538	1.2374	2.9913	1.3228	-0.9971	3.7140	6.9228	0.2344	2.5900	-2.2719	-1.0669
5344.0000	0.4345	1.5854	25.2996	-1.4093	-2.0139	-0.4255	-2.6573	1.2343	-3.3137	-10.3858	-1.0942	1.6554	3.9295	-2.3917	-17.0749	-13.4762
5352.0000	-4.3744	3.2411	36.3482	3.0335	0.4430	5.5326	-0.6853	0.1255	0.9511	-7.1833	-1.9520	9.2391	2.0920	-1.9147	-14.8855	-5.0651
5360.0000	-3.7198	2.9021	43.9106	5.4225	-1.1367	2.1145	-2.1891	-1.6826	-3.7999	-14.2057	-7.7024	0.8700	3.5917	-10.8818	-15.2616	-7.1101
5368.0000	3.4973	7.3006	53.0322	9.2532	2.1015	4.8302	0.7889	3.0405	-1.4114	-10.4993	-0.7220	6.7349	1.4201	0.3516	-7.0851	-4.6150
5376.0000	0.2505	6.1816	45.0943	3.5276	2.4857	5.2839	0.3622	3.9591	0.8595	-5.0861	2.4653	8.2899	-0.7194	10.8245	-7.3475	-10.7005
5384.0000	-6.6868	-2.0811	25.4531	-8.0701	-4.3546	-4.3543	-6.3216	-2.6186	-7.1150	-17.2419	-7.7700	-5.6536	4.5698	-7.9511	-22.1339	-22.5312
5392.0000	-1.6391	1.2697	34.5673	4.9605	-2.6596	-2.3531	-5.8962	-2.8157	-6.3891	-19.7067	-6.1157	-1.0093	5.3443	-18.3816	-16.4003	-13.5460
5400.0000	6.9899	9.2652	56.4199	24.0386	0.9429	5.4890	-3.3864	1.6942	-1.0285	-16.1723	3.2662	14.3466	5.8518	-18.4804	-15.4925	-5.3641
5408.0000	11.2144	11.1685	57.0215	21.0241	2.6021	10.4963	1.8001	5.4420	2.9872	-11.1724	7.5254	24.3546	6.4931	-9.8667	-17.7392	5.1782
5416.0000	7.3496	10.1215	44.9223	16.8014	4.4543	11.3521	6.8107	5.9374	4.2326	-3.9900	3.8098	18.8519	1.4290	7.2715	-3.7627	13.8604
5424.0000	7.3075	10.2712	43.1657	21.3622	1.9106	8.8823	6.0407	6.6904	1.0891	-4.7307	0.9761	10.2683	2.4555	10.3431	-8.8432	7.0122
5432.0000	16.8148	15.3917	56.6478	30.3722	2.7466	12.6521	8.7981	11.5122	3.0093	0.1512	6.7627	15.3046	4.2763	11.3464	-12.6715	11.0176
5440.0000	11.9851	14.8210	58.3948	31.5425	4.6316	13.2692	7.2030	8.6995	4.6815	3.0529	6.0126	14.5895	0.8260	8.2529	-3.4018	11.2878
5448.0000	1.4036	9.1785	52.0651	19.3532	2.7996	10.2943	-0.7256	3.1337	5.0974	1.9913	5.8289	14.4948	0.8013	-3.2980	-11.9998	-4.9821
5456.0000	6.9448	12.0591	56.7323	20.4942	5.0767	13.7498	0.6309	6.5997	9.4180	11.2790	14.1384	21.2666	-0.4457	0.7872	-9.6958	-3.8170
5464.0000	8.0189	11.9816	45.5959	23.5457	6.5372	12.7890	4.1262	6.2985	8.2581	7.8468	11.0436	19.4141	-2.2957	6.2294	4.1295	8.1552
5472.0000	-0.1268	5.7065	33.1818	11.7480	3.8382	7.0039	0.5419	0.6631	3.2752	-6.9893	2.7484	15.5982	-0.2171	-1.9758	-0.0206	4.1364
5480.0000	-2.5097	6.3206	50.3540	12.3143	3.7461	5.7094	-1.7642	-0.5406	0.7628	-11.0403	-0.5656	10.5065	-0.9833	-4.7426	-0.2667	-3.9701
5488.0000	3.5319	14.2916	68.7788	26.5655	9.5245	13.9492	4.9496	5.4068	6.4547	-3.5377	6.2471	21.2521	-5.4443	13.9520	13.6135	7.9905
5496.0000	15.4240	21.7197	66.9988	35.7345	15.3176	23.3890	13.3836	14.6030	15.5409	6.3611	21.8907	43.8782	-7.4545	37.6241	22.4353	24.4779
5504.0000	11.9828	14.8701	46.5944	26.3425	9.5316	14.1121	9.9419	9.7857	7.5282	-1.0861	11.1296	25.7115	-3.9044	24.3545	15.8303	18.9365
5512.0000	2.6334	4.5631	28.0789	9.5217	3.0663	3.9123	3.8591	0.1838	-0.5058	-5.2708	-4.4125	2.1727	-0.8729	-3.2941	8.6986	12.9098
5520.0000	4.9556	4.3584	22.9889	4.1302	3.9775	5.1104	2.1813	1.6240	3.1761	-0.7967	4.2397	11.3099	-0.6361	-3.2788	5.5087	8.6290
5528.0000	-2.8960	0.6142	24.2249	-3.8664	0.8931	-0.8060	-1.8224	-1.3644	-3.3989	-16.4227	-3.7922	3.9204	0.7178	-1.3031	-2.1775	-6.0983
5536.0000	-0.3719	1.9778	33.7514	-7.6036	3.4037	0.6185	2.6187	-0.0739	-3.1900	-12.4066	-6.1004	0.5298	-2.1701	4.2261	9.1833	2.9566
5544.0000	10.6489	5.2469	21.2425	-8.9255	7.7001	5.6338	8.1351	6.2726	4.4101	2.7818	7.9537	13.5317	-4.5946	17.1021	19.9256	15.2079
5552.0000	-5.2307	-4.8348	0.0126	-18.9234	0.2848	-5.9262	-1.7734	-3.5946	-5.5380	-18.6653	-6.6444	-1.3912	-0.4621	0.8766	5.3162	-4.2883
5560.0000	-11.8071	-6.3998	13.3457	-12.4586	-1.8555	-9.8668	-9.1099	-9.8453	-10.0868	-28.3321	-13.6365	-9.5810	0.7501	-20.2128	1.7387	-15.3295
5568.0000	-8.9081	-2.7143	25.7295	-6.2127	-0.8227	-4.3122	-8.5431	-6.8733	-5.1276	-17.6981	-6.8486	-2.4802	0.9459	-19.6285	-4.9614	-16.3366
5576.0000	-14.9332	-3.0511	24.0984	-5.6845	-2.5265	-1.5196	-5.9962	-6.1273	-4.0360	-11.8114	-11.1802	-5.7419	0.7934	-8.8372	-13.7737	-16.3935
5584.0000	-5.2722	2.9191	15.9275	6.2987	1.3065	4.3715	3.4083	1.4286	0.9745	0.7517	-4.1622	-0.0822	-2.6084	15.2022	0.6756	1.3328
5592.0000	3.5860	6.4514	17.3775	11.2894	1.1552	6.5122	8.5216	6.8451	1.0277	1.7608	-1.4070	2.9254	-0.2746	24.5872	-3.0172	8.6227
5600.0000	12.1660	12.9647	41.4315	25.0437	3.7564	12.8694	8.9960	10.1487	5.8035	8.5937	7.5083	13.9092	0.7604	16.3558	-5.1810	12.4703
5608.0000	16.8065	14.8837	23.3137	28.9484	8.6461	17.2581	10.5929	12.4920	14.2034	20.1468	21.1970	29.3449	-3.1663	22.8932	10.1020	22.0821
5616.0000	-0.6422	1.7739	1.2180	5.6860	-0.7690	1.9913	3.0383	2.2915	-0.8806	-7.9152	-1.9547	5.0976	2.0347	11.8778	-7.0660	2.9294
5624.0000	2.7726	1.1833	18.6828	9.3482	-6.0637	-5.0731	-1.9851	-0.0663	-10.7468	-23.9228	-10.5315	-8.2846	8.7485	-9.7519	-21.8610	-8.4943
5632.0000	15.6615	6.2816	5.1018	14.8651	-0.8927	2.1001	4.7635	7.3777	-0.9751	-3.0239	5.9027	6.1144	5.4772	4.3093	-8.1259	7.8505
5640.0000	5.1087	2.4136	7.6365	0.8537	0.7878	2.4605	5.0274	3.0171	-0.1808	-1.9371	-0.8573	3.1454	1.3336	5.7045	-0.3843	10.0460
5648.0000	0.8071	0.5751	23.8965	-0.1379	-0.0440	-0.8647	-0.6551	-2.6773	-4.4441	-16.2925	-6.8267	1.3210	3.2941	-15.2193	-2.7959	4.2123
5656.0000	-0.3104	-2.4332	1.1001	-7.6121	-2.7447	-4.7926	0.9872	-1.0534	-7.5570	-20.5786	-9.1789	-3.2670	4.4283	-0.1877	-7.0935	0.9254
5664.0000	-2.6701	-1.0109	6.1801	-10.4794	-0.1800	-1.9356	5.0816	1.1902	-5.3586	-13.2922	-9.7160	-4.7615	-0.3347	17.8139	1.9311	3.4458
5672.0000	1.6479	0.6221	3.7373	-2.9822	2.7638	1.7966	3.9764	-0.0232	0.1791	-8.8832	-1.5812	8.4162	-0.1812	2.2631	8.3673	14.1207
5680.0000	-4.6370	-6.7621	-15.2083	-12.8658	-3.3698	-6.2906	-0.2926	-5.8827	-7.5359	-24.5305	-12.6409	-1.4716	5.5702	-12.9075	-5.4526	8.8658
5688.0000	-14.4763	-9.1831	6.0326	-17.6702	-5.8769	-9.5489	-4.3243	-10.6625	-13.3790	-35.1691	-24.5552	-12.6979	6.1980	-20.8760	-13.3771	-3.3221
5696.0000	-13.9378	-7.0663	5.6560	-10.5987	-5.2400	-6.1669	-4.7005	-8.9200	-9.1185	-24.2754	-18.7367	-9.4098	5.0234	-18.1221	-15.2226	-5.6835
5704.0000	-6.3127	-2.9338	-10.7843	-7.0570	-1.9888	-0.9947	2.6275	-0.5524	-2.1574	-4.1493	-7.2898	-4.1196	0.4132	11.5601	-4.7985	1.6627
5712.0000	-2.2549	-0.1217	-10.0245	-8.2295	2.4671	4.0065	6.5851	3.0095	3.6602	3.3232	0.9619	7.6781	-2.8382	23.3184	5.3992	10.2049
5720.0000	-7.3274	-4.1070	-2.6313	-7.0524	-4.0456	-2.6021	-1.5707	-3.4050	-4.3781	-12.2525	-9.1944	-2.9781	4.3157	-5.3068	-15.4911	-3.4883
5728.0000	-3.9841	1.9161	15.8577	6.8974	-0.6601	3.0882	0.3862	-0.1338	0.1670	-0.2110	-3.7314	-0.4941	0.5497	0.9669	-7.6269	-1.6315
5736.0000	5.1111	9.9360	6.3441	9.9579	10.6942	16.9456	13.4769	10.7998	16.1943	26.7861	16.6753	24.8179	-10.2424	44.7325	23.1478	23.0052
5744.0000	2.6917	3.6688	-2.7622	0.6269	2.2028	3.8484	9.0853	7.3433	1.4754	2.6355	1.2112	3.1948	-3.0439	36.2779	6.0145	7.4555
5752.0000	1.8979	1.1548	6.9278	3.4677	-1.5863	-3.5770	0.0847	1.4649	-5.4884	-8.6083	-4.2110	-8.1999	0.8696	6.2245	-1.0833	-6.5188
5760.0000	2.3415	2.1176	-15.3588	-0.1644	5.6920	6.0218	2.9041	3.5889	10.2951	19.7735	14.1749	13.0439	-6.6487	15.9098	16.8426	6.9589
5768.0000	-10.2710	-5.3890	-25.8395	-12.7026	-0.8055	-1.3282	-1.0800	-2.0802	2.2539	7.4360	-0.7245	-2.7666	-3.3195	11.5886	0.7434	-5.8752
5776.0000	-20.1497	-10.4964	-15.1681	-14.0786	-6.5078	-10.7006	-8.0112	-10.4613	-10.3118	-22.2578	-19.0454	-17.1781	2.0377	-9.3744	-10.9818	-17.5906
5784.0000	-15.7408	-8.9941	-22.6310	-10.9317	-4.8378	-10.5225	-6.8203	-8.2145	-8.7183	-18.4719	-13.8359	-14.9483	0.2614	-3.0148	-2.6271	-15.3484
5792.0000	-8.4744	-7.4888	-26.9419	-11.4138	-6.0571	-9.6865	-4.8939	-3.6942	-6.9800	-4.0923	-8.5179	-19.1369	1.0286	1.4681	-8.1288	-17.3274
5800.0000	-8.4989	-7.7489	-25.9289	-14.4866	-4.0109	-6.3812	-3.8002	-4.9487	-3.4320	-2.9513	-6.4463	-9.6002	1.1418	-5.5057	-5.8539	-7.3259
5808.0000	-12.3101	-8.9044	-25.4545	-14.5268	-2.1906	-9.1502	-5.4748	-8.2813	-6.1060	-16.7874	-9.9618	-8.0471	-0.7461	-6.7981	6.0896	-6.2480
5816.0000	-5.2911	-5.4246	-20.4001	-6.6042	-2.7850	-8.7434	-3.4927	-4.0897	-7.0301	-14.3660	-7.5000	-10.4107	0.3947	-0.7763	3.6289	-7.2254
5824.0000	8.0463	4.2606	-6.3244	3.6291	3.4191	5.0957	6.7745	6.7234	5.4377	12.3112	8.9060	7.7655	-2.8220	20.3443	9.1324	10.5720
5832.0000	11.2415	7.2690	1.9053	6.1791	8.4876	7.5280	7.4993	8.0451	9.4015	19.4702	15.6645	12.3853	-8.2721	24.6676	27.5494	13.5366
5840.0000	8.4065	1.7603	-15.2394	5.3827	3.7689	-1.9349	-0.3829	1.8492	2.4158	7.8709	9.9714	0.6969	-4.6562	2.4525	23.0484	2.8644
5848.0000	10.0719	2.2825	-24.0644	10.4077	1.4415	0.2253	-0.4227	3.7001	4.9577	16.2887	13.7680	2.7921	-1.8436	1.3932	10.0870	1.5700
5856.0000	12.9640	4.2619	-17.8186	10.0051	3.8927	3.1237	0.4492	5.5492	8.8453	26.6820	19.4137	5.7416	-4.3882	3.3981	15.5957	2.5958
5864.0000	5.0663	-0.8829	-17.0297	4.3905	0.3588	-3.8308	-4.9004	-1.3640	1.1602	8.4685	7.5573	-3.7500	-1.4858	-13.3084	10.2369	-4.4964
5872.0000	-2.1267	-2.7859	-23.2429	6.6523	-2.0812	-3.8879	-6.7732	-3.5923	0.3214	1.7829	3.8227	-1.7141	0.7844	-13.6898	-0.8734	-8.2408
5880.0000	5.6510	0.2498	-33.2597	11.7998	1.1228	1.9117	-3.2175	0.1984	8.3686	20.0608	15.3523	8.2298	-1.0922	-11.2204	6.4994	3.8651
5888.0000	10.3602	3.0048	-22.3656	15.7956	1.1703	4.3227	-0.2734	2.7787	8.5975	22.7641	15.3737	8.2801	0.2128	-10.3556	3.2722	8.7187
5896.0000	6.8548	3.2869	-20.7347	9.8723	1.3062	7.6108	2.7825	5.4681	10.5470	23.2544	15.7352	14.1713	-0.0151	6.9353	-4.3259	7.4476
5904.0000	-1.0120	-3.7072	-39.3382	-6.1765	0.5625	3.2255	0.8794	-0.5262	8.9624	21.8762	9.0949	7.3969	-1.5324	-1.6188	2.1191	9.8603
5912.0000	-5.4700	-8.0868	-31.5379	-9.9881	-3.3715	-5.9261	-4.2130	-7.3192	-1.5202	5.4934	-5.6823	-11.9878	0.9111	-22.6466	1.3274	2.5939
5920.0000	4.8025	-3.0843	-32.5579	-4.1812	-0.3291	-1.7242	2.0371	-0.4770	2.2037	12.9302	2.7095	-4.1897	-0.4685	-6.0232	8.9310	12.5913
5928.0000	6.9660	-1.6675	-41.2892	-4.2970	2.5147	1.9836	8.0431	2.3035	6.3584	25.0389	4.9875	-2.9887	-4.3433	7.7084	21.1967	25.5120
5936.0000	6.0552	-3.9709	-30.8811	-11.3298	-1.8910	-5.5338	3.3278	1.0884	-2.3884	10.2321	-1.7599	-14.7508	-0.5378	2.4993	8.4678	7.1539
5944.0000	12.0858	-4.7717	-37.4451	-19.2001	-2.8808	-9.1979	1.5232	3.4848	-4.7627	-0.9369	3.9618	-7.7116	2.9917	4.7208	1.7501	-0.3990
5952.0000	3.8947	-6.5328	-37.8221	-15.4186	-3.2151	-8.9135	-0.2183	-1.1344	-4.8296	-1.8371	-2.1279	-11.0935	1.8172	-2.8285	3.7593	1.5070
5960.0000	2.4867	-4.9177	-34.1843	-5.8952	-4.3501	-6.1091	-2.1655	-0.9181	-2.0523	7.2512	0.4694	-11.0587	2.3960	-7.1174	-4.6546	-3.4154
5968.0000	4.3357	-3.1010	-53.7005	-4.8650	-0.4482	0.7180	3.1648	3.2502	7.0881	22.2747	11.1410	3.5099	-1.2903	11.4805	3.9147	8.8495
5976.0000	-4.2529	-5.5481	-57.4161	-6.4255	-0.4198	-0.9094	2.2069	-0.3484	5.8028	22.0288	4.4506	-4.4200	-4.5994	13.6685	11.0769	7.2554
5984.0000	1.3774	-5.7938	-49.4046	-5.6573	-4.8644	-7.3087	-4.3052	0.0421	0.0719	18.6065	5.5340	-15.1855	-0.1243	-0.4906	-2.9579	-12.7314
5992.0000	0.9257	-6.1395	-50.6188	-6.8576	-5.0026	-6.8056	-1.6569	0.0027	-0.4240	19.9947	1.8343	-18.4467	-0.3578	1.5788	-1.2433	-6.3849
6000.0000	-6.6128	-7.8797	-49.2758	-7.3932	-3.0607	-4.8979	0.6832	-4.7818	0.0901	17.1496	-6.7690	-18.9931	-2.8417	-3.3324	9.7390	8.3456
6008.0000	-0.2178	-6.2702	-45.6653	-5.0091	-1.3019	-3.7733	-3.4101	-4.4140	3.6414	17.9770	4.4612	-6.3642	-1.3463	-17.3010	8.8625	5.3110
6016.0000	3.1428	-7.1499	-53.9496	-9.0086	-3.0900	-6.6727	-4.9846	-2.6188	2.3192	18.7051	7.8217	-8.5977	0.1861	-15.2403	3.3036	-2.9623
6024.0000	4.4786	-10.2780	-66.9694	-12.9262	-8.4549	-13.4879	-7.6621	-2.7559	-4.1405	10.9335	3.8451	-18.8840	4.9376	-18.3374	-10.0307	-13.6456
6032.0000	2.7237	-7.4475	-54.3826	-5.3010	-8.3113	-9.6381	-8.7374	-1.2154	-1.3488	15.5655	7.1535	-14.5975	4.8033	-14.9594	-17.8446	-20.3271
6040.0000	0.7759	-4.0688	-42.0623	-4.8312	-5.0631	-2.0764	-2.2372	2.4015	4.5991	34.5178	7.8304	-15.1941	-0.6796	3.6051	-11.2151	-12.8085
6048.0000	6.7079	-5.3496	-45.9874	-11.8840	-5.0642	-3.7856	-2.6352	2.1248	4.3740	35.3762	10.3603	-14.3136	1.1463	-7.9851	-10.2648	-8.7507
6056.0000	5.1448	-6.4449	-40.4399	-11.0555	-6.4996	-6.8343	-5.7556	-0.5621	0.1210	19.4630	6.4346	-13.0031	4.2764	-17.6376	-15.3513	-12.3965
6064.0000	1.6022	-6.5481	-39.1915	-11.5315	-6.2058	-9.3141	-1.8550	-0.3004	-5.5049	2.7751	-2.9219	-16.9893	3.1114	-0.0533	-7.9121	-8.4528
6072.0000	-1.0021	-3.6517	-17.4379	-5.6403	-0.6634	-6.2486	-4.4030	-2.6586	-2.3717	-1.7817	0.8109	-6.5252	-1.4750	-4.9076	7.8244	-7.9091
6080.0000	-2.6687	4.1120	26.5400	12.1458	3.4720	5.8862	-6.0434	-1.5902	7.9077	22.0444	8.9247	1.3923	-5.4045	-14.2516	5.0167	-11.1409
6088.0000	6.5393	10.3896	39.7107	21.5716	4.4439	13.2749	1.2548	5.6162	11.8913	33.3859	13.6664	7.0873	-3.9803	-2.7221	-1.3421	-0.4492
6096.0000	12.1719	12.0233	40.7343	16.9611	8.9010	12.8277	5.7120	7.8876	10.2210	12.9624	15.7694	21.7409	-4.5980	10.3117	13.9227	11.8008
6104.0000	8.1766	9.0033	42.7442	6.2870	6.3011	7.8330	5.7074	6.8248	3.6916	1.8132	6.5704	11.5500	-3.5152	16.0431	9.3652	4.9595
6112.0000	4.4680	8.2366	53.1520	8.8052	1.9250	6.1433	2.7607	5.4255	-0.1291	-0.9822	0.2252	2.5761	0.1117	8.4828	-7.9230	-5.8728
6120.0000	9.4645	13.9805	69.1416	19.1758	8.7870	13.0623	5.7892	7.3084	6.1286	0.6484	8.5403	19.5329	-3.7171	10.6395	9.7818	8.0904
6128.0000	12.3489	10.2843	47.4859	6.3664	7.8121	8.7984	11.1799	7.7056	2.2555	-1.6926	2.1249	10.6380	-3.5582	17.7187	17.9036	20.5369
6136.0000	3.3696	4.1809	44.4970	-3.8451	2.7111	1.4108	5.6337	1.9855	-5.5415	-17.6273	-9.2508	-0.2905	0.1625	6.4647	4.8668	7.5307
6144.0000	9.7072	13.4517	76.1057	9.4239	12.0265	13.2311	6.5422	6.5242	6.5812	-6.2390	9.5060	26.7811	-5.4685	11.2073	19.3118	12.5373
6152.0000	16.7116	14.4134	61.5802	7.2717	15.6774	15.7119	9.7397	8.9721	12.1368	5.8219	18.6779	34.1152	-8.3379	14.5649	33.5111	24.4391
6160.0000	2.3192	2.8453	36.5560	-5.7015	7.9300	1.8528	0.1900	-2.4419	0.3519	-14.9711	0.8767	12.7420	-4.2782	-8.8149	24.1596	9.5280
6168.0000	-0.9890	2.9766	40.5977	-4.5479	7.9309	2.9482	0.1929	-2.9906	0.6929	-14.8909	-0.9185	12.5269	-4.8825	-6.6918	22.7216	8.4249
6176.0000	-2.2815	3.0753	39.8988	-13.0957	8.2444	5.9784	3.9000	0.3683	3.3285	-7.4509	0.5913	14.7722	-6.0220	10.0007	17.8838	8.0371
6184.0000	-16.3090	-6.0731	34.2440	-28.6027	-1.0863	-5.0138	-5.5921	-6.8365	-7.7454	-25.0376	-14.6433	-4.5465	0.0446	-3.6812	-9.8755	-19.7982
6192.0000	-18.5869	-6.3082	32.8626	-15.6314	-3.9708	-5.9650	-9.0407	-10.1111	-9.4588	-27.3679	-18.4178	-8.8439	3.0654	-19.7864	-17.5385	-21.0068
6200.0000	-9.4368	2.4637	37.3014	9.3513	3.3556	5.0609	-3.2629	-5.5452	1.7077	-8.5932	-4.8490	7.8655	-2.0060	-14.7379	3.3899	1.1413
6208.0000	-5.7984	1.9424	29.1500	5.8950	1.9017	3.5870	-3.9173	-3.4597	1.8880	-2.4345	-0.9677	5.1811	-1.0631	-13.0016	-1.4834	-4.5341
6216.0000	-17.9731	-8.5235	10.6356	-12.5254	-7.1008	-8.7680	-11.2006	-10.8014	-9.7817	-20.4377	-17.3255	-15.5308	4.6485	-25.2668	-22.4210	-24.3288
6224.0000	-22.1784	-7.0818	26.8483	-8.3059	-7.4638	-8.8698	-10.7550	-10.9567	-13.3368	-32.0060	-23.7075	-17.3665	4.7750	-17.8999	-25.0974	-28.2904
6232.0000	-1.5997	5.3423	43.8518	7.9139	-2.1118	2.7918	0.7381	3.6805	-4.8514	-17.0325	-5.9000	2.4562	4.3967	11.0252	-22.5416	-12.8800
6240.0000	2.0322	4.8131	23.7700	9.0928	-1.1763	2.8755	3.8649	4.4003	-3.6336	-17.4685	-3.8506	7.1488	4.5724	13.8642	-14.9591	-0.1346
6248.0000	-9.0778	0.2950	23.3939	9.7709	-1.9274	-3.2017	-1.1456	-4.5733	-9.7409	-32.3587	-16.8806	-4.2162	2.8283	-1.8521	-4.1139	-1.7169
6256.0000	-1.9986	2.6901	31.0511	10.6270	-0.1131	-1.3573	-0.8730	-2.4406	-7.0798	-25.0450	-10.2334	-0.4966	2.5266	-6.8684	-1.0789	0.1786
6264.0000	-2.2407	-2.4458	14.4193	-3.3603	-3.1002	-6.7907	-3.6712	-4.4602	-10.3009	-31.4185	-11.5299	-2.8782	5.8893	-14.6320	-8.7546	-4.8488
6272.0000	-8.8157	-2.2946	25.0891	-1.9107	-4.7305	-7.8571	-3.0728	-4.6047	-14.7254	-42.6250	-19.8805	-7.9680	6.1177	-2.6561	-14.6449	-11.5873
6280.0000	-3.2790	5.0883	27.4124	5.9851	3.0482	4.5926	5.3201	3.5493	-1.3077	-16.3147	-4.0694	9.5350	-1.6615	25.8629	2.0203	2.5002
6288.0000	-10.7738	-5.1208	-7.7008	-12.6226	-0.8837	-3.1815	-0.1076	-4.3217	-3.9585	-16.2127	-9.9568	-0.6804	-0.1095	5.3727	0.1298	0.3414
6296.0000	-16.0531	-10.4561	0.2569	-14.7290	-9.6062	-13.1353	-6.3078	-11.1088	-17.4364	-39.0479	-28.6478	-21.2516	8.6320	-21.3611	-22.5951	-11.6231
6304.0000	-2.6550	0.3635	21.2943	0.7694	-1.6657	-1.3347	0.9528	-1.6231	-6.4087	-18.7218	-11.1065	-3.0987	3.3705	-3.1038	-7.3589	1.2205
6312.0000	-1.9115	1.8639	13.8223	0.3836	3.8942	3.3834	2.8534	-0.4335	1.5821	-4.5354	-1.4742	6.8410	-2.9283	4.9319	11.1451	9.1405
6320.0000	-2.7495	4.2946	18.8193	9.9400	4.4883	6.8608	5.1592	0.3950	3.0777	-3.1109	-2.5401	9.2132	-3.1929	8.8116	10.9769	14.9172
6328.0000	3.1788	5.8987	11.1242	12.4728	4.1186	7.9872	5.5849	4.1185	5.7017	5.8650	5.1958	12.0150	-2.3972	12.9975	6.8396	12.4265
6336.0000	-2.1525	-2.0076	2.4686	-2.7565	-4.0512	-4.5571	-3.9172	-1.1761	-5.4475	-11.5618	-4.2284	-5.0125	4.1512	-4.5643	-14.7409	-13.2158
6344.0000	-2.5305	1.5140	17.9233	4.3281	-3.1837	-0.6646	-0.0840	1.2708	-4.8781	-9.6341	-6.8047	-5.5332	3.1116	5.9222	-15.2773	-9.6186
6352.0000	0.2633	6.6667	19.5255	15.5124	1.7035	8.6822	5.6566	5.1691	4.5717	10.5413	1.5138	4.1710	-1.8117	17.8010	-3.5328	4.8729
6360.0000	-2.1436	4.3311	22.0223	15.1897	-0.1094	5.6199	-2.1240	0.6631	3.1248	2.3453	2.7619	7.1208	1.4291	-4.2215	-12.3673	-5.8346
6368.0000	-4.4504	2.2330	21.9451	11.1781	-1.3408	3.1759	-4.6892	-1.7071	1.0437	-2.6413	0.1924	4.8620	2.6157	-11.6720	-15.4788	-9.8790
6376.0000	-12.8643	-3.6177	2.6646	-0.3964	-5.2757	-1.4710	-3.1686	-4.3896	-3.9009	-6.2780	-11.8609	-9.0758	3.1311	-4.4485	-19.8944	-10.2110
6384.0000	-11.9650	-2.5339	-5.2245	1.7803	-2.7675	0.7381	-2.2082	-3.0903	-0.3070	-4.8986	-5.8155	0.4742	1.2547	2.8338	-13.0674	-6.4272
6392.0000	-9.3287	-2.1690	-0.2358	9.5241	-1.7214	-1.6228	-7.6176	-6.8222	-1.0799	-9.5946	-3.3884	1.6374	1.5957	-19.4242	-5.5797	-7.5817
6400.0000	-18.7809	-8.3994	8.5662	6.2481	-9.8405	-10.8230	-15.1754	-15.5025	-13.3851	-32.9817	-22.5042	-16.4915	9.3998	-48.2452	-27.6044	-20.4997
6408.0000	-11.2939	-3.2137	1.5019	2.4960	-4.6210	0.5143	-5.7082	-5.2345	-1.1406	-11.8501	-5.6265	5.6834	6.0630	-15.0458	-25.7535	-8.5669
6416.0000	1.1860	-1.3852	-9.1736	-6.7171	-1.4286	1.0806	-0.5801	1.2907	1.8908	-2.7216	5.0345	11.1643	4.0406	-0.3265	-14.2119	-1.6354
6424.0000	1.7116	-2.2675	11.6039	-2.3221	-5.9677	-8.5465	-4.8854	-2.4972	-12.2719	-33.9230	-9.7094	-3.5230	9.8615	-16.0737	-21.2459	-11.3575
6432.0000	9.1476	7.8138	22.6273	19.2697	0.4266	2.7298	1.3401	6.2033	-2.0454	-18.3849	5.5816	14.7041	4.7766	9.9226	-10.2249	-2.9577
6440.0000	16.2577	12.6174	21.5047	27.5691	4.6222	8.9499	7.2002	11.1019	4.7568	0.2714	13.7531	19.2752	0.4351	21.5825	3.6035	9.9828
6448.0000	18.4205	15.4289	33.3789	30.8702	7.1641	13.4801	13.1741	12.5422	6.7587	7.2609	10.8874	18.2530	-1.8045	25.5381	12.4502	25.0103
6456.0000	15.3150	14.9957	28.3401	30.9011	6.2202	14.8899	13.3525	13.1518	8.7693	16.6211	11.3334	15.2873	-2.8180	30.9840	8.1558	21.4969
6464.0000	5.1451	6.8289	11.7583	21.3010	0.7867	5.4666	6.1668	5.0106	1.0291	3.3214	-0.4331	0.8351	0.1055	12.9183	0.5455	10.1960
6472.0000	-0.2807	4.6852	0.2366	12.2919	4.6277	8.7995	8.5153	3.1548	6.6314	10.6209	1.3936	8.2498	-4.7149	18.6044	14.0728	20.9076
6480.0000	-7.0318	0.0996	2.8376	-0.2168	1.2271	3.2664	3.6242	-0.3790	1.3169	0.6398	-5.2145	0.4056	-2.7051	12.6626	3.3364	5.9360
6488.0000	-10.2288	-4.0876	5.7331	-9.7747	-1.7317	-4.0860	0.0166	-4.6067	-6.9036	-18.2559	-14.7413	-7.9813	0.4058	1.8645	-1.0247	-1.0574
6496.0000	-3.2741	-1.8326	-9.3988	-10.9052	2.6742	1.8570	5.1632	-0.0423	2.3331	4.2788	-2.3792	1.2638	-3.9391	12.6317	12.1561	12.0636
6504.0000	4.1783	-2.9005	-3.5824	-6.9856	-4.4700	-6.0690	-2.2304	-0.9662	-6.1506	-6.5132	-4.4081	-9.8473	5.3198	-13.5473	-11.4666	-5.1917
6512.0000	18.4698	2.2883	2.2219	0.8851	-2.0275	-2.4729	2.8988	4.2305	-4.5902	-12.4680	3.0881	5.3154	8.9160	-13.6297	-9.6035	10.9417
6520.0000	23.6985	7.8289	-4.2236	5.5606	4.6519	9.2885	12.8035	11.3663	7.5088	7.6405	15.6702	24.7903	3.5928	12.3332	3.9221	32.2678
6528.0000	19.9497	8.0923	9.6969	12.8478	1.1675	7.6024	8.0696	9.4956	4.2018	4.8217	11.2683	16.7030	6.1106	2.5890	-9.7496	18.5460
6536.0000	28.1634	9.0739	-10.6381	10.0581	3.4090	9.7488	12.4010	14.0158	9.3071	18.7120	20.9814	22.3537	4.2399	12.9722	-0.8932	28.1794
6544.0000	19.1507	0.2053	-33.1197	-6.3256	-2.8406	-1.7759	6.6746	8.3842	-0.5403	1.1210	9.2806	6.9332	7.5631	8.0339	-10.8278	12.5967
6552.0000	2.9348	-3.7441	-4.4560	-3.6018	-7.0299	-7.4075	-4.9828	-2.4927	-9.0168	-24.0410	-5.8779	-1.4961	11.1153	-21.3682	-25.9473	-7.9755
6560.0000	5.4865	1.3468	1.4990	3.2264	0.6757	4.8189	-1.8014	0.1311	5.8517	3.8891	9.8402	17.3894	4.2842	-18.5620	-10.4749	6.0293
6568.0000	1.5600	-0.4771	-5.1652	2.4022	-1.0937	0.4837	-4.5013	-0.8757	2.8180	4.7262	6.8643	5.8166	2.4278	-13.7450	-8.8870	-5.6989
6576.0000	2.2108	2.6105	-0.6161	12.6139	-0.5610	1.1816	-1.9753	1.6064	1.7780	5.9822	5.1769	0.6556	0.2316	-0.5086	-3.3638	-5.7998
6584.0000	9.1027	4.1842	-12.6648	15.3030	-1.3117	3.2821	3.1456	6.0344	3.5160	14.5092	8.1248	1.2099	1.7966	7.8276	-6.3362	3.4102
6592.0000	7.8424	1.8739	-14.1575	10.8898	-3.2677	-1.0353	1.2123	4.0695	-1.0932	4.3555	3.3419	-3.6153	3.7654	2.9099	-9.3442	-0.7261
6600.0000	11.0005	6.2326	-8.2229	11.3125	4.7427	7.3522	5.4988	7.5495	9.5616	23.4985	15.8721	10.4435	-4.3013	16.0436	12.7749	10.4130
6608.0000	4.3287	2.1483	-3.4788	5.5605	-0.4269	0.5468	-0.9161	3.4658	2.1646	11.3620	7.1416	-1.7942	-0.7311	5.4038	-2.3848	-7.9907
6616.0000	0.9078	-1.2715	-3.1676	-0.8832	-3.4714	-5.1611	-4.4659	0.2886	-3.8589	-0.4493	0.1935	-9.8540	1.7242	-2.4632	-8.6216	-16.6051
6624.0000	9.6906	1.1208	-24.5590	-7.6328	4.6659	3.4009	4.2249	5.7660	10.0733	35.5624	16.3139	0.6029	-7.4639	13.7069	20.4362	6.8969
6632.0000	-1.4807	-6.4354	-27.8136	-14.9602	-1.8921	-7.5172	-3.6054	-3.0700	-1.2528	17.1706	-0.8206	-20.6576	-3.8690	-6.7597	10.3864	-8.3278
6640.0000	-9.0638	-8.3785	-6.7389	-12.1848	-4.9765	-13.2040	-10.0631	-9.3485	-10.6291	-13.4743	-12.9994	-23.6778	0.8440	-23.6021	-0.0039	-19.3304
6648.0000	1.4188	-0.9153	-4.9620	-5.0414	2.2485	-3.1656	-1.8123	-0.6513	-0.3353	-0.0555	3.1805	-1.6836	-3.5222	1.0525	14.3835	-3.3543
6656.0000	4.0325	-0.4971	-28.3079	-6.5688	3.2945	-0.1593	3.4437	3.8238	4.6270	14.4004	9.2710	1.4690	-5.8927	20.5599	18.6963	4.0912
6664.0000	-1.2359	-5.5974	-41.3100	-13.1199	-0.2388	-3.5412	-1.3482	-0.8635	3.9632	22.3127	5.9020	-9.0008	-4.7174	3.5247	11.1865	-2.6196
6672.0000	-2.0457	-4.1688	-13.6231	-5.8744	-1.3244	-6.0556	-6.5577	-3.9513	-0.7771	12.5887	0.9822	-15.4993	-3.0827	-14.0669	7.4621	-12.6552
6680.0000	9.7032	5.7113	9.7619	4.8667	7.4040	4.0877	3.1373	4.5233	6.3266	15.0863	12.3184	6.0842	-7.5488	9.5672	27.1122	7.1163
6688.0000	15.1856	7.9249	1.6870	-0.0011	12.5987	10.1942	8.8830	8.8579	14.4700	29.0629	22.9269	19.5382	-11.6112	23.4417	40.2231	20.8850
6696.0000	5.9598	0.0678	-16.2210	-13.2866	9.0241	1.3199	3.4634	1.8743	8.0441	19.6716	12.8867	5.3215	-11.2966	12.4642	40.5652	11.8627
6704.0000	-4.9027	-11.0884	-48.6349	-36.6551	4.3776	-8.8469	-1.7759	-5.8924	1.5786	7.5139	2.6128	-5.8663	-9.4263	2.1529	36.6027	4.3475
6712.0000	-17.2271	-20.8218	-59.7847	-49.0321	-5.9164	-21.3710	-12.9575	-14.2806	-10.3379	-11.8687	-12.2087	-25.6714	-1.6882	-20.4977	7.7370	-22.8620
6720.0000	-15.4398	-16.9282	-48.5172	-32.8146	-6.9707	-19.6359	-13.3873	-12.6362	-10.7938	-10.6616	-12.0819	-27.8320	-0.5206	-20.7921	2.1782	-26.2600
6728.0000	-6.8221	-11.6737	-59.5808	-22.2303	-1.1403	-9.5453	-7.1068	-7.4254	1.5644	13.7737	3.2453	-10.9804	-4.5846	-12.5011	16.2783	-5.8317
6736.0000	-8.0008	-14.6442	-67.1108	-22.5049	-5.7495	-14.4966	-8.7703	-9.8942	-4.5950	3.0759	-4.8222	-19.5321	0.2829	-22.2373	5.4186	-7.8274
6744.0000	-10.1141	-13.9273	-65.1030	-19.0231	-6.9089	-13.9922	-3.8820	-8.8431	-7.8412	-3.5288	-13.4208	-24.3036	1.0317	-10.4461	3.8173	-0.6242
6752.0000	-12.2406	-8.9469	-50.6279	-10.7459	-1.9348	-2.0603	-0.2296	-6.2436	4.0334	22.5686	-4.9484	-13.6909	-4.6401	-2.7073	9.0997	7.6574
6760.0000	-1.6459	-2.4153	-35.3461	-5.9320	2.7363	7.1278	4.8573	0.4057	13.6727	49.2779	8.2229	-5.4377	-8.0376	2.9488	15.1910	16.6060
6768.0000	-2.5096	-10.6869	-73.2965	-30.8999	-0.8810	-2.5605	4.6075	-0.4376	7.9247	42.7874	4.4663	-15.5120	-6.7443	11.0991	14.7756	11.4014
6776.0000	-24.7096	-26.2176	-85.5644	-50.0828	-14.0865	-25.2003	-14.4240	-16.4148	-13.8195	-3.1886	-21.7165	-44.7262	2.3564	-23.0908	-14.0059	-30.8586
6784.0000	-13.0118	-15.6371	-42.0985	-27.6565	-10.3183	-16.8584	-11.0824	-11.0272	-10.5629	-0.7897	-15.2332	-34.0697	3.3282	-26.9413	-13.6790	-22.9081
6792.0000	-0.9522	-5.7008	-53.0039	-18.3625	0.3204	1.7158	4.7623	2.1013	9.5344	39.9960	7.8390	-7.4036	-6.1069	15.0902	9.7658	8.7220
6800.0000	-24.2818	-17.2469	-82.2304	-32.8646	-5.2369	-7.6297	-4.7724	-8.7107	3.9053	30.3376	-5.7576	-23.1687	-7.2823	9.1995	2.8037	-12.0928
6808.0000	-31.2368	-20.6272	-73.6242	-30.1982	-9.1142	-13.8015	-12.5043	-15.8031	-2.7340	19.5971	-15.6909	-36.4468	-4.8029	-14.9182	-3.9961	-24.2443
6816.0000	-18.0531	-13.3738	-64.2491	-14.8860	-6.9636	-8.0491	-7.7564	-8.8465	1.6960	32.0542	-5.9750	-30.1659	-4.4462	-9.5839	-2.1468	-15.4400
6824.0000	-7.9499	-7.1433	-53.7324	-6.7084	-3.3137	-2.1278	-1.3086	-2.4261	5.7034	37.8322	1.3719	-20.2529	-5.4112	3.0680	4.3204	-3.3938
6832.0000	-10.7855	-7.4824	-57.1491	-13.9840	0.2937	2.2217	1.6614	-2.1600	11.3178	46.3554	4.6693	-12.4342	-9.4384	11.4387	13.5065	4.8070
6840.0000	-22.1185	-14.1347	-61.9583	-25.2894	-5.1347	-5.4318	-5.4367	-7.9982	4.2955	34.4238	-5.5201	-25.2055	-6.8541	2.5880	-0.8027	-14.5250
6848.0000	-22.5460	-14.1693	-39.0275	-21.2872	-8.3302	-10.6743	-9.9590	-11.1066	-4.4237	13.8067	-14.5874	-32.8260	-2.0958	-13.6548	-10.6022	-24.1503
6856.0000	-20.8135	-8.3345	-20.5040	-8.7888	-2.2713	-2.2786	-5.9286	-9.5304	1.8677	15.7444	-9.5398	-16.9732	-5.5567	-9.1027	2.6759	-9.1111
6864.0000	-17.1723	-2.8921	2.9219	-1.0003	0.9509	3.2705	-1.2769	-6.1506	3.0736	6.5358	-8.3636	-3.9590	-5.0833	0.0758	4.1596	0.3305
6872.0000	-6.2545	1.9228	25.3965	8.6598	-0.0753	1.9823	0.5751	-2.4494	-3.3039	-15.1788	-9.8492	0.9420	1.3007	-2.2824	-4.1535	2.6532
6880.0000	2.3289	6.1976	17.9382	22.4026	0.9158	4.3916	4.4166	2.2245	-1.6867	-14.8398	-3.8851	8.1026	2.4526	6.4725	-1.2918	11.6267
6888.0000	5.7547	7.5365	20.7470	20.0565	1.8777	7.7245	7.5782	4.6391	1.0903	-8.8337	-1.0311	12.8217	2.8260	9.5215	-3.1395	18.0098
6896.0000	-3.0637	0.2819	25.7004	2.7684	-2.9101	0.5949	-0.5691	-2.8427	-5.5114	-23.2707	-10.5051	4.8047	7.4478	-14.5330	-19.6168	2.6594
6904.0000	-8.8212	-2.7450	19.6299	-2.0854	-5.7307	-2.7480	-0.3434	-4.6399	-10.4027	-34.7401	-19.2454	-0.8544	9.3161	-9.8638	-25.9605	0.3294
6912.0000	-0.3150	4.7097	36.5915	2.6649	-1.7586	5.4753	10.6924	4.8425	-6.2758	-26.0376	-14.7454	6.7332	6.7915	20.7217	-20.8330	13.4862
6920.0000	0.1636	4.4234	42.3637	-0.4707	-0.6589	4.7574	5.4800	3.6300	-4.2206	-21.9255	-8.2333	9.5403	5.6443	10.7863	-19.8657	3.1118
6928.0000	-1.1041	1.0710	33.9099	-2.5195	-1.4822	0.8372	-0.4672	-1.4118	-5.2495	-25.6350	-7.7102	8.8641	6.8781	-10.7442	-18.2837	-0.1112
6936.0000	7.1086	5.4969	45.0656	7.2999	-1.5605	3.6905	3.0951	2.6213	-4.9712	-22.0498	-5.9513	9.3395	8.9622	-9.8768	-21.9089	6.1287
6944.0000	10.0748	7.6604	44.0854	14.5052	-0.5663	4.6572	2.8152	4.2980	-3.0801	-15.9556	-1.2031	9.9371	7.5109	-7.5350	-17.7172	4.7259
6952.0000	8.8175	6.8177	33.7002	8.5132	4.1842	5.6900	4.5543	3.4893	0.6564	-13.0519	2.6079	16.3740	1.9810	-0.2706	2.9225	13.3342
6960.0000	7.4846	6.2610	40.4700	6.4055	2.0549	3.2001	2.7661	3.4571	-2.9652	-19.8508	-0.5301	12.1268	3.8326	0.3253	-5.3297	4.1075
6968.0000	8.8740	8.2571	52.7106	16.0492	-2.9855	1.6028	0.1827	5.5751	-7.6238	-26.6710	-2.9802	6.8274	9.5395	-0.8448	-28.0872	-10.5017
6976.0000	18.2103	14.9054	55.5336	19.1297	3.5447	10.4962	9.6125	14.3814	0.9180	-12.6534	9.4483	22.6128	4.6241	27.7080	-13.4591	4.7655
6984.0000	16.7578	13.8675	47.7821	10.3211	7.8197	11.6607	9.5704	14.0275	5.9707	-1.8794	15.8374	26.4296	-1.5387	33.6370	3.5902	6.0581
6992.0000	7.2809	8.8977	58.6043	12.0581	3.5495	4.1298	-3.3145	3.5989	-0.2271	-11.9921	7.2319	12.9894	1.1595	-5.1197	-5.0163	-13.0329
7000.0000	9.7027	11.6950	68.2937	23.0895	3.2010	5.7811	-3.0542	4.3141	-0.4971	-12.7943	6.9256	13.3638	2.6536	-9.3818	-8.1280	-11.1466
7008.0000	5.8883	9.4728	43.6511	19.2144	2.3684	6.2354	2.5830	5.5834	-0.0832	-9.4532	2.6529	10.3719	1.3279	9.6712	-5.6286	-1.7470
7016.0000	3.4320	6.8372	38.9682	19.0624	-1.0310	2.2332	0.9307	2.7333	-4.8767	-15.9519	-4.9567	1.0493	4.0843	0.7221	-11.6682	-3.5054
7024.0000	19.5000	14.1717	48.3034	28.9866	2.8951	8.7458	6.5832	10.4507	0.8973	-6.2092	8.3398	15.1160	4.5714	6.2422	-6.7408	9.4321
7032.0000	19.8482	12.6915	31.0343	19.1079	6.0835	11.3419	12.0221	11.3935	5.0472	-1.2736	10.6899	22.8149	1.7064	17.1626	5.4640	25.1867
7040.0000	0.1536	1.8875	27.6572	7.1154	-1.2317	-1.3864	0.8471	-2.0176	-7.5407	-23.5801	-11.6711	-1.8927	4.4275	-9.6516	-5.1294	4.9759
7048.0000	-3.0445	2.7788	44.0102	15.1489	-3.3932	-3.6798	-4.2753	-3.8627	-11.1868	-29.3503	-15.0671	-8.7736	5.6072	-17.4872	-12.7918	-9.5025
7056.0000	15.6445	14.9117	57.6422	30.8783	5.6489	8.3837	7.2125	8.7557	-0.6267	-14.5884	4.2367	14.8570	0.9666	11.7380	6.9573	11.9244
7064.0000	24.4366	19.0790	57.2906	36.3270	8.8053	13.4412	11.1380	13.5225	4.8679	-5.6152	14.1830	26.2105	0.2134	17.9294	12.2428	21.7649
