Time	Fz	Fpz	C3	C4	T5	T4	O1	O2	F7	F8	F3	F4	T3	T6	P3	P4
0.0000	31.5750	4.1148	-20.8240	2.6088	-11.1162	-6.9884	3.0135	8.8319	8.3158	25.7142	29.4374	15.5905	-1.3565	13.1837	25.9305	13.7755
8.0001	38.5458	-0.0232	-32.7660	1.6851	-10.8718	-23.4427	-3.6931	8.0081	-11.1881	-9.8980	16.8827	-8.2230	10.8787	-12.6577	-0.0631	-7.8940
16.0002	-5.2395	-12.8987	-42.9337	-24.1270	3.9325	-23.3610	-7.7507	-6.7677	-5.7685	-2.4825	-2.7154	-16.4470	0.4869	-18.3835	-0.2079	-14.3966
24.0004	-4.0304	-5.0251	-33.8787	-12.3294	6.2368	1.2947	-4.8404	-3.0521	-2.1459	3.0405	-0.9721	-13.5649	-2.5145	-13.5490	7.3694	-9.7254
32.0005	5.0915	-2.0997	-33.6810	-3.8624	2.0693	0.3228	0.5396	-0.7339	3.9822	13.4975	7.2511	-0.6942	-4.1747	-3.8178	22.3081	10.9569
40.0006	8.0177	-0.5237	-35.4895	3.0214	-0.7480	0.5719	1.1125	2.6426	1.1257	9.3507	6.3859	-2.8994	0.8146	0.1955	4.3043	4.9457
48.0007	11.7795	2.8302	-40.1629	0.6193	3.2952	13.4431	3.4982	7.5357	2.9222	13.1349	10.6403	-0.5082	0.7018	6.1958	1.5048	3.5772
56.0008	7.1129	-2.5377	-47.5327	-1.6058	-0.7474	-2.0638	-0.0087	3.3291	2.4138	13.4692	9.6873	-1.6333	1.7221	2.5399	-3.2325	-0.5211
64.0009	2.0875	-0.8454	-41.4076	2.5754	-6.5704	8.7450	-2.1141	2.2861	3.8345	14.5902	8.5922	0.0080	1.5516	3.0795	-7.5797	-5.4371
72.0011	1.8171	-3.7641	-50.6028	-12.1515	-12.8716	12.5621	-6.0118	0.2749	3.6307	13.6321	11.0050	1.1865	1.8180	-2.2157	-6.1762	-11.7400
80.0012	-6.8502	-16.4007	-65.2967	-21.9672	-11.8733	-25.4481	-14.1521	-8.2228	-7.3653	-2.9600	-0.6368	-17.0822	7.2315	-21.7130	-23.9105	-29.1425
88.0013	-10.6199	-11.2001	-52.3098	-9.6729	3.0100	-15.3314	-9.6753	-5.3946	-9.7898	-8.2766	-9.1931	-25.4298	5.6154	-20.5224	-25.0286	-26.9421
96.0014	-8.2066	-6.4937	-49.1989	-9.5786	-3.3009	7.3797	-5.4819	-4.3650	-1.6288	6.1140	-3.9931	-14.6702	0.6864	-13.6686	-5.0818	-9.2112
104.0015	-8.6602	-13.6863	-53.6221	-14.0515	-16.5094	-15.0449	-8.9995	-10.5148	-2.3352	10.0069	-4.9695	-16.2705	3.0364	-21.5730	-6.5699	-6.4630
112.0016	-4.7234	-8.1061	-33.9727	-9.5236	0.0421	-12.0396	-2.0179	-3.7122	-4.2355	7.3444	-7.7936	-20.8792	1.8484	-11.7566	-8.4466	-4.4067
120.0018	0.1597	-3.5608	-22.2014	-17.2610	-1.7864	3.7378	3.5863	0.3674	2.4929	20.8177	-1.1700	-11.6712	-3.3877	4.1170	8.1262	6.8940
128.0019	1.9314	-5.4666	-14.9500	-18.2198	-19.4792	-1.7503	-0.9255	-3.2038	4.1423	27.3329	2.7140	-8.5181	-2.8171	1.6609	10.7971	4.4295
136.0020	4.4810	3.8290	7.4085	4.9640	0.1527	6.5146	2.1254	3.2644	4.1947	20.4949	4.6290	-5.4221	-3.7650	4.6041	7.2438	1.0580
144.0021	2.2050	2.2575	8.2002	5.2901	7.3530	-3.8901	2.9162	2.0438	7.8961	19.8478	8.7691	5.8755	-5.8407	7.4997	13.0583	7.0704
152.0022	-12.7689	-13.3142	-1.4429	-16.9181	-13.0439	-34.2846	-10.1374	-12.1670	-2.1441	0.0762	-4.1632	-5.8219	-0.9837	-9.2339	0.1611	-13.6834
160.0024	-17.2615	-7.6598	18.7499	-3.4559	-1.9762	-22.6672	-10.2397	-10.1491	-8.8026	-17.2209	-14.2806	-15.8398	-0.0221	-13.1847	-8.5502	-24.3446
168.0025	-0.1205	7.9239	39.7913	18.1149	8.8333	3.8011	3.7432	3.4938	4.7867	5.4832	2.9623	7.6843	-4.7439	11.3527	7.0893	3.4310
176.0026	1.6534	6.0177	36.7807	7.6315	-3.7896	3.1920	3.4577	3.7478	7.3622	10.1854	7.9332	15.6509	-3.8596	22.0588	4.9220	3.1723
184.0027	-10.5279	2.5844	35.0175	7.4546	11.9073	-4.5608	-0.4182	-0.1918	-0.0214	-10.1338	-3.7204	4.6022	-3.2938	9.4139	-3.6541	-10.1774
192.0028	-10.7035	8.8419	42.8129	22.7021	39.8988	2.4146	6.2153	4.6505	4.1838	-8.8441	-2.1981	10.6900	-6.2852	7.3950	-0.8612	1.2736
200.0029	-0.4196	15.5707	46.5364	30.2502	32.8546	19.3992	12.4915	11.1797	10.2724	3.3503	5.9274	22.5681	-5.2014	20.2758	-1.0423	15.1149
208.0031	15.2658	17.8078	46.6953	34.0242	7.9997	19.4215	16.5932	14.0441	14.6905	18.5934	15.2860	32.2347	-3.0551	34.2140	7.3632	32.8980
216.0032	10.4062	10.1000	41.2071	18.1935	-4.9159	7.8284	12.2813	7.4566	9.6951	11.6247	7.5751	24.7512	-0.4424	25.9556	3.6017	28.8246
224.0033	-10.9452	0.2563	30.9718	0.4785	-5.2234	5.5254	1.0262	-3.7400	-3.4860	-18.3073	-14.2743	3.5658	3.6986	-1.6213	-15.4529	3.0043
232.0034	-9.7168	0.5977	33.8415	6.3344	-3.1989	-2.5988	-0.5646	-2.9928	-0.6215	-11.6606	-7.6516	7.5368	2.4923	1.0489	-15.4239	-1.6667
240.0035	-0.4006	2.1377	36.3195	4.8740	-5.8217	-7.9862	0.7900	1.8636	5.0334	5.3481	5.5372	15.3349	1.8471	12.1635	-16.2236	-2.9766
248.0036	-7.5230	-2.2952	20.6833	-4.2423	-13.1748	-0.1949	-3.0620	-3.5555	-0.6089	-4.9966	-5.7557	4.7514	5.6870	-5.0146	-25.1691	-6.4056
256.0038	-16.7611	-5.7957	16.2879	-0.7999	-15.3284	-4.9626	-5.8072	-9.0899	-2.0989	-10.1181	-12.9550	1.6464	6.3819	-13.2392	-28.5858	-6.4030
264.0039	-11.0609	-0.9975	29.0493	9.6591	-8.3591	-5.1620	-3.2317	-4.0359	-0.8742	-7.3647	-8.2109	4.3172	6.1888	-6.5555	-31.0293	-7.5355
272.0040	0.9629	8.1514	33.4202	19.4690	-3.4196	12.3722	7.7342	5.4173	3.5309	3.9488	-2.8437	8.9445	3.1649	14.5268	-17.5329	11.2950
280.0041	0.3375	6.2562	30.1451	9.4410	-6.4055	9.0901	11.2275	5.3876	5.9246	10.1254	-2.1893	11.2603	-0.4386	29.3438	-5.3905	19.4212
288.0042	-9.4813	-3.2722	25.9073	-8.1890	-14.4141	-2.3294	-0.6508	-4.9087	-4.4677	-10.3587	-14.1139	-3.6311	4.2199	-0.5410	-17.1580	-1.6050
296.0043	-16.6050	-3.8615	25.4026	-3.7063	-12.5932	1.9508	-2.9168	-8.0099	-7.5852	-14.4551	-22.5513	-13.8796	4.3847	-11.0733	-20.7012	-5.9860
304.0045	-12.6918	-0.1404	31.2424	2.7349	0.1080	-2.0945	3.3327	-2.7240	-0.5540	0.2333	-13.5909	-5.7539	-1.3514	6.9664	-8.2414	3.0818
312.0046	-2.7727	0.2406	31.7021	1.1538	-4.9606	-6.9833	0.2062	-2.2768	0.1461	-1.5378	-3.5937	2.7423	-0.4708	2.0684	-0.4070	1.7867
320.0047	-1.0596	0.7913	27.7975	8.0285	-14.4958	-6.5423	-3.2798	-2.9568	-1.6764	-7.5781	-1.7861	4.4676	1.5764	2.8174	-2.0318	-4.0637
328.0048	-0.8067	2.2665	27.9365	13.4730	-7.8444	-5.2087	-4.6394	-2.0735	-3.9729	-14.9516	-2.3161	2.7479	2.6279	-2.8181	-5.7864	-9.6250
336.0049	2.1953	5.5390	24.1445	9.3930	-6.8441	15.4236	-5.6939	-0.8082	-4.8817	-19.4173	-1.6090	2.1732	2.4530	-11.6649	-0.4341	-11.0370
344.0051	5.6744	9.3942	18.5208	12.2236	7.0075	20.4347	-0.2004	6.0461	-0.9232	-8.9504	4.4499	4.0269	-0.4251	2.1957	0.6468	-9.1118
352.0052	13.8509	10.0621	24.0272	21.2012	31.1418	-4.7892	5.9336	11.5082	2.9158	1.3785	12.6739	9.0484	-0.5836	3.1858	-4.0255	-0.2980
360.0053	16.0057	7.4263	26.2736	13.6084	17.1316	-10.1675	7.4092	8.9076	2.6159	1.2111	10.7697	11.5923	-0.3935	9.0334	4.8708	10.4407
368.0054	5.9390	0.9470	10.3605	-1.7319	-6.5580	-4.0037	1.8746	1.2412	-0.7195	-3.0623	1.8432	4.2787	0.2195	8.7577	6.3334	4.8592
376.0055	-4.8867	-6.8696	-5.7681	-7.4712	-12.9434	-9.2010	-7.8827	-7.9383	-4.5671	-7.7305	-5.9623	-5.9129	4.6797	-21.8074	-9.8479	-7.7531
384.0056	-10.7608	-10.4763	-7.9229	-10.0418	-18.2424	-14.5886	-10.6191	-11.5174	-11.5456	-21.9307	-16.4061	-15.2231	8.2970	-26.8804	-20.4604	-14.8030
392.0058	-7.7682	-5.2024	3.8305	0.0931	-8.8568	-10.6187	-6.5073	-6.6109	-10.3568	-25.0164	-13.8624	-9.2159	7.4411	-16.5247	-20.2625	-11.9818
400.0059	5.6348	4.6830	15.9013	13.5313	1.2898	4.5142	0.3521	2.1736	2.3198	-0.7148	4.6708	9.9093	3.3842	-8.4651	-8.8535	3.8224
408.0060	9.5393	4.1300	9.8557	6.2964	-5.3525	5.0933	1.4713	3.4495	2.1705	4.3270	6.4986	7.1370	2.1769	0.5286	-1.8497	4.5917
416.0061	0.7825	-0.6432	3.5461	-0.7531	-6.8815	0.4169	-3.8579	-1.3423	-2.0439	-4.7663	-0.0415	-0.0442	3.3503	-8.3207	-8.9801	-7.3571
424.0062	-0.3148	2.3970	6.1747	-0.4422	2.9434	10.7945	0.2547	1.6638	1.0724	0.6286	0.3832	1.8736	0.9405	-3.9271	-7.1922	-2.2430
432.0063	-2.8539	0.9371	3.3916	-3.3792	14.7387	2.0251	2.7960	2.3569	-2.1311	-4.2978	-4.6060	-6.0424	-1.1834	1.2006	-3.1447	-2.6377
440.0065	-5.1322	-2.6011	8.7934	-4.1357	9.4352	-11.6722	-2.5418	-2.2403	0.1470	-2.4454	0.0963	0.8083	-1.5850	-5.5111	-1.3744	-6.9686
448.0066	-1.5872	-3.4153	13.9143	-14.3367	-7.3958	-7.6261	-0.9018	-3.6604	0.4121	-0.6809	-0.8720	3.4184	-1.9603	1.9395	9.3492	2.6799
456.0067	-13.7154	-11.4739	1.9759	-27.7041	-11.2352	-16.6081	-3.8045	-10.6448	-14.4461	-26.8126	-24.6674	-22.7423	1.4001	-6.1453	1.8052	-6.8462
464.0068	-20.7653	-11.6582	0.6854	-20.5145	-9.5665	-16.7322	-6.5266	-11.4688	-14.9448	-29.0978	-26.7221	-24.5227	2.1514	-5.7768	-9.3708	-17.1422
472.0069	-13.1615	-0.5816	8.0127	-9.3705	4.0664	8.9984	3.0929	-1.7925	-0.5740	-5.7716	-10.4003	-3.0577	-5.1165	14.4771	7.6097	1.5182
480.0071	-15.5164	-2.2626	1.3238	-14.0875	16.0774	7.9411	2.6949	-2.9861	0.4187	-5.9941	-10.3215	-2.6113	-5.8234	2.2347	7.9169	3.1295
488.0072	-15.7607	-9.5516	-4.1077	-17.4405	0.1565	-14.6756	-4.9897	-8.3086	-8.5283	-18.1982	-16.2928	-13.8670	1.5698	-9.7090	-9.9023	-12.0728
496.0073	-12.1925	-6.0641	-2.0721	-10.8010	-3.0966	-7.1363	-2.4699	-6.3712	-8.4676	-19.9608	-15.8774	-11.8314	0.6178	-1.6514	-1.4144	-5.7713
504.0074	-13.3158	-4.8546	-2.1416	-13.5082	4.7871	-0.2678	-1.8002	-5.6654	-5.3851	-17.3739	-13.0089	-6.9814	-1.5293	-4.2693	2.6092	-3.8046
512.0075	-11.3891	-7.6805	3.3650	-12.8625	1.6316	-17.3858	-6.1226	-6.6969	-10.3006	-20.6532	-14.1067	-15.7514	1.9444	-10.8451	-9.4676	-17.4694
520.0076	-0.7963	2.4488	15.2310	8.0545	17.6647	-6.6384	-0.5464	1.3262	-5.2048	-14.8272	-3.6535	-6.0506	-1.3666	-4.0893	2.2735	-8.5001
528.0078	13.9815	12.5801	16.3379	14.3031	25.6160	16.6361	9.5163	11.3743	6.7605	2.1436	13.8640	17.5935	-5.6154	13.4875	20.6527	15.1722
536.0079	14.7091	9.8614	10.5520	7.7854	13.6077	16.1157	8.6270	9.1359	5.5180	4.3263	11.2909	14.0852	-3.6055	10.8168	18.8733	17.4634
544.0080	13.5786	10.6304	13.3660	16.0554	18.4014	12.8958	7.3167	8.7490	5.6673	4.9832	11.6832	12.5963	-4.0009	6.0182	17.7774	14.6317
552.0081	15.9668	8.3601	10.6350	12.9209	14.4513	-0.9013	9.3572	9.0804	7.4591	9.7160	15.4614	16.9990	-5.4623	19.9977	24.4568	19.7066
560.0082	9.6086	2.8597	2.4613	4.9403	2.2792	-4.8691	4.4251	2.6477	1.5736	1.2211	5.9256	5.6633	-3.8817	11.2982	23.9584	13.7036
568.0083	16.3363	10.9133	5.6380	16.8686	10.4430	15.8357	5.4014	8.4398	6.5343	8.1426	15.7336	13.6930	-4.9541	8.6655	25.4450	13.3414
576.0085	18.2810	8.5225	-1.4573	13.3171	11.3982	4.1153	5.7719	8.7867	12.1346	19.3432	24.9186	23.4052	-6.4300	14.5663	28.0794	16.5897
584.0086	2.0204	-3.6982	-18.1808	-3.9453	3.9022	-10.1640	-4.6788	-2.4836	-1.6588	-5.3842	4.1636	0.0314	0.2768	-12.2124	5.6058	-4.8920
592.0087	7.9055	3.1853	-20.1551	0.2793	4.6844	14.5032	1.2807	5.3445	-4.2249	-5.9167	0.4392	-7.0943	3.3441	-3.7720	-5.9203	-3.7505
600.0088	20.5569	8.0461	-21.6081	6.4354	-1.1987	18.9472	11.0641	11.7952	9.7778	27.8197	16.8355	11.0191	-1.0204	19.4785	10.6131	23.4835
608.0089	12.9170	1.9481	-19.7032	5.2764	-2.5200	4.2633	1.8729	3.9872	5.4846	15.9122	12.0260	7.5826	3.0884	-6.8057	-2.9016	10.3712
616.0090	5.5228	2.5854	-14.9244	5.0395	7.2318	8.2631	1.4577	3.9401	2.0127	4.3912	5.4342	2.6316	2.0044	-5.5682	-6.2503	2.1251
624.0092	4.5613	0.7076	-27.4832	-5.7352	4.4359	8.8692	5.7786	3.2801	7.6397	19.4873	8.5555	5.0599	-5.5273	11.7574	19.7555	16.0635
632.0093	2.8699	-3.5153	-30.5878	-9.0558	-2.2545	-1.0815	-1.3381	-0.0206	-4.5890	-1.3664	-1.7296	-12.2699	1.0638	-2.6323	2.3658	-4.3267
640.0094	6.4640	0.3104	-24.4026	1.9567	-1.1032	0.4674	1.8613	4.0058	-3.3502	0.1011	0.7136	-8.1892	2.1219	7.1753	-2.7433	-1.7014
648.0095	12.9973	6.9031	-28.3976	7.0591	4.0492	20.0451	9.8403	9.0571	13.0113	30.5134	17.4809	13.8425	-5.7537	20.9353	21.7104	24.2288
656.0096	11.7929	8.2520	-23.5649	8.1721	6.6663	27.6137	4.2562	9.5575	7.9216	21.5263	14.8438	5.2590	-2.0905	6.2857	5.0074	4.5042
664.0098	9.1753	-1.8501	-27.9615	-2.3470	-14.1648	1.4375	-6.8840	0.4821	2.5972	15.0460	13.2012	0.2246	3.2562	-10.3906	-5.9484	-11.1342
672.0099	3.5373	-11.2812	-43.2689	-16.4950	-24.4825	-15.4037	-12.8480	-8.4503	2.4011	12.6978	12.1718	2.6917	3.8934	-23.2509	-1.1808	-9.8720
680.0100	-7.8028	-11.9317	-46.9383	-20.2543	-6.7140	-10.7422	-12.7090	-7.9007	-4.5482	-4.6188	-0.2071	-10.1547	4.0490	-24.2951	-13.4522	-23.1885
688.0101	-8.9958	-15.2970	-49.6593	-23.7382	-13.9066	-18.9084	-15.4653	-10.8497	-8.5430	-9.5210	-4.3885	-16.7821	5.7921	-28.0436	-15.6767	-27.6940
696.0102	-1.4244	-9.8482	-37.6327	-9.6383	-15.0801	-15.1945	-11.3304	-7.6450	-5.4219	-3.2379	-0.0041	-11.1608	4.4160	-21.2042	-5.8378	-15.7912
704.0103	5.9853	-0.3767	-30.7243	-1.7000	0.8475	1.4068	0.6984	3.0216	5.4733	17.2968	11.6531	2.6961	-2.7357	6.9845	9.5498	2.2158
712.0105	7.5287	-6.0136	-42.6948	-17.6242	-13.2345	-2.9630	-4.1317	-1.1840	3.5077	17.1015	12.0276	0.3201	-0.1262	-3.3420	8.5395	-1.5804
720.0106	9.7204	-2.7026	-31.3092	-4.6736	-9.0013	0.2672	-7.3020	-0.8987	-4.1429	1.6753	5.6704	-10.5476	3.6176	-19.4625	0.2076	-11.5580
728.0107	15.7554	3.9381	-31.3538	6.4052	5.8425	9.1546	-0.8069	5.4767	5.2758	18.7610	17.7115	1.3501	-2.4615	-7.2163	16.1710	1.6041
736.0108	3.3546	-5.1971	-51.3757	-10.2525	-7.1515	2.0187	-6.2391	-2.5667	6.9815	22.4519	14.9940	2.0729	-3.2427	-8.7376	15.0381	-2.6447
744.0109	-7.1458	-7.8961	-51.1412	-12.9536	-10.1045	0.9760	-6.9767	-4.9821	2.8176	12.8911	4.4837	-4.5930	-1.7168	-3.3833	3.0856	-9.6407
752.0110	-0.1883	-9.4695	-56.4612	-17.8693	-18.1376	-2.7921	-6.7841	-5.3230	1.1780	12.2795	5.3759	-4.9033	1.2364	-8.2410	3.5308	-4.1175
760.0112	-2.8945	-13.4346	-57.8480	-19.8290	-22.5882	-12.3938	-10.5330	-9.5655	-4.8333	4.4976	-2.3596	-16.3657	3.8822	-20.3433	-1.6868	-10.0914
768.0113	-7.9097	-10.5902	-53.4095	-12.5691	-6.1271	-14.0621	-3.1423	-5.0916	0.0720	14.7857	-1.9715	-14.5910	-1.8003	1.6763	2.4967	-3.8697
776.0114	-9.3582	-10.5825	-59.6776	-18.3524	0.8736	-7.5098	-2.7331	-3.8270	1.5472	17.5377	-0.8734	-14.1141	-1.8496	-2.1111	-2.5170	-5.8395
784.0115	-7.2264	-6.8911	-47.1189	-19.2651	14.3324	3.4129	-3.2654	-1.4139	-2.6906	7.6459	-4.2397	-20.8846	-0.7575	-16.8517	-7.3188	-13.2551
792.0116	-4.3113	-8.9943	-36.2393	-23.9225	10.7723	-11.8697	-0.0575	-3.1510	0.2969	13.3748	-1.7090	-14.2934	-4.2401	-7.6115	10.1854	0.9398
800.0118	-12.2380	-15.8494	-28.9360	-29.6913	-9.9920	-25.4520	-6.8836	-12.2068	-2.5408	8.9961	-8.4093	-17.3894	-2.2728	-14.8592	7.1023	-4.4808
808.0119	-10.3223	-7.4602	-7.1425	-21.7939	-0.8060	-5.3201	-5.5896	-6.1870	-0.7832	9.1079	-4.8527	-14.1929	-3.7555	-10.5984	3.1378	-12.6693
816.0120	-3.3310	-2.5536	4.5608	-12.6360	-0.5794	-2.9415	-2.1894	-2.4189	4.1051	13.0010	3.9593	-0.2703	-5.5607	1.2113	12.4462	-3.7150
824.0121	-1.7363	1.1460	18.3545	6.8614	-7.6414	-3.3568	-1.8234	-2.0634	3.9309	7.7886	3.5559	5.5276	-3.1212	5.0855	8.1901	-0.0683
832.0122	0.8070	7.5299	23.7234	11.5371	0.5270	14.0427	4.1744	4.7643	4.7662	5.5885	3.6228	8.9632	-2.9003	17.3774	2.8420	3.1583
840.0123	-6.2638	3.6118	19.5039	5.4669	0.4665	8.7918	3.1292	1.6132	0.3157	-3.3846	-5.3372	1.4304	-1.5945	14.8449	-3.2533	-0.3997
848.0125	-8.3482	4.1153	33.1107	18.9849	4.8546	-4.2363	2.5268	0.7459	3.3923	4.1203	-2.8013	3.7858	-3.0505	14.6674	-4.6568	-0.7883
856.0126	-6.9570	3.5504	33.9884	18.4364	5.5658	-7.0647	1.6342	0.2574	4.8905	4.9766	0.2776	8.7196	-2.1101	9.3841	-6.6721	0.3308
864.0127	-5.9303	2.8631	32.2602	19.0945	0.3494	-3.6121	0.1448	-2.6042	-2.3329	-11.7042	-8.8885	1.2520	1.8233	-4.3784	-7.5175	2.7136
872.0128	-0.1993	5.1657	35.0656	20.2619	-2.8503	-0.9095	4.8302	-0.2538	2.1762	-1.8525	-3.9227	8.3135	-0.4528	6.3603	4.0333	16.2424
880.0129	-8.8172	-1.2208	27.7509	0.3198	-5.1961	-2.7923	-0.3476	-4.7206	-4.1286	-15.3427	-12.7028	-0.3811	2.5131	-4.1312	-8.9657	1.6979
888.0130	-5.1086	4.2902	43.3229	7.2997	15.0849	2.7089	1.2984	0.3937	-9.8445	-29.3019	-16.2354	-8.0384	3.5338	-11.4442	-14.9123	-6.3992
896.0132	0.6717	6.6129	44.1207	11.6251	14.1573	-4.6385	9.1731	5.0657	2.3650	-4.2886	-1.5948	10.4056	-3.1316	20.2270	3.9399	12.3567
904.0133	-20.5990	-4.8660	23.1544	-5.3122	-8.1796	-10.6815	1.5477	-6.6842	-1.8966	-14.1000	-15.7995	2.9055	-2.1782	22.1922	-3.2547	1.6648
912.0134	-18.4345	-0.4417	35.8545	3.0467	5.4421	-1.7825	1.7554	-5.3809	-4.4979	-22.8799	-18.7706	-0.4352	-1.4823	5.4657	-3.6481	1.8379
920.0135	-0.4961	3.7925	44.4943	11.0451	8.9415	-9.0597	5.8441	0.4457	1.5791	-8.7386	-3.4875	12.7006	-0.2446	3.8647	0.5181	15.1412
928.0136	1.3079	5.2488	36.4625	14.0094	1.9351	-2.1603	4.1583	3.1374	-3.3600	-16.5194	-5.5315	6.3291	3.7760	8.9776	-12.6729	2.9674
936.0137	-3.2008	8.5867	35.9919	17.2504	18.6825	7.7812	7.1810	6.1741	-1.2088	-13.0766	-6.0527	4.0311	-0.9049	14.6854	-7.6570	1.9372
944.0139	-10.3538	1.1583	35.1345	5.4236	16.1594	-7.7780	3.0088	-1.5517	-0.6407	-9.3298	-9.1672	1.1437	-2.6297	1.3215	-2.1893	2.4844
952.0140	-0.0647	0.8446	39.9435	1.4351	0.2868	-9.0829	-1.6810	-2.7027	-6.0027	-16.4824	-7.7383	-3.0347	1.5157	-9.9018	-0.8028	-3.1289
960.0141	5.8714	2.9541	36.6734	2.9484	-0.9133	-6.2549	1.3176	1.4226	-6.9905	-15.1688	-6.4691	-4.6972	3.1920	-2.2237	-4.6479	-1.7735
968.0142	-4.2962	3.8938	30.5312	8.8524	0.7136	3.2231	6.4350	3.0933	-8.7285	-16.4493	-18.2908	-13.0419	4.0827	12.5690	-19.0286	-0.1517
976.0143	4.1889	10.6301	39.5718	18.4120	0.9072	16.2553	12.0640	7.8295	-3.4838	-8.8370	-11.5778	-2.4496	2.1468	21.4734	-7.5336	14.8844
984.0145	9.3468	9.6281	44.2146	13.2442	8.7707	5.8203	12.1321	7.5594	0.5432	-4.8648	-2.8700	7.9447	-0.0604	15.6595	3.6333	21.2344
992.0146	2.1688	7.7779	37.7394	7.5808	12.6173	7.3297	10.5461	6.6619	0.4207	-6.3825	-4.7218	6.0751	-1.3535	18.3512	-0.1571	13.1396
1000.0147	-0.7840	1.5309	21.9947	-0.0953	-4.2383	0.6103	3.7104	0.1600	0.1983	-4.2812	-3.9406	5.5247	0.3040	8.7080	-0.1418	8.4354
1008.0148	-4.6661	-4.2434	19.6954	-2.5986	-7.7162	-13.7873	-4.5967	-6.5059	-8.3044	-19.7478	-11.8804	-6.8706	4.6307	-15.0739	-9.1578	-5.4842
1016.0149	2.6791	4.2532	34.7662	11.2612	-0.0464	-1.3430	-2.0008	0.0571	-5.9179	-17.5606	-4.6636	-1.6015	2.4686	-6.8824	-3.5751	-6.5779
1024.0150	7.0580	2.6880	24.6155	8.0566	-5.5251	-8.3076	-1.0357	0.2645	2.4886	-1.3856	8.0588	13.2737	-0.2014	2.4505	7.3873	3.0150
1032.0152	-1.7449	0.2307	10.8914	-0.1809	4.9487	-5.7623	1.3385	0.4985	-1.8905	-10.8490	-2.1923	3.6440	-0.1106	6.7575	-0.4251	-0.4663
1040.0153	4.2723	8.7212	18.8456	11.3809	6.4516	16.7314	8.0712	7.7376	-2.5658	-10.5932	-4.5901	1.0472	0.9478	17.4558	-3.7650	6.0109
1048.0154	14.7654	8.1284	18.8700	20.7386	-7.7576	5.9477	8.2167	6.3197	0.6865	0.8612	1.8469	7.4289	4.2719	9.4471	-1.6009	20.4104
1056.0155	15.5546	8.0237	18.0550	21.1122	1.7377	1.6151	8.5168	5.5095	4.6708	6.1051	7.2174	13.1623	0.3292	5.1216	12.2912	26.6165
1064.0156	16.6247	9.1700	22.3943	14.6864	5.9812	6.9336	6.7847	6.4193	7.6662	10.3402	13.6475	17.9063	-2.5257	3.6888	18.6357	21.5091
1072.0157	11.4533	5.7433	17.3604	4.3399	1.0960	7.6544	3.6792	5.0724	1.1440	0.1554	5.2073	7.1631	1.9221	-0.3432	-0.0594	7.3740
1080.0159	8.3048	6.3008	15.4734	1.1078	2.3205	14.0796	3.8830	5.3896	-0.9148	-6.0620	1.8864	4.1473	0.3866	5.6547	3.6239	3.7865
1088.0160	11.1772	2.7556	13.8451	-3.1025	-3.7550	-1.0593	0.2216	2.3614	1.2133	-1.5876	9.0798	9.8069	-1.0140	3.6077	13.5085	3.1372
1096.0161	-0.4365	-4.6224	0.3562	-13.4808	-8.6756	-7.9111	-4.7992	-3.4634	-4.6629	-10.6452	-2.2671	-2.0605	2.9234	-6.8960	-4.6780	-9.0214
1104.0162	-7.9798	-4.1454	2.4185	-8.9165	-5.3045	1.4567	-7.1709	-6.0405	-9.3382	-20.7272	-12.6299	-12.3449	4.3499	-19.9262	-12.2144	-15.1875
1112.0163	0.4455	-0.0693	19.7977	3.5516	0.5947	-9.7688	-4.4302	-2.2298	-5.6319	-16.2127	-2.8428	-2.0415	1.7313	-9.2024	-1.4493	-9.7856
1120.0165	-1.4616	-2.0518	18.5580	1.5915	-13.0449	-15.6283	-5.7440	-3.1742	-1.3018	-8.6453	3.0530	7.7920	1.1324	6.3985	-2.4452	-11.5663
1128.0166	-3.5689	-1.3800	18.4927	7.5502	-23.0783	-2.8863	-10.9791	-6.7185	0.3034	-1.7690	2.6280	5.6023	3.3542	-13.2966	-9.4035	-14.9943
1136.0167	0.6198	2.5225	19.6311	10.1589	-1.7626	-0.2926	-3.1127	-0.8225	4.5477	6.5870	6.4441	8.9485	-0.0989	-7.3800	-2.8974	-2.8121
1144.0168	-2.3011	-0.9705	7.3593	-3.1407	7.6609	-7.1329	0.4554	0.1913	1.8097	-0.6288	1.9365	5.8623	-0.5448	1.1646	-3.7616	-1.0864
1152.0169	4.4593	8.8325	21.4331	13.5192	16.8432	17.9882	1.7251	5.6450	0.9473	-1.8228	2.4199	1.7813	0.3739	-10.7117	-6.2947	-2.7830
1160.0170	12.5421	18.9621	28.3878	22.5964	22.4992	41.5430	11.9242	14.4608	15.1023	23.1003	17.8839	22.4956	-7.6027	16.5113	16.1198	18.8260
1168.0172	3.8262	3.5388	6.7565	-1.8330	1.0729	9.3088	3.5085	2.4374	10.6161	15.9515	12.5980	18.8390	-5.4197	10.7456	16.8570	12.9470
1176.0173	2.3402	0.9078	13.3602	2.4931	5.4708	-4.7654	-4.7798	-0.4869	-1.6271	-4.5460	3.3603	-0.6595	0.3633	-13.0781	-1.4191	-11.4214
1184.0174	6.8583	6.9285	12.8593	10.2950	6.9537	10.0770	0.2480	5.2076	6.3295	7.2507	13.2784	13.7658	-2.1807	3.2912	4.0754	-1.9606
1192.0175	1.3169	1.7206	-2.5140	3.3173	-2.9194	9.1050	-1.3160	-0.1096	6.0589	5.3159	8.1508	14.5154	0.4342	-4.6432	-0.3225	4.3577
1200.0176	2.4933	7.0194	3.9017	7.4027	9.3676	19.7270	4.8680	7.1604	4.6477	9.1902	4.5696	4.5704	-0.7041	8.3595	-7.2623	1.3248
1208.0177	0.7082	1.7185	-6.6288	-4.0981	-6.9099	10.6217	4.4230	3.7798	6.2111	18.3739	4.9282	3.8387	-2.6318	20.4768	1.7507	4.9628
1216.0179	-12.6974	-5.9539	-12.0169	-6.3395	-4.1849	-0.1451	-3.1373	-8.3109	-0.9952	0.2639	-10.4634	-8.6725	-1.5070	-13.1712	3.9870	2.9462
1224.0180	-6.4839	7.3820	2.6688	10.7159	26.3602	22.6738	6.4817	5.1681	8.5941	16.6834	2.2175	1.7692	-8.0738	5.6404	8.4315	6.8597
1232.0181	4.0376	5.2965	-4.1816	1.8607	3.8914	14.3855	3.2822	6.8887	13.1729	31.7079	17.5578	12.4095	-6.1822	18.3780	6.5765	0.9854
1240.0182	-3.6227	-4.5642	-11.1699	-8.2455	-14.5904	-0.2658	-6.7920	-5.3789	0.7455	7.3212	1.1796	-3.6906	-0.1611	-9.0970	1.3745	-8.1635
1248.0183	-8.3582	-4.5502	-17.5718	-3.3384	-11.9208	1.5786	-3.5505	-5.6243	2.1983	10.4343	-2.7127	-4.7423	-1.5248	-3.0057	2.5657	-0.5127
1256.0184	-13.0175	-8.0984	-29.7610	-2.8640	-12.9932	-4.9767	-6.0822	-7.5836	-1.8509	2.6675	-8.1260	-10.3196	2.7867	-8.9308	-13.6818	-7.7568
1264.0186	-14.1529	-3.5253	-26.8227	-0.7618	11.6316	7.2194	-0.5936	-3.0011	-9.3340	-19.3611	-19.0086	-19.7619	2.8257	-11.0714	-14.5647	-6.8282
1272.0187	-7.2082	-1.2655	-27.1644	-4.0604	15.9786	7.3158	5.7758	0.6023	-0.2746	0.0772	-7.6176	-8.1407	-3.9642	5.2176	9.0223	10.3750
1280.0188	-9.3465	-9.3739	-32.7982	-15.6661	-10.1025	-6.1288	-6.1679	-8.0922	-1.5699	2.3038	-4.6456	-9.0873	-0.7603	-9.8070	4.1762	-4.9028
1288.0189	-5.6649	-6.1722	-28.9869	-12.5645	-9.6079	3.3212	-7.7089	-5.0061	-10.7479	-17.5738	-11.0187	-18.7388	4.6859	-15.1492	-9.9459	-17.7700
1296.0190	8.9510	4.8786	-17.1495	8.5909	12.1299	9.7280	4.2191	6.3841	-1.9011	-0.1078	2.1426	-6.7144	-0.2965	1.4757	5.4975	3.5591
1304.0192	16.8461	7.3171	-14.4132	11.5644	13.8124	6.9534	7.5019	9.0215	9.8052	21.0910	19.0352	13.1842	-5.1087	10.6897	22.5616	18.3863
1312.0193	9.1579	-6.8172	-35.2256	-14.2138	-10.8712	-14.4471	-2.8199	-1.6258	-2.1332	-2.0105	6.5435	1.8554	3.7685	-4.4542	3.3415	2.0150
1320.0194	-4.4839	-15.9744	-42.6521	-20.2875	-21.8969	-26.6354	-13.1816	-11.4235	-18.5446	-29.4581	-16.5174	-26.1932	12.2181	-30.3526	-23.3625	-22.0338
1328.0195	3.1952	-2.8640	-28.4442	0.0747	-11.1063	1.9524	-4.9124	-2.1109	-8.2755	-11.2564	-5.2711	-13.6542	5.7420	-13.4653	-6.9368	-7.8710
1336.0196	12.7736	2.9826	-27.0476	6.7625	-4.1837	8.2713	3.0533	4.1368	5.2814	11.9094	12.2438	9.0944	-0.1574	4.2472	12.5297	14.2614
1344.0197	8.5797	0.5001	-29.5079	2.6671	-1.3403	5.0365	-3.2004	2.8324	4.6929	12.4976	14.2362	6.4365	2.1313	-7.9613	-4.3641	-4.0269
1352.0199	7.4401	2.8562	-31.0950	-1.0070	5.4557	14.7867	-2.3525	6.9720	6.6448	16.3781	17.8378	7.6626	0.7123	0.6175	-9.7913	-12.5825
1360.0200	-4.6511	-4.7961	-41.6015	-11.8471	8.1646	0.1124	0.4830	0.6422	3.7631	10.3859	4.2235	-0.0837	-1.6014	3.9513	-2.5050	-1.3725
1368.0201	-9.8082	-8.3444	-48.6701	-19.1285	-5.8891	6.0305	-4.4028	-3.6892	-2.8005	2.6435	-6.1597	-13.4952	2.8596	-7.7208	-15.1827	-11.4075
1376.0202	1.3280	-4.5109	-48.2408	-19.3324	-4.2039	10.2308	-3.4826	2.3337	-0.9686	7.6949	4.4641	-8.2174	3.4744	-2.6119	-15.4654	-15.1072
1384.0203	-3.1267	-10.7023	-49.9890	-24.4297	13.5626	-19.5581	-1.4757	-1.8580	-3.2817	-0.9761	-0.2314	-10.4988	-0.5698	-4.4999	0.5596	-6.0109
1392.0204	-4.5512	-10.5389	-51.9468	-24.1483	-1.7134	-7.2913	-4.5489	-4.9266	-7.0280	-6.7268	-6.5103	-17.1421	1.3210	-10.5891	1.3707	-8.0496
1400.0206	0.8853	-6.8581	-47.6400	-17.3521	-11.8121	0.9031	-3.2594	-2.2143	-4.5062	0.4851	-1.9124	-12.9069	1.8013	-1.9667	2.0688	-5.3147
1408.0207	-3.9525	-12.9173	-49.8833	-17.6250	-3.4714	-29.5563	-1.0317	-5.4933	-5.9987	-2.9859	-6.3431	-14.8700	0.0519	4.2504	7.1418	1.5736
1416.0208	-0.2202	-11.3160	-54.4913	-10.7899	-17.9512	-21.2658	-2.2750	-5.8467	-6.9922	-3.7177	-6.4258	-14.8667	2.8828	3.1342	5.8440	3.6295
1424.0209	6.8806	-5.2720	-46.7600	-3.6714	-16.9048	-5.7277	-1.0951	-2.0149	-2.2336	2.6913	2.0215	-4.9994	2.5694	1.0419	8.7635	7.8701
1432.0210	7.8941	-2.3696	-42.4087	-10.6790	7.3154	0.0609	2.3955	2.8628	1.4735	5.9848	7.7559	0.0091	-1.5064	1.4676	12.9598	7.4267
1440.0212	14.2113	3.5052	-40.5712	-7.8667	13.6310	15.8452	4.0275	8.8814	3.5252	12.2768	14.1799	0.4905	-2.9082	5.0243	14.2948	3.2773
1448.0213	15.6356	-1.1999	-42.3552	-7.7371	3.1328	-3.3103	0.5717	4.7706	0.7289	9.5704	13.3228	-1.9083	-0.4941	0.3611	13.6399	2.1101
1456.0214	3.3160	-11.0670	-55.7642	-21.3978	-5.0724	-16.5923	-4.3646	-4.9102	-6.3674	-4.3425	-1.2786	-13.6043	1.9462	-12.9028	9.0550	-1.1178
1464.0215	-4.9667	-7.9697	-52.8755	-17.7640	3.7736	1.2370	-4.2058	-4.2426	-5.5811	-1.7362	-6.3294	-20.0895	-0.5493	-15.6167	5.4885	-6.8739
1472.0216	-0.9499	-4.3319	-38.9136	-10.5374	15.1563	-4.9939	-1.0773	1.0592	2.9977	16.4174	6.4803	-8.4877	-3.9506	-4.2890	5.0964	-6.1126
1480.0217	2.1030	-3.3785	-29.8843	-10.4950	15.2732	-9.4485	3.4448	2.7280	6.1873	22.0786	9.0019	-1.8960	-5.4517	6.1226	10.9623	4.8205
1488.0219	2.3077	1.9945	-13.4464	-0.7000	13.3469	4.1545	7.8963	4.7198	5.5456	21.4618	3.0606	-5.1417	-6.5371	13.0182	15.2033	12.7865
1496.0220	1.6690	0.9975	-8.0101	-4.6522	7.6020	2.5127	6.5690	4.1663	7.7409	26.2507	5.8422	-0.7260	-5.8152	14.4051	9.7289	9.9898
1504.0221	-6.0300	-8.7856	-10.7844	-24.5825	-6.7187	-12.5830	-2.4282	-4.9988	0.7645	11.3530	-2.1288	-7.1771	-1.8517	-1.5059	1.2032	-3.6377
1512.0222	-9.8656	-11.6187	3.3218	-23.9100	-15.0955	-21.4986	-8.9172	-10.7741	-7.6559	-7.8690	-11.4544	-15.6180	1.5425	-15.3219	-3.7500	-14.7566
1520.0223	-4.5259	-4.7087	12.9112	-12.1497	-2.1464	-13.7604	-4.4036	-4.3958	-0.6842	-0.8019	-0.5931	-0.8745	-1.3109	-4.9631	0.9288	-8.6329
1528.0224	-9.0276	-5.3685	9.8553	-12.5926	-0.5351	-14.1578	-4.8063	-4.3417	-0.0280	-1.8746	-0.7072	0.8902	-1.9004	1.2939	-2.8868	-13.0338
1536.0226	-14.0192	-7.2372	18.6366	-4.5078	-17.1522	-18.7005	-9.6550	-9.3364	-4.3365	-8.7060	-8.3149	-5.1721	1.7548	-4.0470	-12.6094	-19.7467
1544.0227	-2.2975	-0.0007	33.4485	9.5542	-14.3315	-10.5614	-5.5690	-4.0886	0.8803	-0.2214	1.0601	6.2285	2.1376	-4.5149	-8.8471	-7.7765
1552.0228	0.2955	0.1531	38.6021	7.0356	-11.6776	-12.4541	-6.2189	-3.0345	-2.1860	-6.0482	-0.0686	3.2616	4.4078	-9.7309	-15.4621	-12.6657
1560.0229	-3.5130	5.1331	44.6429	12.3947	-7.5622	5.5830	-1.2808	0.3984	-0.1349	-4.4266	-3.3165	4.4371	2.1315	3.2887	-15.0656	-8.1057
1568.0230	4.4658	14.7494	48.2584	21.9450	3.6776	26.1565	8.8811	10.2453	10.1805	13.4391	8.5874	19.4877	-3.2196	26.5601	-2.5778	8.5486
1576.0231	-1.8844	1.7517	39.2094	8.6135	-12.0121	-8.0532	-4.0076	-1.0846	3.4723	4.4312	4.8193	10.7465	1.4374	4.6994	-13.1147	-10.4614
1584.0233	-12.5139	-7.7928	33.7030	-0.9388	-18.7488	-24.4160	-12.4628	-12.5276	-4.3225	-12.8415	-8.0306	0.0981	4.7185	-22.0298	-17.2456	-17.0777
1592.0234	-7.4320	1.3990	36.8977	5.7634	-7.3860	5.1688	-4.0725	-4.5809	-3.0189	-14.6503	-9.0139	2.8110	4.0888	-14.2377	-15.4096	-5.6527
1600.0235	-3.0309	7.9856	45.6885	17.2588	-1.9268	17.0581	-0.9624	0.3417	4.0022	-3.6269	0.4767	14.2248	1.3484	-6.1224	-10.5179	-0.4810
1608.0236	0.6542	10.7799	55.6419	24.4773	10.2034	9.4093	4.8684	2.8558	11.1615	6.4593	8.5160	26.6014	-4.5137	5.4348	8.4346	15.5914
1616.0237	-0.4309	8.3342	52.1102	16.8822	4.1007	3.8090	7.5171	3.7488	5.4178	0.5514	0.1440	16.0071	-2.5838	18.5703	1.9484	13.4263
1624.0239	-0.7748	6.8292	45.2647	11.6604	-4.9864	9.9337	4.1908	1.3214	5.0543	4.4487	-0.4046	11.6571	-1.9370	10.0516	2.3232	10.1703
1632.0240	3.7085	7.4736	45.0354	10.6798	3.0859	9.7259	1.6309	0.9822	4.9680	1.1468	4.3114	13.8430	-2.6315	-4.5276	9.9719	8.7857
1640.0241	1.0498	4.2125	48.2105	9.8368	-0.6057	-3.6594	-3.2360	-0.5014	-4.5215	-16.5364	-3.3448	2.4283	2.7134	-7.9576	-8.6166	-10.1586
1648.0242	6.0533	7.8926	50.9906	18.3724	3.8665	-0.0529	0.7777	2.4172	1.1568	-4.7044	3.0609	9.5583	0.4392	-4.0709	-0.6850	1.4835
1656.0243	6.4237	9.7670	41.8066	17.8563	10.3109	7.3436	4.4338	5.5594	4.5318	0.9807	6.2896	13.2992	-2.0534	5.5050	4.1374	6.5131
1664.0244	-3.6631	5.1616	38.3660	13.2999	-0.0774	-0.4914	-0.2535	2.3607	-0.9990	-8.1297	-1.5706	4.2606	-0.0698	14.0823	-9.8484	-11.5074
1672.0246	-2.0851	1.1894	43.3138	11.9598	-8.0334	-15.2174	-3.5570	-3.4346	1.0354	-1.6634	0.9177	6.8609	-0.8108	1.1282	0.6322	-4.6186
1680.0247	-2.8430	-2.0990	35.9558	5.2448	-12.4063	-15.4569	-7.9166	-7.6013	-2.9611	-8.8333	-3.2171	0.7858	1.6082	-16.5778	-0.5252	-7.9200
1688.0248	1.8047	7.5566	37.1758	16.7633	4.7689	8.9477	-2.0326	1.7572	-2.2990	-11.2062	-0.8261	1.5727	0.3372	-6.8729	-2.0181	-8.2514
1696.0249	12.5333	14.8079	38.6484	28.0305	22.0944	13.0959	9.3976	11.4147	7.1859	8.1664	11.1423	14.3202	-3.7958	11.7908	8.1589	12.5712
1704.0250	8.8114	6.3601	23.0055	13.8018	2.2523	-1.1496	6.4877	5.6868	6.3160	10.4579	8.6400	13.6315	-1.3107	14.8233	4.2029	13.2384
1712.0251	5.8052	3.3740	20.6844	8.1063	-7.0100	2.1706	-0.2663	0.0048	-2.0674	-10.5285	-0.3095	6.0066	2.9282	-4.4408	0.4206	4.3063
1720.0253	5.0873	5.5946	25.1467	14.9483	8.0997	4.2640	1.6521	1.4789	-5.6030	-19.7157	-6.0931	0.0192	4.0116	-13.8362	-4.4438	4.9503
1728.0254	6.5724	7.0854	22.8121	15.3012	9.8456	3.8288	6.2969	5.5740	3.3011	3.0962	3.4767	8.1400	-0.1935	5.5580	-0.4294	11.0587
1736.0255	8.8334	5.9354	23.5839	10.8464	3.1540	2.0120	2.3920	4.4804	4.0467	6.7077	8.1904	9.5048	0.2101	1.0943	-0.5347	4.2324
1744.0256	6.7626	2.8144	13.8203	4.9007	-1.5289	0.3662	2.1862	2.5539	-3.4835	-8.4910	-2.1552	0.1635	4.2474	-2.1464	-7.7792	3.1483
1752.0257	11.1682	4.0803	0.1560	-1.4409	-8.9275	10.4939	8.2639	5.4344	3.3209	4.9606	4.5460	10.8866	0.9591	17.5931	6.9550	20.1224
1760.0259	3.2377	-0.1703	1.2374	-7.6290	-10.7691	7.5422	-0.3762	-0.6280	0.0176	-2.3839	0.6341	5.0079	2.4655	-2.7239	-1.2464	3.8381
1768.0260	-9.1319	-2.8913	8.3305	-6.2073	-1.9802	2.8449	-3.9590	-5.1356	-6.9973	-18.0386	-13.1646	-8.3390	3.5922	-15.6207	-12.2481	-7.9860
1776.0261	-0.8560	3.0507	14.5644	2.1869	5.2041	6.5903	4.0604	0.9762	2.7875	1.3047	-0.9032	5.3098	-2.8098	4.5064	8.1728	10.1221
1784.0262	4.9741	3.3847	12.7097	7.0470	6.9570	-2.4143	4.3589	3.0707	1.7634	1.5033	2.5275	4.8595	-1.1441	5.1775	5.2718	8.8754
1792.0263	0.3938	1.4685	0.7626	3.4428	-0.5382	4.0252	5.3794	1.4492	-2.3912	-6.1049	-7.1015	-2.1395	1.5145	7.0317	-1.1728	11.0938
1800.0264	-4.7800	1.0856	0.2456	-1.3554	-12.1158	17.6586	2.3594	-1.0875	0.3351	1.6040	-7.5495	-1.7962	1.0169	4.4184	-3.6040	7.2422
1808.0266	-4.4759	0.7690	11.0246	4.0081	-7.3134	6.6443	-1.3761	-1.2218	-3.4082	-4.7233	-8.1645	-6.7868	3.4315	-4.1715	-14.7378	-5.8257
1816.0267	-2.6498	-0.2476	10.6934	4.2600	-5.5572	-0.8644	-0.4038	-2.5598	-5.4661	-14.2805	-9.5950	-4.2058	3.2435	-4.5806	-5.5584	1.3187
1824.0268	-5.9605	-2.9696	8.3830	-0.3838	-12.4661	-1.3084	-4.9425	-6.9288	-6.1513	-17.5318	-10.5202	-3.8471	3.4233	-13.2227	-3.1472	-2.3812
1832.0269	-2.4549	-0.5695	12.0509	6.3557	-5.5346	-7.1751	-0.1055	-2.2344	-4.2252	-11.4365	-7.2846	-2.1413	2.2825	1.2128	-3.9338	1.1720
1840.0270	0.8027	3.8027	13.4425	9.1864	-0.1193	2.8276	5.8930	2.7720	-0.2895	-3.1894	-3.9277	1.9740	-0.4853	15.1058	2.2168	9.8404
1848.0271	3.7110	8.7811	19.6727	11.3477	3.2203	22.1974	4.1539	5.4812	1.6418	0.2793	0.5515	3.4892	-0.6078	6.0090	-0.1734	3.5215
1856.0273	7.4763	8.0298	17.0481	10.8811	5.4102	12.2098	8.0759	6.3953	6.5349	7.1057	7.0178	14.5195	-2.7920	15.6852	10.3203	17.0417
1864.0274	-1.4837	-2.1372	3.2362	-0.9650	2.1341	-12.1630	4.6239	-1.4480	1.1961	-4.4403	-2.3009	8.0949	-0.8771	8.6219	7.0803	15.7040
1872.0275	0.8937	1.4628	6.8035	1.2789	9.9254	-0.0079	2.2709	1.4722	-3.0857	-11.9702	-3.7240	0.1764	1.3717	-3.0897	-2.6436	2.5273
1880.0276	7.2408	7.3361	6.0641	1.0181	6.1830	20.0567	6.5259	7.0925	4.2599	3.1752	6.4196	10.2304	-2.6094	14.0571	9.4707	9.6528
1888.0277	-4.2108	-3.4850	-13.8453	-11.3032	-7.3967	1.3486	-0.2012	-1.3155	-0.9153	-1.4483	-2.8194	-1.2674	0.4520	7.8462	-2.5627	-1.7512
1896.0278	-3.6203	-7.1349	-19.8662	-11.0538	-4.6214	-14.3367	-2.9677	-2.5728	-6.1513	-8.5120	-5.9765	-9.3253	4.6463	-2.5561	-15.4128	-9.7884
1904.0280	2.1159	-1.6094	-12.4208	-11.8157	1.2380	1.0426	1.1848	2.3955	-6.4921	-10.7593	-4.9828	-9.1320	2.7497	3.9311	-6.8957	-6.0863
1912.0281	-1.6101	1.6329	-8.1846	-6.0334	14.3360	8.5883	4.1649	4.9412	-8.5082	-16.3162	-10.5005	-14.9967	1.0038	7.6674	-7.4157	-7.4931
1920.0282	-0.1255	1.2724	-14.2477	1.3182	15.4888	-1.5467	7.4477	5.6068	3.5768	4.1803	3.1582	5.8342	-2.1440	19.0040	-0.2393	8.3072
1928.0283	-9.3327	-9.4862	-30.1352	-15.3306	-6.8501	-13.7270	-0.5851	-4.7324	0.9206	2.5369	-3.2894	0.9301	1.2765	6.1113	-7.5870	2.3900
1936.0284	-23.0703	-18.0886	-34.9201	-23.0651	-10.3992	-26.1196	-9.5612	-13.8663	-17.2034	-26.1332	-29.0551	-33.3448	7.5714	-20.1190	-27.9613	-21.5507
1944.0286	-13.3132	-10.4846	-24.8834	-16.5257	-1.8592	-14.4228	-5.1592	-6.9718	-10.5945	-15.9263	-16.4222	-21.4377	3.0448	-8.6780	-12.9969	-14.9127
1952.0287	-2.7904	-1.4065	-15.1430	-11.8714	4.3134	5.4151	0.5694	1.4641	-0.9843	-0.9419	-0.7824	-4.0845	-1.8028	7.5407	1.3840	-5.7526
1960.0288	-5.2644	-3.3952	-15.4002	-2.8337	8.7278	-9.4626	1.9508	-0.6603	-2.2590	-2.4746	-5.3014	-7.5687	-1.5933	5.5490	1.5986	0.6743
1968.0289	-2.7244	-3.7717	-23.3740	-5.3553	3.0654	-5.3958	2.0328	-1.5337	-0.8289	0.6642	-3.3124	-5.1496	-1.9434	3.8435	8.8851	6.9400
1976.0290	-5.0292	1.3139	-23.4563	-7.8059	11.0307	20.3692	1.4830	2.3948	-1.6364	-2.8683	-3.9192	-8.9107	-3.4208	4.1052	5.8137	-4.8633
1984.0291	-11.3709	-1.5192	-22.8897	-1.6481	21.7259	2.3735	-0.3144	-0.2836	1.1698	1.2876	-1.6890	-6.5953	-6.4938	2.7274	8.1690	-7.3215
1992.0293	-10.8720	-6.6395	-31.2814	-8.7680	16.4545	-11.2070	-3.0159	-4.3187	3.7051	7.7559	2.6238	-2.3408	-6.7233	-4.0814	13.0671	-3.8591
2000.0294	-16.7514	-8.1834	-33.0084	-14.0780	13.8288	-7.1824	-5.7660	-5.4094	-0.7410	-0.3785	-3.9103	-10.0937	-4.6302	-5.5293	1.1825	-16.1540
2008.0295	-20.6801	-11.3710	-32.8199	-13.4325	6.2787	-18.6624	-9.4111	-8.5817	-2.7747	-4.4165	-5.5056	-11.7823	-4.2214	-2.3016	-0.5709	-23.6023
2016.0296	-14.8189	-9.7051	-34.6881	-14.8290	2.3098	-9.6485	-10.3594	-8.0027	-2.7687	-2.7953	-2.8909	-11.8612	-3.1934	-11.0273	2.7565	-21.8670
2024.0297	-6.0717	-4.6656	-29.4596	-9.2420	4.9244	1.0114	-6.3867	-3.1357	-0.9792	3.0835	0.7064	-9.7525	-1.7765	-12.4771	0.9193	-14.4417
2032.0298	-0.1319	-5.3378	-34.0941	-14.3537	-8.0927	-0.1812	-3.7203	-1.6577	-1.1436	6.6694	1.8762	-8.5843	-0.0468	-1.2597	1.8398	-7.8728
2040.0300	-7.9688	-9.6358	-44.9109	-26.2885	-9.0179	0.2968	-6.8599	-4.3316	-5.3608	0.1159	-5.1790	-17.8960	1.0595	-4.8083	-6.9105	-19.1727
2048.0301	-8.5970	-11.0700	-39.5791	-19.0128	3.8900	-18.2645	-9.5179	-5.3241	-4.9634	-0.5245	-1.4549	-16.6994	0.4528	-13.5318	-8.8845	-25.0513
2056.0302	2.4667	-6.5811	-35.1526	-8.0253	-3.0597	-13.2015	-6.1916	-3.1408	-1.4100	5.3936	5.2234	-7.5154	0.4391	-11.6250	3.8786	-8.6124
2064.0303	-0.3641	-4.8262	-42.1253	-10.0842	-11.5253	9.1034	-5.2357	-4.3955	1.8608	10.4739	3.5070	-4.4179	-0.5004	-13.2276	9.0295	0.0702
2072.0304	-7.7994	-10.8624	-45.4741	-18.3147	-7.9572	-6.7766	-11.1510	-8.9358	-1.4983	2.7424	0.7046	-9.0243	0.1510	-22.1568	1.8609	-14.2122
2080.0306	-10.5019	-12.3340	-42.8532	-18.3708	-3.5418	-14.3070	-13.0784	-9.1675	-7.9458	-10.8452	-5.5448	-17.0579	3.0597	-25.2814	-10.0702	-25.4862
2088.0307	-3.1427	-6.8985	-39.7224	-9.7331	-0.8673	-5.0996	-6.3416	-4.0514	-3.3879	-1.9120	-0.7049	-9.9249	1.7416	-15.0403	-3.0452	-10.3523
2096.0308	7.0464	-7.1346	-42.1017	-13.2709	-4.1908	-13.6973	-3.1609	-2.2187	-2.8849	0.6440	4.4275	-6.0072	1.4353	-8.8427	8.9627	0.4996
2104.0309	1.0638	-10.2984	-45.3088	-19.9569	-5.4326	-14.7100	-7.7347	-5.2946	-8.5157	-10.0568	-2.6147	-15.4571	3.4014	-17.6013	0.3688	-12.4879
2112.0310	-1.5032	-8.9612	-44.5974	-14.7074	-5.5480	-10.8839	-8.3771	-5.1641	-4.3695	-1.5279	1.1270	-11.7209	1.1399	-13.9716	2.1282	-13.7739
2120.0311	5.1064	-7.1869	-46.9011	-9.8502	-14.1184	-11.8647	-4.6146	-2.3635	-3.4622	0.5807	4.1165	-6.8016	2.0506	0.5474	5.7174	-4.8669
2128.0313	11.8154	1.0050	-43.8174	1.7450	-6.2515	10.3807	1.2706	4.8323	-2.5785	0.6105	4.8767	-4.8169	4.0180	2.2655	-0.6596	2.3487
2136.0314	19.9748	9.7016	-39.7202	11.2313	12.7289	28.5511	10.1646	13.0887	7.7986	20.7326	16.1301	6.9272	-0.8812	8.1924	10.4689	20.1556
2144.0315	15.1441	-1.2017	-50.3178	-5.5851	0.0038	-1.5459	7.3568	6.1349	8.0381	23.0817	15.8144	9.6217	-0.6542	13.1329	12.3717	21.9332
2152.0316	2.6555	-15.0379	-58.0975	-22.0250	-21.3388	-28.8195	-5.8009	-7.2072	-4.5238	0.0426	0.7123	-6.5261	6.0797	-7.7157	-3.9628	0.0619
2160.0317	-0.7741	-12.1858	-51.5128	-15.1552	-15.3015	-16.3687	-7.7762	-8.0376	-10.3266	-9.5986	-8.7572	-20.7460	6.3959	-21.9152	-5.6549	-7.2142
2168.0318	7.0605	-3.5454	-36.7551	-2.7634	-5.7932	-4.1144	-0.0766	-0.3696	-1.4193	9.4125	1.6060	-10.4796	1.3872	-6.5159	5.7651	5.7224
2176.0320	14.8154	2.8821	-20.8021	-1.2574	-0.4765	7.2492	4.3824	5.7748	7.1082	27.2782	13.8217	1.0496	-3.0391	4.3237	15.5602	12.0833
2184.0321	11.2575	4.0772	-14.7857	-6.8877	10.8140	14.2400	4.9336	6.8797	7.1578	28.6228	11.8514	-3.9194	-6.0118	2.2475	17.3574	7.0104
2192.0322	6.7750	0.1249	-12.3374	-9.8890	6.0596	1.9927	1.6359	3.1766	6.8419	26.8108	11.1581	-2.4321	-5.4922	0.9980	13.9405	2.2692
2200.0323	0.2235	-3.6125	-6.6955	-13.8659	-12.0926	2.6265	-5.6491	-3.1771	0.6227	11.1233	2.3474	-6.3471	0.1437	-11.1920	-0.6493	-9.2716
2208.0324	-3.9326	-4.3817	0.3794	-11.3207	-15.5785	2.3905	-7.9047	-5.2544	-3.1012	0.3731	-3.9252	-8.3891	3.9146	-17.7415	-13.6707	-14.5535
2216.0325	-0.1382	-4.3223	10.7754	0.7571	-15.9851	-17.2618	-5.4727	-5.4973	1.2023	4.9376	2.5739	3.9082	2.3865	-8.0482	-4.5698	-2.5764
2224.0327	-3.2756	-2.2965	25.9388	8.4907	-10.2475	-17.9582	-3.1998	-5.9969	-2.3545	-6.1416	-5.4075	-0.0696	1.2821	-5.9436	0.0257	1.0794
2232.0328	6.4731	12.1777	49.9054	24.3798	17.6961	6.2866	9.8427	7.5515	4.6192	-0.4064	3.0168	13.1884	-4.0377	14.6101	10.3330	16.3731
2240.0329	24.1823	23.6375	61.7815	38.1859	23.3161	21.8334	19.6624	18.5325	18.3097	19.4592	25.2495	41.9545	-8.6024	37.9981	29.6218	39.3020
2248.0330	17.5538	16.0344	53.9497	30.1100	4.9031	14.6327	10.6835	9.5821	10.5405	8.6087	14.3813	28.7852	-2.7159	15.6038	16.4387	27.6659
2256.0331	12.5303	15.2067	57.5157	30.4741	6.9932	17.1189	8.5537	7.5998	7.0458	5.1862	6.8972	18.5286	-1.1158	3.9817	7.0014	20.9328
2264.0333	19.5551	21.2917	62.6604	38.0999	6.7344	29.8467	11.8177	13.0293	13.6089	15.9367	17.3750	30.9774	-2.5179	14.5751	10.6737	26.7314
2272.0334	17.3406	16.0295	54.1687	29.7254	0.2790	18.9178	7.9965	10.0359	11.5597	13.7243	16.4481	28.9650	0.5479	9.2840	0.4661	19.4591
2280.0335	5.1503	8.8848	45.3101	16.4543	2.0091	9.1915	7.0884	3.9927	7.9779	6.4817	5.0264	20.3907	-0.7157	7.0840	1.3026	19.2095
2288.0336	-8.8218	1.2636	36.8756	8.3858	-7.2820	1.6395	-0.2878	-4.4808	0.1483	-7.0387	-9.1326	5.2419	1.6555	-4.3026	-8.9233	4.4715
2296.0337	-5.6693	1.4613	41.1864	13.0005	-6.0630	-8.1005	-2.1657	-2.1820	-1.7197	-6.2198	-6.3723	1.6423	4.1511	-3.6578	-21.4628	-7.2237
2304.0338	9.3337	12.3006	50.2627	18.2605	4.2817	13.8760	9.1144	9.0666	7.0917	6.5190	7.1850	19.1933	-0.0884	17.1854	-4.3378	13.5611
2312.0340	10.2665	10.3688	44.6955	12.4966	-3.1901	18.2482	4.7177	5.4916	5.9906	1.6788	7.4747	20.9719	2.2322	1.3508	-4.0257	12.6659
2320.0341	6.8316	4.2198	46.2401	15.5277	-3.1534	-10.7558	-1.0564	0.5589	0.9015	-4.7501	4.0306	12.4981	4.5357	-8.7819	-12.1192	1.0118
2328.0342	9.8312	8.0969	52.6258	20.0250	7.3266	-8.3818	4.6541	4.9720	0.0962	-5.7513	2.6008	9.3521	1.5541	3.2276	-3.1117	6.6577
2336.0343	6.8783	7.8820	46.2884	13.4333	10.1305	0.6672	3.8932	4.5640	2.6548	0.6758	3.9701	8.8676	-0.8662	0.3318	0.4389	4.9914
2344.0344	1.4543	5.3319	40.7858	11.4010	8.9164	-5.7466	4.8089	3.2228	6.8758	10.6712	5.5433	12.0555	-3.6695	10.5310	2.9155	7.5529
2352.0345	0.9749	7.1386	36.8704	9.1930	6.0273	9.4988	6.0985	3.9468	3.8999	2.3655	0.0095	8.9588	-2.2214	10.2641	1.8265	9.4292
2360.0347	-1.5262	4.1732	29.5726	0.3082	1.5417	13.3985	1.1844	0.3554	-0.2158	-6.7226	-4.2223	3.8364	0.5552	-5.3042	-3.5212	1.8863
2368.0348	-4.9963	-2.2441	29.2815	1.3047	-5.1886	-14.4846	-0.8369	-4.3763	-4.9133	-12.5076	-10.2902	-3.0760	2.3175	-3.2185	-6.6204	-0.1478
2376.0349	-4.6199	0.2382	31.6103	9.4350	-2.8603	-10.0041	0.9346	-3.3013	-6.5809	-16.2411	-13.6796	-6.2531	2.4552	-2.4022	-5.5579	2.7483
2384.0350	-3.7309	5.6785	24.5224	7.7363	7.1701	13.6771	6.3357	2.0515	1.3603	-5.1374	-6.2314	4.9010	-2.0993	8.3429	3.3833	11.7749
2392.0351	-5.8507	2.3910	17.8361	6.5146	8.0832	-0.6531	5.1757	1.6182	-0.8591	-8.4541	-6.9487	2.2014	-1.0632	13.8111	-3.0501	4.9526
2400.0353	-7.4247	0.3145	17.3690	10.0914	0.0290	-5.8695	-2.2884	-2.0495	-5.9013	-15.6233	-9.4868	-6.1975	1.7377	0.9759	-9.9199	-10.1980
2408.0354	-4.4340	3.6498	15.3746	8.1391	-11.1530	14.1080	-0.6071	-0.6929	0.3315	-3.2250	-3.5353	2.6532	-0.3046	7.6608	-0.7273	-1.5151
2416.0355	-2.8901	3.7131	14.7063	10.5286	-6.0494	8.7300	1.1559	0.9645	2.8169	2.6695	-0.2248	5.9629	0.0512	8.9594	-5.1918	1.1667
2424.0356	-1.4265	2.4292	12.2951	9.6515	10.9702	-3.4723	2.1005	1.9643	3.1991	4.1706	2.1820	4.7091	-0.9955	1.6275	-4.6727	1.4836
2432.0357	-0.1941	2.1196	8.9544	0.6582	15.2624	-0.9260	8.9037	3.1276	1.4492	0.0730	-4.0532	1.9210	-2.6217	9.5804	6.2396	16.6345
2440.0358	-5.4861	-1.0320	8.3022	-1.8613	12.2962	-5.9472	5.4819	-1.0228	-1.9289	-8.2425	-9.5350	-2.3072	-1.7307	2.6492	4.5108	11.8792
2448.0360	-3.2487	-4.4046	5.5441	-7.3860	-0.2662	-10.9917	-4.4236	-5.3218	-1.6034	-7.0670	-1.7944	1.2984	0.7882	-14.7603	0.5247	-2.5774
2456.0361	5.7512	2.7426	14.5769	-1.2003	-4.5089	8.0999	-0.8765	1.2411	-3.6190	-9.0219	-1.4873	-0.6267	3.5479	-8.1064	-5.2655	-2.5331
2464.0362	6.4572	11.1235	22.6336	15.3409	7.7647	23.2870	6.2184	8.6094	2.3475	2.2910	2.7323	4.3342	-0.7500	10.9631	-1.9924	3.5323
2472.0363	3.5808	5.6327	15.7058	10.3265	4.3725	7.1279	3.2553	3.5257	8.5390	14.2107	9.7911	13.6022	-3.5058	7.3637	7.0344	8.3353
2480.0364	2.3676	4.5668	19.3309	12.6130	3.1162	1.1192	3.6869	2.2612	3.5072	3.4661	2.4983	7.8684	-1.3545	6.4616	3.5764	8.8374
2488.0365	4.3645	7.5342	16.6823	18.2752	1.4255	5.9787	6.1918	6.2068	4.7889	5.6669	5.5573	10.8222	-1.9231	22.6546	2.9709	8.1887
2496.0367	-0.0209	-0.9133	2.6988	0.1378	-11.2868	-3.8908	-0.6536	-0.9239	2.5552	2.4755	3.6158	8.6432	0.4680	9.3121	-0.4043	1.5131
2504.0368	-10.5692	-4.8541	1.9623	-8.4658	-4.1918	-5.9659	-3.4693	-4.9543	-6.9192	-16.2675	-12.0721	-8.9286	1.6742	-1.7405	-7.9871	-10.2050
2512.0369	-10.7540	-3.8440	1.3496	-7.4553	-1.8530	-5.3303	-5.1661	-3.0911	-7.4667	-15.8452	-9.5404	-11.2414	0.8174	3.0314	-10.2922	-20.9314
2520.0370	-6.9249	-1.2499	6.3019	-5.0820	-3.7126	3.8395	-7.5847	-2.6852	-4.7428	-11.8847	-3.5462	-5.7144	1.0688	-6.3638	-9.0688	-22.4269
2528.0371	-3.9680	2.7948	8.3284	-1.4385	2.3262	13.0144	-0.2012	1.0889	-1.6582	-7.9974	-3.2140	-0.9716	-1.5969	5.3082	1.2230	-6.5472
2536.0372	-1.6774	-2.2212	-0.3166	-5.6865	-5.1314	-4.7699	1.0386	-0.9793	-3.8826	-8.5110	-5.8845	-3.3020	1.3228	6.7404	-1.5741	0.6534
2544.0374	2.0366	0.5916	9.1691	5.2529	3.3740	-4.7259	2.0795	-0.1479	-6.0802	-13.5973	-8.4562	-6.2632	3.3906	-6.9545	-4.4854	4.8947
2552.0375	6.8502	2.6865	8.5817	6.0408	4.1258	-3.4819	4.8633	2.6394	0.5554	-3.4281	1.7517	6.8513	0.5354	4.1784	5.4063	13.0803
2560.0376	-6.0049	-7.9668	-1.3219	-13.6490	-13.9209	-16.7707	-5.6473	-6.4635	-3.0471	-9.3344	-3.4105	2.1578	3.5731	-3.5492	-9.7098	-7.5822
2568.0377	-12.8051	-0.7244	14.8815	-3.8937	3.8728	4.4049	-3.0666	-2.3847	-4.8809	-13.7373	-10.7124	-7.7081	-0.2722	-0.1529	-10.6967	-15.8851
2576.0378	3.7005	9.0725	21.7595	10.2375	12.8212	13.5715	4.9037	7.1104	7.4425	11.9869	10.0597	9.7652	-7.4186	18.5800	15.1978	2.1666
2584.0380	7.9401	4.9993	11.6431	6.7172	-0.7465	5.3090	-1.2608	3.0284	8.2599	15.6090	16.0520	13.6128	-4.0987	3.7048	13.0458	-0.2643
2592.0381	3.3920	5.6566	2.5598	5.5560	5.9276	14.7687	1.9885	5.0499	3.3044	5.3585	5.9937	4.3132	-2.0264	6.8447	2.3688	-1.5245
2600.0382	5.5706	5.6620	-3.7014	3.4501	10.1018	13.0863	6.6602	7.2799	5.6845	10.7297	7.5743	7.4321	-2.8204	14.5095	4.8652	8.2247
2608.0383	3.4082	4.4951	-2.8558	2.2534	8.0678	15.7153	5.7636	3.3036	4.8553	7.1074	3.1196	6.1277	-3.3213	3.2669	12.8326	15.3412
2616.0384	-7.0233	-4.2961	-17.3485	-12.0110	-8.1109	7.3391	1.1226	-4.7424	-3.1034	-7.1454	-11.1149	-5.9756	0.1451	-1.4343	5.7444	9.4028
2624.0385	-13.2131	-14.3652	-26.8369	-21.6091	-24.0308	-16.1320	-9.2680	-12.4934	-10.2088	-14.8118	-16.8548	-17.2104	6.6843	-17.1058	-15.8732	-11.3633
2632.0387	-2.5850	-2.4537	-9.5180	-2.1433	6.9750	-4.1533	-0.9489	-1.9932	-4.2768	-6.3698	-6.1952	-10.0770	0.3815	-10.3954	0.2377	-1.6639
2640.0388	4.2215	4.7163	-6.1161	3.3363	24.4846	6.7599	7.7661	5.5942	2.3117	0.3480	2.7549	2.2894	-5.6236	7.2193	19.0203	13.4593
2648.0389	1.9257	-0.3237	-9.6586	-0.8728	0.2234	2.4398	-1.8894	-0.9079	-0.8991	-3.2582	1.5028	-0.3048	-0.1837	-6.6064	6.2967	-0.2447
2656.0390	4.7758	1.2102	-5.3554	4.2235	-0.2173	2.9278	-4.0431	-0.7177	1.0049	3.5900	6.2942	-0.1132	-1.1974	-11.8052	9.4412	-3.4467
2664.0391	4.7388	-0.8168	-10.8559	-1.8136	5.4454	-4.6383	-4.7131	0.0813	1.5169	6.0544	9.4197	-0.2262	-1.6765	-10.6291	6.6917	-8.8569
2672.0392	3.6246	-0.4411	-14.0368	-3.2659	-3.4863	3.6000	-4.6466	0.9010	-3.3318	-1.3577	2.5969	-7.7054	1.7346	-6.1149	-3.9263	-14.1520
2680.0394	-1.5684	2.3048	-15.2064	-1.6583	6.0199	13.2907	2.8234	3.4405	-0.7400	0.8954	-1.5999	-6.7695	-3.5718	12.6620	7.9352	-2.0331
2688.0395	-3.8613	-0.1087	-18.4092	-4.8257	11.4188	2.7938	2.4533	2.4208	3.6261	7.2387	4.1047	0.6360	-6.4063	16.1138	12.9824	-0.9059
2696.0396	3.6803	-2.4736	-21.4046	-6.8690	-1.4651	-3.9788	-1.3349	0.3435	1.4373	6.1638	6.5263	0.5579	-1.1154	1.7972	6.7860	-1.4056
2704.0397	-8.2665	-14.6366	-38.3709	-24.6855	-10.3622	-21.1325	-8.6144	-10.2390	-11.1064	-15.6211	-13.0501	-19.7048	5.6581	-22.4679	-10.4747	-12.0842
2712.0398	-20.1280	-20.2950	-42.5183	-29.1522	-13.9579	-30.2850	-14.5326	-15.8303	-18.9261	-30.1539	-25.0467	-33.5222	7.7252	-28.0640	-22.2008	-28.9414
2720.0400	-4.6009	-1.8497	-19.0667	-3.5462	-0.0801	6.5127	-3.4573	-1.8985	-3.6017	-2.9888	-4.5323	-11.8747	-0.7650	-5.6484	1.5641	-9.3542
2728.0401	6.5258	9.4555	-13.7996	7.2507	12.1556	34.3464	5.0821	8.0832	9.1348	19.5358	11.7800	6.5544	-5.7073	5.9138	14.2821	7.8299
2736.0402	6.1118	2.6904	-26.8962	1.4963	-3.1138	14.1781	2.1791	4.9404	5.7618	16.5440	10.3292	4.1857	-1.4893	11.0463	4.4009	3.0885
2744.0403	3.5086	-4.4306	-33.0859	-8.3572	-10.4332	-4.7007	0.4798	0.2390	2.8125	14.6940	5.4748	-0.8116	0.7720	6.9508	0.1848	3.8786
2752.0404	-6.3953	-12.6331	-45.6024	-27.0772	-13.7128	-9.4058	-5.6057	-6.3988	-4.3198	2.0530	-6.1269	-13.2484	5.1250	-12.5035	-15.7872	-8.5638
2760.0405	-14.2183	-20.5164	-54.5198	-34.1632	-20.2859	-28.6076	-12.6018	-13.0405	-13.3034	-18.2307	-15.4140	-22.4209	8.9596	-20.1913	-25.3291	-23.0988
2768.0407	-12.1349	-19.5484	-49.7667	-26.0469	-9.0872	-39.4876	-11.3369	-12.6755	-13.8647	-22.9223	-14.0220	-21.1844	6.4068	-19.7705	-13.7223	-18.9885
2776.0408	-7.0067	-12.4025	-46.2086	-15.6323	-7.5179	-21.2348	-5.5148	-6.9804	-9.1656	-12.6240	-9.8232	-16.5447	4.1057	-7.5709	-7.2161	-8.9835
2784.0409	-3.4962	-3.0733	-37.2485	-2.7545	-3.2709	3.3803	3.2094	0.1255	-0.3887	3.3153	-3.9972	-5.7014	-0.0185	11.0979	0.9000	7.0438
2792.0410	-3.8521	-0.6805	-33.0189	-0.5503	8.7450	9.6676	5.2527	0.8248	3.2919	9.5399	-2.0219	-3.5954	-3.7695	5.6283	10.7174	13.7273
2800.0411	-6.0396	-5.5974	-39.3051	-5.3516	-3.1510	1.2012	-1.0114	-4.5073	-0.0869	6.6142	-4.6366	-9.8262	-1.5210	-5.6789	7.7609	5.6376
2808.0412	1.1383	-1.2658	-35.7666	0.8105	-2.3328	7.0040	1.5961	0.2428	1.5579	9.5193	0.9156	-5.0737	-1.0028	1.3175	7.4898	7.8428
2816.0414	5.7805	1.1834	-38.2081	-1.2942	5.7728	10.6966	4.7970	4.4972	3.1157	11.6572	5.6247	-2.0115	-2.8563	8.9114	12.9742	10.0612
2824.0415	0.8214	-2.4368	-39.9018	-4.5341	1.9906	2.5365	0.2381	0.5986	1.5112	8.7240	3.9839	-4.8594	-3.0193	4.7366	12.0694	1.7196
2832.0416	6.8860	3.7240	-29.0186	7.8048	7.7246	10.1560	3.2551	5.4762	4.7383	13.3390	9.9461	1.4989	-3.7140	9.2275	13.3858	5.5347
2840.0417	5.6879	-3.3863	-43.7073	-4.5092	-6.2339	-4.8128	2.6808	1.4101	3.8024	14.0916	8.0499	1.7027	-2.0408	14.2616	13.9247	10.5964
2848.0418	-9.3601	-17.6844	-58.3499	-23.6511	-15.4099	-31.6136	-7.6373	-11.2633	-5.5349	-3.6008	-6.1740	-12.2684	2.2773	-7.2711	0.6893	-4.9734
2856.0419	-5.3622	-9.4141	-42.1474	-9.4760	3.0285	-16.5178	-7.1179	-5.3978	-5.9590	-7.8968	-3.4273	-12.7275	2.5594	-16.5406	-6.1426	-12.9034
2864.0421	3.4183	-5.3547	-39.7306	-7.0466	-0.6027	-9.7626	-1.4913	-0.4827	0.5720	9.9008	5.1934	-5.4016	0.2685	-2.8517	2.7578	-0.3710
2872.0422	0.1015	-10.9653	-48.0056	-19.5081	-7.2614	-17.6260	-2.2890	-4.8059	-1.5904	10.7364	-0.5430	-12.6233	0.1486	-6.2000	6.2935	2.4452
2880.0423	1.0177	-8.6242	-38.5800	-17.4765	-5.1748	-10.7025	-4.7550	-4.4240	-4.2751	2.3452	-1.5145	-14.1389	1.3133	-14.3931	3.4807	-4.9012
2888.0424	5.4572	-8.4678	-24.1461	-20.0598	-8.8766	-15.6771	-5.8763	-4.1634	-3.4374	4.6906	2.3035	-10.1374	2.7524	-18.0065	0.1000	-6.5061
2896.0425	6.7148	-6.0294	-10.4044	-20.5266	2.2492	-15.1690	-1.0622	-1.2176	-2.5001	7.2459	1.1145	-10.8005	0.7075	-13.9106	2.7512	-0.8202
2904.0427	7.2402	-0.4556	2.9831	-9.9180	3.6551	-6.4156	4.2669	1.9171	3.9471	14.0940	5.8701	1.7421	-3.8229	4.7926	15.2815	11.1421
2912.0428	5.7946	0.1869	12.9201	0.2034	-11.7113	-7.4261	1.3484	-0.5446	4.3574	12.7106	5.9792	6.3032	-2.2752	8.1737	12.7396	9.3943
2920.0429	5.5217	4.9408	21.9785	14.2488	-7.1018	1.6525	0.1100	2.1506	0.4549	2.5931	2.6879	1.8493	0.6611	4.3364	-0.3820	-0.9152
2928.0430	15.2697	13.1438	32.7035	23.8938	11.0657	10.7799	6.0134	10.9475	7.8594	8.0404	16.7335	20.6110	-1.2072	12.9914	2.5989	6.8971
2936.0431	21.5243	16.6393	42.2109	25.6088	18.4497	13.8862	7.5590	14.1179	10.7275	7.4681	24.0932	31.1769	-1.7153	12.1074	6.4491	10.6004
2944.0432	16.9101	15.6457	49.2770	29.5776	11.8125	12.7116	4.4522	10.3729	6.9552	0.5737	17.1209	24.4430	-0.8900	6.5299	5.2675	6.1202
2952.0434	15.4883	11.2982	51.3037	26.6075	3.2325	-2.8825	4.8160	6.8105	8.7970	8.0566	16.5000	25.8365	-1.1614	9.3078	7.8390	13.5112
2960.0435	7.5342	5.0680	38.9546	13.4266	-2.6699	-8.7726	3.5811	3.0889	5.5482	5.2905	8.2398	17.6882	0.4470	9.8377	-0.8734	9.5884
2968.0436	-2.3067	3.2275	35.3799	6.6405	-2.7656	-0.3735	0.6954	1.3106	1.3951	-2.6466	-0.6593	8.4663	2.1417	6.1447	-15.2240	-3.7192
2976.0437	1.4393	8.3211	51.1956	8.8676	7.4414	10.0340	2.0044	4.8748	5.0906	1.7265	5.3821	14.8169	-0.0228	3.2269	-11.8323	-3.6336
2984.0438	5.0522	12.1366	50.3164	11.6527	13.2749	22.3307	2.8965	6.9620	7.2479	3.8281	9.4980	17.7743	-2.3772	0.2683	-1.6727	-0.2939
2992.0439	6.6585	10.3530	41.5308	18.1711	7.1176	14.7267	1.3192	4.8981	7.4563	5.3783	10.7517	18.9317	-0.3018	-4.7887	-3.1071	3.1300
3000.0441	3.0461	4.3181	37.0505	17.6685	-6.7827	-2.6066	-2.3098	-1.0575	6.1849	2.6176	8.1225	20.3671	2.6465	-8.1900	-7.9648	4.1030
3008.0442	-7.0256	-0.8247	27.1615	3.6484	-10.3383	-3.5150	-3.6955	-4.4003	0.2936	-8.9689	-3.3299	10.1410	3.5562	-4.5885	-14.6531	-3.7342
3016.0443	-13.1846	-2.1255	31.6961	-4.9426	3.5982	-8.4693	-0.3952	-2.6063	-2.4135	-10.9301	-10.2563	0.1754	1.1291	4.2756	-18.4132	-9.2054
3024.0444	-22.4088	-8.7550	28.4392	-15.0721	-3.5139	-19.5102	-5.2517	-10.0497	-4.2359	-13.9685	-15.7753	-4.6171	-0.8204	-0.4390	-11.9063	-13.5981
3032.0445	-25.7194	-13.0328	14.4301	-18.7633	-22.4379	-13.7304	-13.4407	-17.1986	-14.2199	-32.6156	-27.5749	-18.4980	5.5200	-22.6675	-19.7935	-23.2162
3040.0447	-13.5337	-1.6558	30.2324	4.8564	-10.9949	3.7416	-8.5446	-8.1938	-13.1885	-29.4345	-22.6006	-17.6727	7.1775	-24.7952	-24.6113	-19.4375
3048.0448	-0.3627	8.1051	38.1240	12.5845	4.3470	16.8739	0.3159	2.5131	4.0272	1.9538	2.5241	8.7021	-1.1336	-3.1923	-3.8172	-2.0233
3056.0449	-0.2461	3.0564	23.9725	-6.9851	2.0658	9.4901	1.1511	2.5259	3.9128	5.0857	3.6479	7.8517	-1.2391	4.1406	-4.4523	-3.0505
3064.0450	-11.9289	-3.4249	29.4520	-8.1128	2.2920	-10.7632	-3.0612	-4.1999	-6.7706	-12.6654	-13.6715	-12.1837	0.5643	-3.6688	-12.9489	-15.3534
3072.0451	-11.0092	0.8705	39.7405	8.9619	6.0256	-8.5856	-3.1712	-4.1878	0.1199	-3.2380	-5.5330	-1.2514	-3.7472	-3.3165	0.6461	-8.7066
3080.0452	-0.5685	6.9786	35.0992	19.2020	1.9245	5.7110	1.6313	1.7451	6.1770	6.8331	4.5285	11.8847	-2.6662	5.8127	2.1980	4.0189
3088.0454	0.7021	7.3504	30.1384	19.1643	3.2865	8.8759	2.8593	2.1962	1.8404	-2.3919	-0.7313	6.2035	-1.1151	3.5720	2.3206	5.9295
3096.0455	5.0822	10.7801	33.9090	20.2228	12.3852	14.4331	4.7651	5.8219	3.6661	2.4769	3.8432	6.6457	-3.6896	5.1767	8.9988	6.1071
3104.0456	6.6299	9.0826	25.2543	16.0634	-0.3885	9.4494	7.9918	7.5123	7.4019	15.2253	7.7642	10.9338	-4.1026	27.0870	8.4971	11.2747
3112.0457	-6.7662	-0.4109	4.5749	4.5651	-7.6563	-1.3053	3.4535	-1.7915	2.3835	4.5536	-4.7148	1.7490	-2.9639	17.5526	6.7623	9.4585
3120.0458	-14.7051	1.1680	7.6896	8.4184	14.2729	11.3064	0.4696	-3.0116	-3.0045	-8.7495	-15.1718	-11.0582	-0.8860	-12.4809	-7.9248	-1.3459
3128.0459	-5.6784	4.0133	9.4441	7.6997	13.4564	14.8007	3.9459	2.3383	-0.6972	-0.9616	-8.7286	-6.6132	0.9948	-6.2513	-13.5658	1.9437
3136.0461	0.1036	0.0430	-0.7275	-2.7732	6.3545	1.7580	4.4527	0.9399	-1.3221	-1.4871	-5.5319	-3.9699	0.5244	-1.4923	-0.8433	9.1763
3144.0462	-2.8283	3.6867	13.8363	5.8522	21.7428	3.4234	5.4120	2.5842	-1.9472	-7.1071	-7.0887	-5.2599	-2.6853	-0.6503	3.6639	5.5484
3152.0463	2.8898	8.2263	23.0986	9.9060	16.6143	9.6748	6.9512	6.7785	7.1101	7.1878	7.7131	13.0565	-5.9083	16.9352	11.4130	8.4690
3160.0464	6.8360	7.9402	16.3930	10.4065	2.5030	16.9326	3.4769	4.4197	8.4067	10.5435	11.0315	16.6746	-3.2361	5.3992	11.5014	11.0105
3168.0465	4.4342	7.6341	15.9367	16.9760	1.3119	17.4328	3.8746	2.6614	3.3888	4.8549	0.9040	4.6276	-0.8546	-2.6080	6.0978	12.7342
3176.0466	3.1775	2.2532	6.1002	1.7111	0.5007	-0.7190	6.4942	2.8686	2.9649	4.7607	1.6517	5.7983	-3.0580	18.3093	11.8994	13.6740
3184.0468	-8.2011	-5.3058	-1.0467	-10.7385	0.4255	-11.2292	-0.8313	-3.7319	-5.0923	-13.2954	-9.2453	-5.2603	0.4198	2.8634	-2.8793	-3.8812
3192.0469	-14.6883	-5.7988	4.8555	-6.8575	-6.7140	-2.5283	-6.0397	-8.3652	-7.7846	-17.1545	-16.6779	-12.6219	3.0139	-15.2364	-12.6470	-11.0971
3200.0470	-12.6163	-1.9839	7.0612	-7.7755	-5.2197	7.0088	-0.1167	-4.1318	0.0135	-0.5812	-9.2303	-4.1102	-3.4435	6.9863	3.9113	-0.7123
3208.0471	-18.6252	-5.2243	1.5168	-9.6226	2.9914	-3.4328	-1.9868	-5.7276	-4.9811	-9.8749	-15.5948	-13.6684	-3.0187	4.2249	-2.2635	-10.3812
3216.0472	-16.9268	-10.3912	-3.8634	-13.1284	-9.2442	-14.9328	-11.4008	-10.4776	-11.7684	-20.1385	-17.4897	-20.9935	4.6459	-19.5472	-20.7511	-26.8774
3224.0474	-8.2940	-3.5110	5.5976	-6.1447	-7.7317	1.4139	-7.4619	-5.4184	-8.1657	-16.8138	-11.2008	-11.5710	4.4563	-16.5112	-15.7704	-17.7085
3232.0475	-5.8605	2.4661	13.0613	7.5937	11.0682	5.4561	2.1094	-0.7035	-3.8192	-16.0604	-9.8839	-2.4483	-0.1068	-4.1616	-0.3284	3.4784
3240.0476	-3.6732	-0.4634	6.0797	4.8757	3.0614	-7.8877	3.0815	-0.7281	2.1886	-0.5430	-1.3196	6.3822	-1.3325	8.6242	2.2857	8.7032
3248.0477	-0.4528	0.2412	6.9335	2.8101	-15.3614	1.8788	1.0704	-0.6340	3.2033	8.4676	0.5820	5.1972	1.2037	9.0189	-4.4796	5.3581
3256.0478	4.1805	5.0348	16.6926	9.3244	-9.7159	14.2870	1.5970	0.9014	0.8445	1.0286	-1.0845	2.9411	1.4754	-1.8292	0.9079	7.8311
3264.0479	8.7992	10.1507	21.3487	10.2512	8.0714	19.7841	8.0143	7.8470	7.8210	11.1760	9.0582	14.0469	-3.9115	13.4524	11.6522	14.9083
3272.0481	7.5785	6.0480	7.8196	-2.6554	1.1839	18.8262	8.9517	6.4745	5.9725	11.5160	4.6377	9.4237	-1.9006	14.2912	7.0945	17.7148
3280.0482	2.9886	-3.4966	-3.4377	-13.1537	-13.5087	2.1211	-1.7920	-2.9898	-7.0457	-9.6032	-8.6149	-9.8957	5.7186	-14.0591	-7.4608	0.4822
3288.0483	2.5683	0.1545	8.7051	-0.5436	1.3767	-5.0640	-1.9066	0.7085	-4.1874	-7.0112	-1.3039	-5.0940	1.9869	-4.3949	-5.8113	-8.8009
3296.0484	0.3988	1.0280	6.3335	2.1066	8.6168	-8.7029	1.9257	2.5589	1.7988	1.2783	4.4084	4.2513	-3.3173	13.4653	5.8694	-1.7536
3304.0485	-0.5691	-3.0729	-5.2657	-5.4338	-2.3499	-11.8015	-2.4052	-0.4224	-3.1539	-3.4681	0.0944	-4.9910	-0.0433	6.5359	-1.0668	-10.4705
3312.0486	7.8251	2.8108	-4.9283	0.8750	-0.0620	3.0644	1.6940	5.4835	-2.0626	0.3559	3.5799	-3.7724	0.9747	9.9996	-2.0092	-5.4267
3320.0488	1.0053	0.6900	-13.4477	-4.4467	2.0074	8.5482	1.5915	1.9198	-1.2354	-4.4510	-0.4511	-0.7299	-0.3040	4.9437	3.2829	0.9305
3328.0489	-7.6415	-1.8011	-11.5095	-3.8468	4.0987	4.9237	-4.6370	-1.6138	-1.5828	-5.0001	-1.8149	-3.9637	0.0572	-5.7475	-7.7032	-14.3628
3336.0490	4.7698	2.3786	-6.4293	5.0958	4.1530	2.1600	-0.5966	3.5623	5.7029	13.7171	11.6389	6.5518	-1.2476	1.8815	-0.7332	-3.5090
3344.0491	3.6648	-2.5976	-17.5471	-4.8969	-1.9911	-7.1712	-1.7463	-0.3506	2.3823	6.2913	7.7967	3.7773	-1.2206	1.2325	7.6936	-0.1602
3352.0492	0.8796	0.3635	-16.9304	-1.9708	7.0615	3.9864	-3.6102	2.3975	-1.9240	-4.4538	4.4682	-2.9491	0.0845	-1.4309	-3.4971	-15.4543
3360.0494	7.5287	1.9014	-22.3282	-1.1423	-2.2171	10.4384	-2.4979	4.4361	3.6986	6.9338	13.3716	8.3540	1.8176	0.9590	-5.6737	-8.0533
3368.0495	-1.0900	-10.0516	-33.7562	-14.5657	-28.6406	-11.4449	-9.9755	-7.1503	-3.3304	-2.5821	1.4926	-1.6297	6.6135	-9.3211	-12.2746	-12.2019
3376.0496	2.5761	-3.8342	-23.1481	-1.2367	-15.0651	-3.7897	-4.9854	-1.9181	-7.7271	-8.6237	-4.5589	-12.3851	6.5303	-7.7535	-12.9288	-10.6149
3384.0497	11.4880	6.0210	-21.3602	8.3169	3.7047	17.1983	6.6729	8.4533	1.0394	5.1577	4.8683	0.4428	2.0662	8.8234	-1.6566	9.5645
3392.0498	2.4024	-0.0559	-27.0927	-0.1901	-3.3267	6.4552	5.2078	3.0431	2.4868	5.9658	1.6700	3.5152	1.0599	13.1287	-1.0059	11.7346
3400.0499	2.1245	-0.5828	-21.3067	1.7859	-4.0966	0.9126	5.3934	1.1901	3.1457	8.3792	1.1347	2.9109	-1.1497	12.9242	8.6353	16.3452
3408.0501	3.1804	-1.3403	-29.0777	-3.1558	-2.5776	2.6482	4.3124	1.6548	0.9940	5.9037	0.6285	-1.5426	-0.4267	9.4002	7.0613	11.6666
3416.0502	0.4392	-5.3595	-37.4214	-11.3057	-4.3935	-3.5711	-0.0175	0.1019	-4.6273	-2.3742	-3.6615	-10.5643	3.3668	2.0862	-7.6791	-2.9572
3424.0503	4.0533	-2.4195	-27.9062	-10.2122	-2.6300	2.2836	1.5500	1.6738	-0.4291	7.0969	1.4800	-6.1460	0.4763	2.9047	1.6552	2.2119
3432.0504	-6.7260	-8.1788	-33.3305	-18.7910	-6.0009	-1.7384	-4.2730	-5.6553	-3.7615	-0.6637	-6.4969	-13.0478	0.3038	-10.1157	1.0547	-5.3378
3440.0505	-21.1860	-19.9406	-50.5983	-29.5792	-10.8462	-23.8768	-14.9480	-16.6830	-13.9131	-21.7083	-20.0561	-27.8890	4.6497	-31.8101	-12.8151	-24.2055
3448.0506	-14.4846	-15.9733	-42.3591	-22.1775	-5.2243	-25.0932	-13.6411	-12.6343	-10.4328	-15.1018	-10.9332	-21.5472	2.4099	-25.4078	-6.3307	-24.2134
3456.0508	-0.0609	-4.4683	-26.7085	-6.1309	9.3767	-12.5778	-4.9551	-1.5879	-0.1344	2.5654	6.6539	-4.2141	-3.2578	-6.1556	10.5268	-10.4011
3464.0509	4.6051	-2.6817	-31.3994	-2.2659	13.6131	-13.2186	-2.5539	1.2750	3.4616	7.6073	13.5627	3.5804	-4.1628	-0.5106	14.5695	-4.6282
3472.0510	1.2159	-5.1963	-36.0015	-6.2711	2.1969	-10.3710	-5.7732	-1.2408	-3.2386	-1.8105	4.1633	-7.9130	0.5793	-6.7572	0.7478	-13.5892
3480.0511	8.4101	0.8257	-27.6148	-1.0073	-1.2917	8.5136	0.2909	2.3350	-2.1199	2.6332	2.5607	-8.0863	0.2927	-3.9247	8.9368	1.9567
3488.0512	20.3276	6.2155	-25.3361	2.2265	8.2254	13.4715	7.6232	8.6688	7.6411	18.9783	17.4097	9.5537	-3.8565	6.3136	26.1331	21.5347
3496.0513	7.1061	-5.1664	-40.3219	-15.0434	11.9635	-10.1772	-0.1120	0.6689	0.9032	4.0985	8.4921	0.0856	-1.0757	-8.7598	11.3153	4.2057
3504.0515	-11.9693	-18.1446	-51.9936	-34.2833	5.4901	-30.3311	-7.8710	-11.8105	-9.7791	-16.2704	-11.6136	-19.0666	0.3074	-22.6296	5.7672	-8.7878
3512.0516	-13.9871	-18.6721	-50.1379	-32.8374	1.0775	-31.0915	-10.6470	-13.4314	-11.5793	-20.3962	-13.0686	-21.0907	0.6154	-23.6315	5.1429	-14.7860
3520.0517	-11.9890	-16.1622	-52.8392	-23.9004	-3.2060	-20.7158	-13.8027	-12.6964	-10.6250	-18.7313	-9.8440	-18.7783	4.2663	-34.3172	-7.0464	-20.2372
3528.0518	-1.3139	-9.7464	-51.7911	-16.2906	-9.5621	-8.3037	-6.7312	-5.5265	-4.6574	-3.2270	-1.0897	-10.3821	2.9522	-13.4951	-0.2114	-7.2037
3536.0519	8.5611	-0.6712	-40.7158	-1.7533	7.4167	-3.3286	4.4342	5.7528	-1.9133	1.0504	4.4078	-5.0558	0.2969	12.5165	4.8326	3.7435
3544.0521	11.6692	5.8105	-36.2813	9.5312	30.2577	10.3660	11.5329	10.5369	4.1874	8.1203	7.9096	3.0168	-1.9980	5.7843	9.2685	20.8132
3552.0522	21.0183	9.9758	-30.8408	8.1969	18.6938	23.6853	14.7928	14.3721	12.9472	30.4866	19.6222	14.3471	-3.7654	15.1690	16.9521	31.5284
3560.0523	19.5614	6.3192	-21.6062	3.8053	9.4891	7.5881	10.1286	12.0569	7.1971	24.9820	16.0139	4.4773	-2.2687	17.7860	10.7564	15.8089
3568.0524	18.0777	3.7563	-15.1171	1.3913	17.7560	-4.3886	7.5173	8.3860	4.0252	19.6718	12.5759	-2.7407	-4.2153	3.8741	19.9517	13.7433
3576.0525	23.5324	6.0558	-5.6395	-1.4019	6.0896	3.8669	5.8025	9.0602	7.0966	27.4802	19.5140	2.6914	-5.4550	6.4770	27.5572	12.5492
3584.0526	18.5991	6.2588	7.5167	2.4982	-6.1585	7.6216	0.7057	5.9939	8.9083	27.5438	20.7301	8.7801	-4.3546	4.4504	20.3196	4.1864
3592.0528	18.9346	8.2425	16.5419	9.1567	-7.3188	8.6030	3.4780	6.2617	14.5333	34.4681	24.7165	20.2403	-5.9218	10.2274	25.2749	15.5476
3600.0529	7.3012	2.3011	10.7439	-1.1273	-12.4578	1.3410	2.8238	1.8505	7.8530	18.6781	10.7501	11.9009	-3.8427	16.0062	15.8031	10.9191
3608.0530	-8.7345	-4.0525	12.7320	-6.9226	-3.5929	-10.5379	-3.5118	-4.7455	-2.0587	-6.8656	-5.2294	-1.2519	-0.7582	0.5216	-2.1647	-7.9456
3616.0531	4.2807	4.2599	33.4414	11.0392	5.8126	-6.7432	-0.8411	1.5064	1.5567	-2.8103	5.5442	8.9239	-0.5039	-2.5215	0.7721	-2.5825
3624.0532	9.1043	9.9838	39.8061	20.6703	1.0089	9.8386	4.3702	4.5168	5.6970	3.9112	7.3770	16.1285	-0.8908	3.8030	6.4451	12.8658
3632.0533	4.6778	9.2620	40.7307	17.3866	3.6636	11.4461	6.5453	4.1490	7.7987	6.4064	5.4044	18.7549	-1.7873	7.4005	4.5527	17.3435
3640.0535	5.7369	2.9618	43.0058	13.4114	2.8809	-19.4804	2.9438	1.4147	0.6825	-7.1825	2.3617	13.4484	2.5780	3.0885	-5.9522	7.6829
3648.0536	2.6630	1.0127	41.6732	13.6617	0.5344	-21.9979	0.8309	-1.3098	-6.8350	-24.0329	-7.5023	4.5671	6.1029	-4.9568	-12.6301	3.1985
3656.0537	9.9518	14.0326	56.2659	25.9385	11.2138	14.6658	7.4373	8.2390	2.8452	-8.0348	3.6923	17.2785	1.3218	5.1079	-3.5836	11.8127
3664.0538	7.0389	11.3000	53.6879	22.9708	10.8145	7.6217	6.6513	5.3057	5.6409	-2.2268	5.1803	19.8985	-1.0953	4.0387	3.8498	15.6717
3672.0539	-1.9181	2.7283	36.3955	11.8571	8.0709	-6.4017	3.9046	-1.6989	0.2302	-11.3033	-5.9143	9.5641	0.8694	-6.3117	-0.2096	15.1526
3680.0541	1.9475	7.9308	40.6358	16.2516	15.4434	7.1652	4.4518	4.2095	0.4344	-10.1342	-2.1622	9.2412	2.7050	-6.5485	-13.2176	5.5916
3688.0542	-5.6113	0.9295	31.3487	7.5997	7.3869	-5.1531	-2.9099	-1.7477	-5.5998	-19.7649	-8.7311	-0.6318	5.6278	-16.1327	-23.8585	-10.3193
3696.0543	-10.4518	-3.9947	20.6118	-0.7845	-7.0584	-8.4382	-5.4192	-6.4156	-8.0314	-23.1932	-14.0809	-4.2614	6.8064	-14.6840	-23.8261	-11.0474
3704.0544	-11.8468	-0.7352	28.7116	5.7436	-11.5473	2.4119	-4.4897	-5.4555	-4.1750	-16.4015	-12.2602	0.8797	5.8212	-9.3131	-24.4538	-8.7483
3712.0545	-16.7493	-1.6458	29.7494	7.4544	-11.5431	0.1656	-5.6754	-6.7569	-3.7383	-11.3328	-14.2080	-4.2065	4.0284	-7.4678	-24.9450	-13.5379
3720.0546	-2.0283	9.1257	39.9210	18.0414	-8.5478	19.2078	1.1342	4.1448	1.5086	2.3588	-1.8415	2.5006	0.7456	13.3225	-13.7206	-8.0650
3728.0548	9.2831	14.0136	44.9047	24.4274	-6.5816	23.2560	5.2519	8.9449	3.7895	5.8503	5.3798	9.3557	0.1769	18.7056	-4.1363	1.9804
3736.0549	8.6355	7.2320	34.8606	15.1032	-3.2299	0.7718	4.3887	6.1514	-0.2690	-0.1630	1.7694	4.1861	2.8229	12.0629	-10.0899	1.4695
3744.0550	12.2443	9.8033	43.4429	14.8619	-0.9394	6.7960	3.5633	7.5637	-0.0680	-2.2423	4.9384	6.9871	2.5595	7.9785	-7.4760	-0.9187
3752.0551	10.5916	11.4464	51.1536	17.5383	-2.1228	15.6118	-1.0413	4.0995	3.2044	-0.5579	9.1998	12.6680	-1.2105	-3.4763	7.7697	-1.8805
3760.0552	7.7541	7.7610	42.1737	12.6096	-1.8905	1.8085	-1.0912	3.6022	9.2758	13.4096	16.9448	19.9642	-4.4573	8.9596	10.7185	-2.3075
3768.0553	2.7085	2.2548	26.7174	1.6366	-4.4202	-6.1544	1.7797	0.9728	7.3204	10.8695	9.4036	15.7538	-4.0545	14.8252	10.9076	6.0174
3776.0555	-4.9086	-1.8668	12.2883	-3.4131	-2.4467	-2.5306	1.1140	-4.2867	-5.1119	-12.6594	-12.3141	-6.5319	0.0823	-4.3593	5.4354	7.0114
3784.0556	-4.1449	-0.8868	9.2852	2.5616	-1.2171	-3.7315	0.4742	-1.9493	-7.1361	-14.4834	-12.3402	-10.2148	2.5466	-2.1149	-6.5185	-1.2746
3792.0557	-7.0771	-1.5729	4.7619	-0.5986	-5.1036	1.4045	-0.7413	-3.5666	-1.4113	-5.9168	-7.0515	-0.9891	0.3735	-0.7915	-1.8681	1.3822
3800.0558	-14.2097	-1.7134	1.9747	-4.8581	0.6657	12.8658	-1.2957	-5.1095	-0.3202	-4.7701	-10.9099	-3.4620	-1.1683	-8.0284	-3.1440	0.1773
3808.0559	-14.8390	-5.2952	1.5339	-5.7680	-4.9846	-3.0622	-1.5018	-6.5385	-2.5377	-3.4988	-13.7075	-8.8504	0.2894	-3.5088	-8.2438	-1.4752
3816.0560	-15.8309	-7.4804	-7.1718	-8.8639	-10.5967	-3.8268	-0.5485	-9.1610	-5.7293	-10.4793	-19.9491	-12.8341	0.6949	-3.7235	-1.1704	6.1036
3824.0562	-13.9129	2.0307	-2.1651	0.0467	5.2022	25.3487	2.7349	-0.7119	-3.7444	-13.7705	-16.1196	-7.3806	0.6845	0.6131	-10.5124	0.3357
3832.0563	-9.2322	2.1974	5.4767	2.8198	-3.6709	16.2419	0.7989	0.8079	1.3741	-1.2565	-4.8916	2.6452	1.2779	8.6766	-15.8375	-4.6734
3840.0564	-8.6219	-2.7757	3.8585	-1.0108	-16.8977	0.5260	-2.5426	-4.8636	2.9766	5.4123	-2.3580	4.4189	-0.1133	5.4528	-3.5107	0.0033
3848.0565	1.3132	3.5396	15.6322	9.7638	6.7681	-1.0608	0.8150	1.8682	0.8691	-4.2033	2.5015	5.9987	-0.8216	2.6487	1.3108	-0.1926
3856.0566	13.2744	7.9855	26.7206	15.9240	18.7530	-6.3393	4.8739	6.9272	1.3649	-6.7150	9.6767	12.1788	-2.0069	4.9880	12.6622	7.6439
3864.0568	10.2432	8.0155	27.3435	11.8960	1.7168	8.4515	1.6532	3.1311	8.4015	6.3883	14.8624	21.9652	-4.4839	3.6419	21.6687	11.4943
3872.0569	5.8053	2.2496	26.6925	6.6133	-6.7745	-5.4624	-5.2601	-2.2753	4.6600	2.0338	11.6290	15.9090	-1.4113	-8.4049	11.1343	-1.1703
3880.0570	6.5297	-0.7829	24.2397	5.1737	3.6868	-23.7725	-2.4621	-1.5375	-3.7892	-8.4076	1.4743	-0.6104	0.9822	-9.9103	4.2543	-2.5268
3888.0571	11.0391	7.2867	25.9286	8.8972	2.7671	5.4922	3.9197	5.9430	3.8072	7.8966	8.4242	7.8399	-1.3062	6.4707	5.6693	5.5103
3896.0572	8.5219	2.4208	23.3577	0.2241	-11.2000	-4.1462	-0.4630	1.7805	4.1621	10.1491	9.9253	9.7104	-0.7999	7.7198	5.1844	0.1709
3904.0573	-11.1018	-10.2180	7.3903	-16.6646	-4.2080	-29.4717	-5.5639	-8.2749	-6.2272	-10.0681	-9.7310	-10.3446	-0.4946	-2.6992	-1.8531	-12.2603
3912.0575	-20.8717	-10.1099	-5.0402	-24.7138	1.2744	-7.6264	-7.5262	-8.6777	-7.9926	-16.2413	-16.3992	-16.1458	0.2492	-10.0600	-13.6563	-22.5304
3920.0576	-15.4504	-6.5350	2.1341	-18.7012	-8.3093	2.9654	-8.4414	-7.6171	-8.4189	-15.8123	-14.8852	-15.7965	1.8364	-12.6767	-12.9737	-22.4144
3928.0577	-12.1440	-4.9035	11.7729	-9.5432	-8.1903	-5.7538	-2.7864	-6.4026	-5.1559	-8.8592	-13.4581	-10.6300	-0.5756	-0.1397	-1.9933	-6.4957
3936.0578	-8.1158	-3.8508	7.5568	-12.0397	-7.9896	-3.4950	-0.3628	-3.3427	-1.2854	-1.5398	-6.9877	-3.0899	-0.6767	7.3212	-2.7592	-2.5420
3944.0579	-7.8212	-1.2372	6.3339	-9.5100	-7.9680	8.6267	-3.3262	-1.9282	-2.4448	-3.6997	-5.7684	-5.7969	0.0878	2.6591	-7.6086	-13.2017
3952.0580	-13.2179	-5.1104	-1.5101	-10.0270	-11.0961	0.6034	-6.2560	-5.9748	-1.8991	-3.3644	-6.8154	-5.1812	0.2476	-1.5522	-9.1526	-14.6031
3960.0582	-15.1959	-14.0402	-16.5594	-19.6531	-15.3053	-24.2716	-11.1855	-11.1632	-8.0353	-11.6715	-11.6099	-13.6079	5.3228	-14.7947	-21.7700	-22.2222
3968.0583	-5.4716	-6.9391	-7.8982	-7.9329	-2.4930	-15.4768	-7.1238	-4.2721	-10.5787	-14.9405	-10.6181	-18.4218	6.3803	-16.7466	-23.0336	-21.2338
3976.0584	4.2379	-0.4083	-2.6068	-1.2252	1.6901	-5.2428	1.4709	1.5703	-2.3605	-3.0610	-0.5426	-2.4697	1.9760	-0.0697	-3.1282	1.2958
3984.0585	0.3268	-4.1768	-11.5334	-9.3287	0.0959	-9.6580	-0.6656	-1.6709	-1.0599	-0.6981	0.0797	-1.5356	0.2846	-2.2750	1.9879	0.7887
3992.0586	-0.0939	-1.0418	-7.1586	-4.7589	3.1764	4.2860	-5.1086	-1.0703	-2.1565	1.0168	0.2802	-8.8934	0.9106	-17.4680	-4.9415	-12.5689
4000.0588	0.0989	-1.0158	-6.0529	-3.1781	-7.7648	6.3210	-4.9953	-1.9074	-0.8190	4.7987	0.5438	-6.4749	1.3628	-12.2882	-4.3110	-9.2061
4008.0589	-0.0301	-0.1538	-11.2373	0.2405	-6.4930	3.1164	0.7812	0.6289	3.5461	12.1894	3.5201	0.4699	-1.9954	9.6921	4.4934	2.0106
4016.0590	2.9034	1.2915	-16.3675	-0.0937	-1.6965	5.3341	3.7511	3.5365	5.9674	15.5167	7.6172	5.2833	-3.1316	16.7148	7.8862	6.7634
4024.0591	-10.1324	-7.9465	-23.6801	-13.9968	-13.4197	-4.2574	-4.6958	-6.0343	-4.4952	-5.9248	-8.5926	-9.3243	2.0299	-0.5766	-7.3989	-8.7886
4032.0592	-10.3129	-8.1199	-22.4646	-10.6359	-14.6129	-4.3416	-7.6553	-7.2950	-6.8725	-6.7232	-10.7740	-16.2559	3.5549	-11.0928	-12.3031	-15.0630
4040.0593	0.3585	-4.9526	-24.9207	-6.6742	-15.1087	-3.5441	-3.9944	-2.4227	-1.0609	9.2184	0.4526	-8.6079	2.5691	-3.4741	-6.5905	-6.4304
4048.0595	-7.4357	-5.0189	-24.9603	-7.4185	-7.8426	-1.3650	-2.1890	-2.6325	-1.4294	2.0078	-4.0655	-7.3348	0.2365	5.8936	-4.9019	-6.5356
4056.0596	-0.2099	3.0471	-14.5425	6.6763	11.6874	8.0036	2.1247	3.0347	5.2545	6.2991	7.2758	7.0104	-4.6022	8.0533	11.3678	3.6022
4064.0597	8.4209	4.2856	-17.7643	11.0754	6.3570	8.0687	1.1434	4.2011	5.9954	9.9846	13.0320	9.8619	-1.8992	0.6166	10.1974	6.1077
4072.0598	4.8316	5.9594	-20.7106	12.9345	3.6499	20.9177	2.8827	5.8294	1.7814	5.2271	3.8683	-0.6577	0.5048	4.4067	-1.6226	2.2895
4080.0599	12.4838	11.2365	-16.1583	16.4055	16.7088	25.1133	10.9255	12.4631	9.9871	19.9747	14.5952	11.6140	-4.7218	19.9913	13.3822	17.7769
4088.0600	5.9708	1.0508	-25.2848	1.4074	2.8753	4.6664	4.0338	3.5367	8.6303	20.6155	11.7983	9.0595	-2.8123	7.6401	9.6889	12.9651
4096.0602	-7.7105	-7.7102	-34.5754	-8.4411	-14.4826	-0.3351	-4.9291	-7.0291	0.2857	8.9125	-4.2404	-8.2243	1.6059	-11.9290	-4.0098	-0.5499
4104.0603	-10.2147	-8.5744	-37.5025	-7.5329	-6.1710	-9.0948	-1.5473	-6.2199	-0.5968	5.9241	-6.8993	-10.0011	-0.8461	-0.7524	1.8138	3.1779
4112.0604	-12.2083	-11.3146	-42.8567	-10.9698	-2.5851	-20.1329	-0.2403	-6.0495	-3.7133	0.3279	-10.7560	-14.2603	0.0613	5.2426	-2.9531	1.3509
4120.0605	-2.4662	-5.0569	-37.8493	-4.0808	-1.4365	-2.1499	1.4456	-1.7932	-2.6191	2.6343	-6.5136	-11.6303	2.1499	-4.0553	-3.7883	6.2933
4128.0606	7.8307	3.5456	-29.6872	8.3996	15.1042	9.9197	7.8819	5.7300	3.2013	9.3413	3.6468	-0.4120	-1.0642	0.7257	8.2844	18.7849
4136.0607	1.2918	-3.2159	-43.8375	-5.4372	8.5991	0.6669	6.1303	0.9397	2.1911	9.2144	-0.4947	-3.8018	-1.7902	2.2297	10.7773	18.6386
4144.0609	-9.5751	-12.3291	-54.6906	-26.4993	-18.7566	0.0916	-4.1142	-8.0502	-3.7477	3.7372	-9.8763	-15.8253	2.2151	-7.2918	-2.9059	-0.8617
4152.0610	-8.9231	-5.9289	-39.4697	-14.2131	-16.1521	12.5964	-5.5157	-3.0725	-2.6576	7.3455	-5.9101	-16.1494	2.6079	-2.2873	-15.4832	-16.0009
4160.0611	-1.0752	-1.7799	-38.2713	-2.6931	-4.3852	9.1268	-0.3530	1.4589	4.6533	21.9144	5.1190	-6.1258	-1.3262	4.6027	-2.3286	-2.6229
4168.0612	-1.8016	-7.6596	-48.8471	-10.1063	-5.1359	-7.6345	-3.4686	-2.8664	0.7856	12.6084	2.8185	-8.5756	0.1902	-4.3773	-0.0614	-3.5513
4176.0613	-0.3628	-6.1141	-45.2173	-7.2364	-2.5490	-5.5310	-5.2272	-1.2633	-3.2778	0.4942	1.6055	-9.6012	3.4732	-8.1936	-10.3338	-12.4820
4184.0615	0.4941	-7.6409	-51.9209	-13.2681	-8.2084	-3.6377	-4.4911	-3.7761	0.0508	5.5790	3.9938	-3.8643	0.8732	-8.1581	5.3119	-0.8301
4192.0616	-7.9963	-11.9721	-59.4297	-20.5017	-11.5744	-4.7727	-7.8490	-8.7320	-3.0521	1.1309	-3.7440	-12.4279	0.5899	-14.8775	4.5762	-6.1216
4200.0617	-3.5708	-5.7989	-56.4121	-11.5777	-6.8278	9.3527	-3.4568	-1.7477	1.5633	10.4325	2.4073	-5.6657	1.5105	-5.2083	-5.8074	-4.4692
4208.0618	1.4588	-7.0171	-58.5852	-17.2974	-10.6641	1.3755	-0.3896	-1.1568	4.5053	14.3881	7.7696	3.1308	-0.2469	6.0130	6.4376	6.6813
4216.0619	-4.6551	-9.4552	-48.4527	-17.2993	-3.3966	-9.8829	-3.5442	-4.8857	-4.4903	-2.6013	-4.1223	-13.0106	-0.7085	-3.0695	7.9196	-3.9425
4224.0620	-1.3488	-2.3547	-38.2314	-5.7454	5.8157	7.4629	1.2038	-0.0777	3.0325	15.6310	1.5396	-8.5029	-3.6078	-3.2921	10.4041	5.2322
4232.0622	-2.0629	-7.3313	-44.1881	-17.3612	-5.2498	-0.8278	-0.0406	-3.4459	7.8676	28.5948	6.1020	-2.1715	-4.0023	-3.0271	12.2027	10.3105
4240.0623	-10.8667	-15.2918	-39.9318	-26.3117	-11.1855	-21.9647	-8.6069	-10.9595	-2.9241	6.2934	-5.6019	-15.2477	0.1371	-16.1052	-0.4286	-9.6097
4248.0624	-6.2039	-9.1010	-24.4154	-17.3312	-1.5502	-12.2201	-6.1938	-6.9736	-1.9860	2.9871	-2.7188	-10.4926	-0.9156	-16.3725	3.5397	-7.1392
4256.0625	-2.4880	-4.2698	-8.1442	-10.2497	9.2510	-8.8046	-2.5592	-2.6900	-0.7487	5.5958	-0.9425	-9.7295	-2.3584	-13.4056	4.5127	-4.9290
4264.0626	-8.0508	-3.2285	6.9693	-1.0269	6.4511	-8.8790	-3.3970	-4.0636	-3.4383	2.0335	-8.4711	-16.4324	-1.2578	-13.6538	-4.2594	-9.9451
4272.0627	-0.6681	6.5367	23.9486	15.6645	0.7291	13.1989	2.0376	1.3950	3.0161	9.9287	-1.4193	-2.5819	-3.2437	0.8642	5.7479	3.7827
4280.0629	13.1212	16.1544	40.9653	28.2329	10.1837	22.6258	8.5069	10.4742	10.0589	16.8917	13.4073	15.8286	-5.7728	15.4784	16.5593	14.6881
4288.0630	15.8377	13.3677	42.2309	26.0315	7.2985	7.6376	5.5061	8.9956	10.8814	14.0551	19.6195	24.7214	-4.1062	13.3747	14.5781	12.0025
4296.0631	13.3875	8.9285	40.7793	19.5605	-2.6133	-2.6962	1.9025	5.6035	5.6854	3.5351	14.6654	20.4545	-0.8571	11.8834	7.2956	4.4704
4304.0632	7.5036	9.4725	43.1280	16.1070	4.9238	2.7687	2.5659	6.8087	3.3148	-2.5047	9.4145	15.2648	-1.5531	16.2265	1.1916	-3.1685
4312.0633	3.2422	9.5755	42.9602	16.8301	5.7559	10.9666	-1.9376	4.3386	4.5177	-3.6779	10.2546	17.4880	-1.2741	2.8228	-2.4335	-9.5699
4320.0635	9.9465	10.8988	48.1937	22.5178	7.7785	6.5233	-1.0758	5.5698	5.5570	1.3768	13.7079	18.5248	0.2389	-5.1851	-3.5638	-4.5923
4328.0636	14.7266	7.8376	41.4061	13.2877	9.9848	-8.4280	3.0169	7.4946	7.0150	8.0635	17.1841	20.7599	0.1114	4.4366	-2.0612	2.9034
4336.0637	8.2854	2.4237	37.8961	6.5491	-1.1877	-14.2145	-3.9189	0.7301	-1.3336	-11.6038	7.1138	12.4860	4.1386	-8.3908	-8.8855	-8.0900
4344.0638	4.0629	7.4010	52.2165	19.2849	7.4416	-1.1407	-0.7227	1.5229	-3.4635	-19.2511	-1.8767	7.4506	3.1957	-10.8474	-7.9389	-3.0669
4352.0639	6.6974	9.0004	45.7419	16.1885	12.7884	3.1604	5.0512	5.0604	4.8796	-0.8458	6.3089	16.5143	-1.3490	2.5128	2.7092	9.7905
4360.0640	9.7642	7.3322	42.9290	14.8097	6.4354	-1.8622	0.5909	3.3633	-0.1287	-7.8530	5.1336	9.4798	1.1018	-6.2552	1.1608	0.9499
4368.0642	16.5407	19.0523	60.1776	29.2340	23.7503	20.9036	12.2894	13.3481	2.7084	-5.2206	5.6902	12.4642	-3.4214	12.8524	13.6224	16.5708
4376.0643	16.9047	20.2356	54.0170	20.9325	22.6358	29.5396	18.1515	16.1178	11.7060	9.6893	13.6836	26.8883	-8.6429	34.4872	27.5388	30.5353
4384.0644	2.8419	4.9232	36.9684	7.1026	8.9566	-4.4559	5.1000	2.7598	0.2803	-9.7732	-0.2938	9.9661	-1.9253	10.3497	7.4347	8.5621
4392.0645	-2.9856	1.1652	31.6983	7.9400	12.6309	-13.4780	2.7204	-0.0226	-7.2650	-21.0574	-11.7153	-4.8658	2.4085	-2.4010	-9.2073	-0.0232
4400.0646	1.8520	5.3118	36.6304	11.0173	0.0410	3.5458	2.7747	1.4101	-3.6826	-11.4707	-6.9888	-0.7382	1.6987	0.4750	-3.2351	3.4401
4408.0647	5.4003	9.8088	45.0159	16.6849	3.2507	12.3776	6.6289	4.4060	-0.0555	-4.5913	-3.6874	3.5830	-1.1252	6.9244	6.1523	11.8456
4416.0649	10.1658	14.4693	43.2482	17.8047	24.3810	19.0267	15.7715	11.9083	4.6816	2.5570	1.0857	10.0078	-4.0018	17.9445	10.1850	24.6946
4424.0650	11.6572	12.3209	42.6230	17.4679	16.3517	11.0522	12.3723	9.7152	3.1197	0.6144	2.1809	9.4778	-2.4118	14.3213	9.3209	20.5423
4432.0651	10.8109	10.2513	38.9003	17.4358	12.6010	3.6885	9.3456	7.9791	1.5347	-2.0839	2.6357	7.8908	-1.9904	13.7650	9.0939	14.5189
4440.0652	11.6064	9.9788	26.7073	12.6273	17.8261	6.2735	10.1513	9.8042	1.2167	-3.8795	4.1609	8.0124	-2.1669	16.2723	9.0160	12.9894
4448.0653	14.3121	9.3787	23.3409	13.3419	14.4251	1.5689	10.6386	9.9336	-1.9455	-9.3820	2.2097	4.8137	-1.0548	19.3425	11.0798	14.0348
4456.0654	13.5716	9.2897	18.0404	12.2885	17.9865	3.6737	10.1495	11.2518	-1.8824	-8.1053	2.8984	3.6594	0.4354	16.9307	1.4153	8.9345
4464.0656	7.4409	7.2158	16.0719	8.6471	16.6817	7.1892	5.7862	8.6553	-1.7576	-5.3993	0.9599	-0.0547	1.9750	5.0990	-10.9788	-1.1040
4472.0657	10.9776	9.8964	22.7079	5.5882	15.8922	13.7599	11.2227	10.9943	1.7760	2.3006	3.1103	4.0191	-2.2954	18.6994	5.5451	11.5968
4480.0658	8.8877	6.4536	11.3214	-11.1285	15.6486	16.7406	9.0573	9.0057	1.7811	0.5671	3.8379	4.8823	-3.0604	13.8253	8.9313	8.7517
4488.0659	-5.4470	-7.3549	0.1843	-21.2850	-0.6294	-10.8397	-6.0780	-5.2101	-9.5402	-19.7575	-10.1491	-11.4805	4.3374	-17.4007	-12.7661	-15.5854
4496.0660	-6.0586	-7.1780	6.4610	-13.6078	-7.0007	-17.4540	-4.1966	-6.1004	-9.2070	-17.8695	-12.1498	-11.3487	3.2182	-7.3234	-7.0685	-9.2015
4504.0662	-4.3132	-1.1991	5.3756	-9.7757	0.1823	2.2414	0.0581	-1.3201	-0.1562	-1.6634	-2.6923	-0.7370	-2.4385	3.8881	5.1876	-1.3838
4512.0663	-3.5550	-1.7760	1.3815	-7.0438	3.1858	-4.0439	-1.4435	-0.1285	-0.5735	-1.4039	-0.0465	-1.0693	-0.7085	3.0108	-4.0727	-8.6295
4520.0664	0.1338	-1.2465	2.6559	-5.9938	3.9478	-10.0335	0.3705	3.4166	-2.1699	-3.1777	1.1553	-1.2150	1.9621	11.3438	-14.8830	-12.2368
4528.0665	-6.5319	-6.0967	-6.3713	-12.6880	-6.5684	-9.9303	-6.0876	-2.8898	-6.1428	-10.0240	-5.3756	-8.4113	4.4073	-3.2482	-20.4053	-20.6032
4536.0666	-9.9929	-11.1613	-13.5802	-16.2029	-19.5825	-16.0144	-12.1886	-9.3519	-12.5882	-22.7760	-13.1122	-15.9636	8.6286	-18.1641	-25.6236	-26.3659
4544.0667	-9.3060	-8.5195	-2.2641	-12.7956	-12.5677	-12.9663	-10.7572	-7.3322	-10.3395	-20.9980	-10.7702	-11.2386	8.2219	-18.8482	-28.4551	-25.4821
4552.0669	-7.1715	-1.4895	10.4414	-2.8400	0.9137	0.1728	-5.2468	-2.5730	-2.5616	-7.4607	-3.9201	-2.8446	2.2155	-10.7094	-15.1287	-15.2245
4560.0670	1.2402	5.4020	14.2396	2.4808	-2.1642	17.2378	0.2487	2.6616	3.0642	0.1837	4.5418	8.7237	-1.8514	6.9611	4.1243	-1.9159
4568.0671	2.1503	0.8110	9.2403	-6.9202	-9.3297	5.3629	-1.7098	-0.1960	0.0793	-7.6834	3.3632	9.6375	0.3464	5.3380	4.0391	-2.1691
4576.0672	-2.8908	-5.8624	-3.1762	-12.7216	-2.1732	-15.7161	-1.4133	-2.8878	-7.7640	-19.1327	-8.0688	-5.0589	3.3003	0.5396	-6.2412	-5.1589
4584.0673	-11.2479	-5.6331	-4.5769	-8.9124	1.8471	-9.6146	-1.7535	-3.6561	-7.6803	-17.7453	-13.2548	-10.2850	2.5332	0.3377	-13.3937	-9.9085
4592.0674	-13.4279	-6.9664	1.6209	-8.2759	-4.5398	-11.1912	-6.0296	-6.9636	-3.4975	-9.3905	-8.7688	-4.1497	2.7107	-9.3033	-16.4203	-12.5107
4600.0676	-2.1973	-4.3877	-1.1033	-9.2032	-11.1415	-5.6390	-2.6538	-3.2124	-2.1569	-2.7822	-3.5039	-1.3672	4.0122	-5.3419	-11.9101	-3.3788
4608.0677	-3.2583	-3.5411	-4.6216	-10.5240	-20.1945	5.8938	-2.7630	-4.2046	-5.1821	-7.6479	-9.1063	-7.3967	3.8182	-2.8321	-6.2185	-2.5868
4616.0678	-8.7488	-5.6949	-1.7814	-8.8373	-11.6904	-4.5687	-4.9184	-6.6438	-8.8912	-17.5492	-14.1414	-12.7206	3.3643	-8.1880	-7.3924	-9.0345
4624.0679	-0.2519	1.4429	5.8212	0.6896	6.1208	1.0274	0.9902	1.7342	-0.1546	-3.0406	0.2688	1.5453	-0.2867	2.4717	-2.2048	-2.0383
4632.0680	0.5390	2.1343	3.6872	0.0668	-2.9596	7.3226	1.4131	0.7731	6.7283	9.3176	7.3325	12.3551	-3.6028	9.3210	10.8442	6.8259
4640.0682	-6.7603	-4.5113	-9.5527	-13.1735	-9.2444	-0.6416	-1.6429	-3.9508	-2.3007	-6.7309	-5.3143	-2.0675	-1.2539	7.1482	5.8743	-1.8548
4648.0683	-4.6598	-5.2284	-8.7839	-15.5357	-1.7570	-8.9208	-1.4859	-1.2245	-6.4016	-10.2534	-6.9989	-10.1188	1.3820	5.9356	-7.3066	-11.4579
4656.0684	-4.6071	-7.6997	-2.3839	-8.7600	-5.1897	-23.6499	-3.4748	-4.9835	-5.6867	-6.1102	-7.1794	-10.1001	2.7052	-4.8617	-8.8614	-7.5341
4664.0685	-11.1153	-7.7198	-5.9746	-6.0548	-5.6404	-14.0996	-4.1966	-8.1930	-4.6240	-5.2004	-11.8260	-12.0174	1.0489	-11.5697	-4.2579	-3.4041
4672.0686	-7.9092	-6.2765	-11.6611	-6.7019	-11.7099	-5.8687	-5.3177	-7.8008	1.3277	7.3957	-2.5811	-4.1241	-1.7820	-9.1146	6.5759	-0.8224
4680.0687	-3.7228	-6.5540	-16.5772	-5.9594	-12.1638	-9.1849	-7.4010	-7.4266	-2.6817	-1.3375	-2.3117	-6.8941	0.7048	-14.4973	4.4851	-5.8662
4688.0689	-2.0780	0.2350	-14.6084	-1.6233	11.6648	6.8575	-1.5722	1.1755	-5.2342	-10.3754	-4.4939	-10.6342	0.7066	-8.2227	-4.3125	-10.1967
4696.0690	6.4328	2.5328	-13.0198	-0.1079	8.8362	2.9135	4.6481	5.7707	3.7829	8.4815	8.2041	4.8508	-2.3607	12.5503	6.5917	5.2139
4704.0691	5.4740	1.4158	-18.8769	-0.3719	-6.1342	9.0133	3.1416	2.4361	6.2702	13.2375	8.7019	9.2362	-1.9477	10.7591	10.9793	11.8739
4712.0692	-2.0260	1.1622	-24.3171	-3.2276	2.0259	21.0132	-0.6323	0.7379	4.1054	8.1570	3.5924	1.8119	-1.4875	-4.9125	2.3649	0.7700
4720.0693	-6.7160	-9.0079	-31.7214	-13.1593	-2.5744	-14.4456	-5.4199	-5.1561	-0.9105	3.8277	-0.4109	-6.7526	0.3443	-7.0149	-4.0428	-9.0523
4728.0694	-12.4541	-12.7911	-35.7942	-13.2854	-9.2422	-24.4172	-6.5508	-8.7414	-4.2905	0.2654	-7.5757	-14.5387	0.4144	-2.9233	-4.2069	-10.8194
4736.0696	-13.0779	-11.7024	-39.2077	-9.9627	-14.1334	-13.5763	-8.4226	-10.6582	-3.4101	0.6904	-7.9570	-13.5788	0.6695	-11.9756	-1.0755	-8.2549
4744.0697	-13.4243	-13.7792	-41.4748	-13.3808	-26.1373	-10.9340	-15.1851	-13.7538	-9.9434	-14.1276	-12.2512	-18.2694	6.7797	-26.5491	-15.1383	-21.4915
4752.0698	-5.1886	-2.4488	-28.7164	-0.7592	-13.6468	14.5447	-8.1655	-3.3713	-7.3094	-9.3686	-7.4705	-15.7610	5.1039	-14.3691	-14.7416	-18.7489
4760.0699	7.9033	5.5870	-21.7374	12.0941	2.9687	18.3101	3.2539	5.4289	3.0181	12.0179	5.8155	-2.2450	-0.7635	1.3741	5.5049	6.5706
4768.0700	7.7116	4.8483	-26.3156	5.7150	8.3901	18.6718	3.1714	6.3616	4.0473	11.3681	8.5289	1.3278	-0.8341	0.8566	3.2000	4.3527
4776.0701	6.3389	1.7080	-33.1382	-3.8097	1.3329	14.5512	1.4883	4.9772	5.8976	16.0940	11.7827	4.4759	-1.6268	6.5291	4.5650	1.5089
4784.0703	-3.0423	-13.9086	-46.2940	-13.7257	-20.9129	-27.2624	-6.5748	-9.6502	-2.1195	5.7194	-1.3811	-7.5458	2.9764	-9.3603	1.3697	1.2775
4792.0704	-8.1641	-12.2529	-40.1078	-12.0102	-6.7956	-20.6111	-7.4489	-8.6611	-8.8126	-9.9334	-10.8297	-18.7812	4.7597	-19.1791	-10.6463	-10.3143
4800.0705	7.6313	2.1106	-27.2601	-3.0814	7.1634	8.9799	3.6759	6.0385	3.2988	11.7984	8.7139	0.0117	-2.2399	9.1143	7.5153	3.1177
4808.0706	7.7707	-6.1336	-40.5738	-11.4582	-20.6539	-6.7945	-1.0635	-1.8178	-0.4955	8.7385	4.2198	-3.2205	2.2704	3.4439	7.4189	6.8471
4816.0707	-4.0741	-12.5762	-51.7133	-18.1439	-18.1461	-13.7945	-6.4499	-8.1226	-10.8068	-12.5053	-11.7751	-20.2114	6.0414	-13.3040	-6.1838	-6.4028
4824.0709	-7.7098	-8.9955	-50.1550	-10.6055	-4.8305	-6.4064	-4.8006	-6.0231	-3.4106	-1.6666	-4.8376	-11.7556	0.2028	-7.0986	2.8554	-4.4295
4832.0710	-4.9070	-6.1711	-48.2268	-1.2387	-12.6634	4.5004	-7.8159	-5.4278	-2.2364	3.2878	-2.0821	-10.9744	3.9821	-17.9562	-9.5878	-9.1248
4840.0711	7.6393	2.5780	-44.2408	7.9786	0.5886	18.1937	1.2996	5.5165	-1.5032	5.4408	2.4161	-8.9834	4.7477	-5.2578	-11.6795	-0.6928
4848.0712	11.0206	3.1166	-46.7288	8.8837	5.7928	8.5471	6.9434	7.7948	6.8870	19.3801	12.9447	5.2729	-1.7640	15.7118	9.7588	14.9948
4856.0713	1.6609	-8.8372	-56.5682	-3.4404	-15.7256	-13.6450	-5.8513	-4.8596	2.6371	13.7211	8.0608	-0.4609	2.3846	-7.0780	0.7951	0.6110
4864.0714	-5.5336	-15.7281	-61.2612	-15.2448	-30.1092	-20.2057	-12.4385	-12.5613	-5.1978	-0.7089	-3.1893	-11.6109	5.7886	-19.6154	-4.6242	-8.7471
4872.0716	-2.3369	-8.7234	-50.7171	-11.5772	-23.3077	-1.4428	-7.3322	-6.9634	-0.3452	6.9680	1.6537	-5.5131	1.4588	-7.0465	5.4076	-2.8880
4880.0717	5.6062	-4.4313	-46.3134	-10.6487	-10.9312	2.0238	-2.7126	0.5064	3.4480	17.2733	9.9452	-1.1170	1.3994	-1.1825	-0.8772	-2.1629
4888.0718	-0.1130	-13.7460	-62.1511	-25.6414	-16.2843	-16.0741	-4.7816	-6.1968	-3.8198	5.7032	-1.7447	-12.8755	4.2319	-10.1993	-3.5655	-1.2898
4896.0719	-3.7043	-11.5913	-55.1534	-22.1297	-8.9781	-5.0020	-4.4428	-7.3394	-6.1945	1.1098	-9.3413	-20.9461	3.3279	-22.2612	-1.2133	0.2189
4904.0720	-1.4382	-3.4368	-28.7616	-9.2185	11.6692	0.7383	2.3256	0.2954	1.2468	13.4927	-1.7374	-11.3956	-1.3595	-9.1430	-0.0834	4.5400
4912.0721	-8.7770	-9.8399	-24.5238	-19.9467	1.8019	-16.9987	0.6436	-5.2549	1.4060	11.3595	-4.4585	-7.9223	-3.2554	0.9110	5.6872	5.1004
4920.0723	-10.6309	-11.6919	-20.1203	-23.5197	-11.9013	-13.4116	-5.4198	-9.6364	-3.8922	1.6039	-10.1936	-14.5890	0.1660	-12.2354	0.1147	-4.3665
4928.0724	-4.4507	-2.9571	0.6187	-6.0003	-5.3576	-2.0582	-3.0147	-3.6180	0.5721	7.1619	-1.9653	-5.6201	-1.3591	-5.7230	1.2057	-4.1082
4936.0725	-0.4419	4.3819	17.4363	6.5614	8.2241	3.7161	2.5883	1.8702	7.3541	12.4523	7.1637	8.7765	-7.2507	10.2977	17.3779	5.5017
4944.0726	-8.5581	2.1510	23.8388	5.0000	14.7455	-1.1267	0.3724	-1.1621	4.1684	-0.5713	0.5404	7.6661	-6.0556	3.0488	9.1850	-0.4178
4952.0727	-16.0687	-3.0164	28.8796	0.6219	9.5167	-14.9424	-3.6276	-6.2675	3.2894	-4.0511	-2.7585	8.4288	-4.6417	-1.1093	0.7989	-6.3891
4960.0729	-4.1480	3.5781	38.7505	6.4340	16.1749	-9.1313	3.3194	1.1839	7.6729	7.7557	5.9283	13.6563	-7.8233	12.4085	13.2536	4.4652
4968.0730	-4.8281	4.6472	39.7320	7.1859	14.8603	-3.6699	4.2373	2.7250	2.1855	-4.1313	-1.1658	7.4914	-4.2783	14.4237	1.9931	0.0944
4976.0731	-15.7028	-1.9162	37.2804	1.4173	-3.6456	-8.0151	-4.5698	-6.6429	-1.3545	-15.1532	-8.5506	6.1946	-0.7339	1.1560	-7.2207	-9.6855
4984.0732	-10.8046	3.0082	47.5598	9.3732	0.5595	3.0805	-3.0398	-5.3379	3.5270	-3.9203	-3.3468	9.6047	-4.2206	-5.7199	6.6237	-0.7172
4992.0733	-6.8553	9.4462	55.8703	17.8813	13.7524	15.9537	0.8945	0.8115	4.7175	0.6030	-1.6138	7.3112	-5.1083	-4.3078	3.3529	-1.0491
5000.0734	-1.2856	12.1829	57.4206	19.1535	21.8655	15.2967	4.3604	5.6742	9.8418	8.7960	7.9531	17.4234	-6.8377	5.4308	5.7658	2.7972
5008.0736	0.3145	9.1594	51.2695	17.9812	15.2308	2.5928	7.1473	4.3229	9.9519	8.1738	7.1275	21.2343	-6.0887	14.0442	10.2169	14.4324
5016.0737	-7.4424	2.7472	40.8125	14.4104	-1.0325	-6.0714	1.7146	-1.6695	0.9210	-7.6761	-5.7831	8.7226	0.1124	8.0753	-6.9483	3.4016
5024.0738	-3.1208	8.1670	43.4059	17.1664	21.3599	4.4416	4.2869	3.5715	5.5654	-2.3706	2.8550	14.8007	-4.1528	4.6405	2.1033	4.7320
5032.0739	-3.5226	8.6885	39.2540	11.6327	31.8501	10.1060	6.3102	4.2056	7.7686	-3.1995	4.4835	19.7466	-6.3747	1.6967	9.5222	11.0100
5040.0740	-12.0164	-1.3163	27.6305	-2.0832	2.1249	-0.5335	-4.0013	-4.7004	-2.8841	-17.7408	-8.8381	3.9911	2.5731	-10.6586	-16.0313	-9.3628
5048.0741	-3.8060	2.1193	37.6694	4.9826	2.6277	-3.2021	-1.7217	-0.7680	-2.0682	-9.4907	-4.3652	1.9405	1.9410	-5.3408	-12.9823	-8.1855
5056.0743	7.3020	11.2063	46.8784	20.0075	9.8238	8.4696	7.7519	7.8724	6.2551	7.6222	6.2631	13.5661	-1.9900	13.4732	0.0492	10.2350
5064.0744	6.9951	10.4652	41.1136	20.5987	2.4774	10.5545	7.6489	7.5525	8.5570	13.9301	7.7181	16.6246	-0.0656	14.0341	-7.2824	12.2986
5072.0745	-1.2458	3.7260	37.0886	11.0966	0.5207	-2.6155	4.2074	0.7082	2.0903	0.1800	-3.3517	6.8722	0.5173	4.9581	-5.7498	9.0617
5080.0746	-11.9359	-1.5445	33.4349	2.0614	-13.7743	-3.3747	-2.3564	-5.4162	-6.3852	-15.0866	-16.2208	-7.0335	3.1393	1.4433	-15.1548	-7.4939
5088.0747	-7.9761	2.8428	36.9936	5.9433	-9.0529	8.6206	-3.2720	-0.9189	-1.6804	-3.7710	-7.0517	-2.0745	3.4661	-1.6699	-24.2335	-15.0960
5096.0748	5.8655	9.7373	46.3075	15.0838	10.9222	9.2428	4.6880	5.9927	7.3783	8.8860	8.1436	15.4186	-1.5544	2.4569	-2.7270	6.4207
5104.0750	8.5417	8.9254	46.3188	15.4423	1.9849	3.4484	6.6258	4.8022	7.3266	8.4526	7.8698	17.7196	-2.8567	11.9795	10.1750	16.2470
5112.0751	12.1659	12.3319	48.8330	17.6113	-0.2947	14.9067	6.5276	7.7010	4.9768	4.3691	7.5731	14.8903	-1.1180	12.6727	5.7665	11.0139
5120.0752	24.0054	20.9906	52.4388	26.4043	12.3499	29.6386	12.6980	17.4190	7.9626	6.7429	16.9362	23.2904	-1.5950	22.7174	7.9021	16.1708
5128.0753	23.0887	16.0143	36.8114	24.3488	6.4656	12.2852	12.9368	15.4719	10.2100	16.3636	19.6198	23.8782	-2.5530	31.6961	11.1180	20.0715
5136.0754	13.8870	9.0715	24.5923	15.6702	4.1798	6.0111	5.8630	7.4151	3.2319	4.9880	8.4568	9.0671	-0.6921	8.8880	7.4010	10.3523
5144.0756	16.4509	17.1394	33.4629	21.9212	24.1783	30.2790	10.3886	13.6573	1.3038	-3.3838	5.1280	5.7054	-0.8277	2.6377	4.6966	11.3044
5152.0757	19.6598	16.1667	28.9633	23.2568	31.7312	14.2147	18.5149	16.6423	7.3115	12.1243	10.1355	11.9969	-4.4245	21.4431	14.0518	29.0800
5160.0758	6.0287	1.7860	7.9039	4.1156	11.5166	-9.4953	9.5563	3.2247	3.0858	8.0055	0.3732	2.8480	-2.9487	9.2734	13.0908	22.9221
5168.0759	-6.2924	-1.3437	2.7825	-3.2003	0.3265	4.2745	2.4638	-2.4786	-3.5061	-5.6880	-12.3608	-8.8856	0.7623	-4.1322	-2.7709	6.4051
5176.0760	-0.0757	4.8498	14.5077	8.4199	6.9884	9.8501	7.5256	3.4883	-2.7711	-5.2944	-9.9134	-6.2427	0.3846	6.4810	-2.1371	10.9196
5184.0761	11.5664	11.9195	26.9104	18.2382	7.3346	18.2940	8.8085	9.8972	4.0611	6.5474	5.6112	8.2390	-0.4249	13.0755	0.6592	11.7959
5192.0763	15.9530	11.4727	22.3211	15.7700	-1.7031	17.9996	6.7753	10.5398	11.4882	21.1954	18.5253	22.4302	0.1635	14.8438	-2.1171	12.0310
5200.0764	5.4920	0.7151	10.2755	4.1420	-10.8517	-4.2674	-0.9480	-0.4900	3.5899	3.2592	7.2056	13.0014	1.8731	0.3896	-0.0503	5.3693
5208.0765	-0.4955	1.5248	18.8408	5.9410	-2.0410	0.9765	-6.6928	-2.5957	-4.3313	-12.8044	-1.5963	-2.3276	1.6794	-15.2471	-2.8248	-13.5314
5216.0766	14.2192	9.4325	27.3740	14.5303	10.7111	5.9248	0.8387	7.0596	1.8705	3.9855	11.5025	4.2639	-2.0834	-2.1171	9.1688	-3.6085
5224.0767	15.5695	7.2992	22.6251	11.1256	-0.9503	2.3200	1.3827	4.3745	2.1494	1.6858	11.3257	9.3122	-2.3351	3.0921	20.0262	6.3462
5232.0768	5.5975	5.7021	20.3335	9.5819	-1.6736	10.1798	-0.9377	1.4953	-0.1151	-4.9015	2.8529	4.6603	0.0045	-4.6265	5.6192	-0.1232
5240.0770	4.5991	4.4885	12.9107	4.8649	16.7791	1.5249	6.7246	4.7301	3.1192	4.8629	2.5272	3.8518	-2.8800	4.0527	7.1205	11.4964
5248.0771	-0.3925	5.5176	13.7672	0.0476	15.1559	13.7020	7.1539	4.3797	3.9715	4.0790	0.2729	4.1665	-5.8746	11.4054	13.7186	10.6267
5256.0772	-1.6850	9.3308	20.7849	7.2555	3.5418	30.9007	4.6443	5.1969	5.3486	7.2055	1.2672	5.8408	-4.3587	12.9867	5.0746	3.1736
5264.0773	-5.6469	-2.0526	5.1978	-1.1581	-9.0861	-3.3783	1.6932	-3.2327	1.3783	3.3728	-4.8655	0.6690	-1.7624	9.0268	5.3484	8.0882
5272.0774	-9.3461	-7.6484	3.5385	-7.0339	-16.3886	-16.1275	-5.7036	-9.6282	-6.0669	-14.3451	-11.0755	-5.6797	1.4623	-5.5436	1.9895	-3.2054
5280.0776	7.4189	6.5948	22.5980	11.8781	-1.9507	7.4141	1.8254	3.4775	1.1683	-4.0948	4.6291	9.5000	0.2108	5.1492	4.7189	4.1990
5288.0777	8.5540	4.7044	9.2922	6.4427	2.6558	-0.8176	10.7546	5.8175	6.9396	8.7515	7.1245	16.6193	-2.9203	24.8649	14.1379	25.2341
5296.0778	-9.3956	-6.2353	-8.1708	-9.3593	-1.5467	-10.8758	2.3246	-4.2277	-4.5581	-10.1103	-13.1180	-6.7174	1.3841	4.2218	-4.8127	6.0316
5304.0779	-1.9735	2.0107	6.5235	6.1156	5.8930	7.0875	0.6144	0.2202	-5.6165	-11.3406	-9.7741	-9.8274	3.0077	-10.9328	-9.8166	-1.7912
5312.0780	20.5075	10.2757	16.3981	14.4921	0.3956	14.0701	8.1112	8.1061	4.0915	7.3596	9.9635	11.0411	0.2034	3.7757	14.6314	22.3620
5320.0781	22.9699	8.5662	10.7862	4.5518	1.7622	10.0283	8.0770	8.9598	1.1170	0.8796	10.0423	9.0575	0.4744	6.8167	16.8270	18.9507
5328.0783	8.8125	3.6382	-1.2989	-6.7384	10.8234	7.2257	4.2665	5.6860	-1.0254	-3.9478	4.0683	0.7643	-2.3340	7.1260	12.5326	3.2386
5336.0784	-1.9010	-7.9219	-19.6900	-23.7298	-2.1903	-13.6261	-2.0584	-3.3941	-5.1625	-7.4548	-3.7199	-8.4527	-1.0251	1.7451	8.2877	-4.8865
5344.0785	-8.8104	-11.9381	-20.6680	-22.8038	-0.7681	-24.5071	-6.5269	-6.1321	-17.0815	-28.2764	-18.5170	-27.4710	5.6753	-10.6806	-16.9219	-23.1347
5352.0786	-3.8785	-4.7702	-12.8542	-9.1893	6.1559	-13.6362	-2.8157	0.4591	-9.7620	-16.7023	-7.6686	-14.9316	3.7437	1.3573	-17.4077	-20.1315
5360.0787	8.4304	-4.3428	-19.3205	-12.3195	-2.4025	-14.8222	-2.9629	-0.0320	-1.2495	-1.0342	8.6893	1.9256	0.3461	-0.8575	8.4148	-4.0426
5368.0788	4.2225	-5.9096	-20.5839	-12.8200	-1.3194	-12.2565	-8.5388	-4.1103	-9.5354	-17.2617	-1.1601	-12.3538	2.3866	-20.3236	5.6625	-15.4630
5376.0790	-1.5499	-6.2581	-19.6331	-8.7609	-8.2528	-9.9117	-9.8913	-4.9689	-8.3561	-14.1710	-2.8088	-11.7547	3.6362	-15.3479	-5.7123	-20.7390
5384.0791	-4.6235	-7.6578	-26.5327	-11.5612	-2.7023	-10.7117	-7.7901	-5.8127	-2.8275	-6.3064	0.2772	-3.4283	1.5628	-14.8663	-2.1809	-11.3110
5392.0792	-9.8948	-5.4558	-29.7402	-11.2103	13.1367	-0.9644	-4.3447	-2.9144	-2.8168	-7.1121	-3.7565	-8.0010	-0.6684	-11.1422	-4.8765	-12.5700
5400.0793	-8.0670	-11.3103	-37.8469	-17.9007	-11.2824	-16.5751	-7.3372	-6.6751	-5.0949	-3.2157	-4.4526	-12.2011	1.8169	-3.5610	-5.7838	-14.6001
5408.0794	-13.2335	-15.6761	-39.8114	-22.4903	-25.7564	-16.6938	-14.5481	-14.3721	-10.0690	-12.8552	-12.0581	-19.4586	4.3431	-21.8130	-6.4098	-20.5481
5416.0795	-16.0373	-10.3742	-34.1502	-16.1712	-21.6916	5.9239	-13.8862	-11.4074	-8.2931	-12.9505	-12.7775	-16.9594	5.4297	-24.2027	-17.7441	-24.2666
5424.0797	-15.2470	-16.4413	-45.2834	-18.7811	-23.7973	-19.5490	-12.4722	-13.9447	-8.2733	-9.8676	-12.6823	-16.4863	6.1560	-20.3133	-15.8903	-15.7706
5432.0798	-16.8271	-14.9449	-42.9943	-10.5260	-1.5527	-26.0627	-9.0769	-13.3991	-6.9779	-10.2205	-13.2689	-17.4746	1.1746	-23.4851	-1.5313	-7.4554
5440.0799	0.9809	-0.7547	-25.8134	6.6835	-4.2326	0.8727	-1.0016	-0.2400	3.2641	8.6577	5.6119	2.3873	-0.7524	2.6423	4.8651	2.7681
5448.0800	7.0788	-4.3061	-35.3824	-1.4111	-31.9331	-3.3087	-2.6296	-2.1265	0.7131	9.3861	5.6625	1.4270	3.5990	9.2851	3.0727	4.7488
5456.0801	-7.0519	-10.4347	-48.5024	-12.2764	-26.2794	-2.7531	-7.2680	-8.7167	-2.8365	4.5723	-5.6706	-11.7660	3.4417	-9.1352	-3.9559	-3.9604
5464.0803	-10.6579	-10.9793	-49.8293	-13.0656	-18.7838	-4.4843	-7.9928	-8.8383	-0.2838	6.7963	-2.9815	-7.8255	1.7862	-9.3450	-4.8796	-6.9033
5472.0804	-16.6428	-14.3605	-49.6932	-14.9356	-13.9782	-14.2454	-10.8423	-13.3700	-8.5559	-14.6508	-13.6545	-17.3389	2.0035	-17.1701	-0.6039	-12.0926
5480.0805	-10.0655	-8.4289	-36.9381	-6.3929	-5.2956	-5.1169	-10.6285	-8.6097	-8.5670	-13.9626	-9.2862	-17.8998	2.4259	-22.5891	-3.8109	-17.7052
5488.0806	8.4743	-0.9855	-30.4576	2.8200	-4.6448	0.2027	-6.5505	0.4512	-1.6840	2.9742	8.7169	-5.0815	2.5189	-13.6702	-0.0639	-11.4753
5496.0807	3.1784	-0.9888	-41.3601	-0.1928	0.8030	9.6515	-2.1532	-0.0998	-1.1646	1.1571	2.6584	-6.5797	-0.5174	-8.1871	10.1165	0.0391
5504.0808	-9.3717	-5.7771	-47.6950	-9.2375	-4.7867	9.6738	-5.2726	-4.2547	-1.5885	-0.5402	-3.5040	-8.7477	0.2676	-6.8412	-2.2794	-8.6805
5512.0810	-6.8452	-8.1591	-42.2102	-12.3451	-7.2921	-3.4256	-11.8714	-4.5510	-6.7417	-8.8375	-1.5325	-13.1811	4.8662	-15.6270	-18.7334	-29.3811
5520.0811	10.2723	0.9756	-31.4289	0.4941	4.6786	2.5109	-2.0265	5.0956	0.8746	7.1906	12.1687	-1.0696	1.0855	-2.0805	-1.0976	-8.8721
5528.0812	18.8921	3.3557	-33.3793	6.8223	2.9867	-2.8515	6.1842	9.2917	11.1646	29.0526	24.1099	15.0424	-2.4088	18.4381	13.1081	14.7225
5536.0813	6.2802	-1.6402	-40.4626	0.8857	7.8694	-4.6122	0.2861	3.4495	2.4587	9.0442	9.9475	0.8228	0.4735	0.3654	-0.1170	-0.1721
5544.0814	4.4747	1.4748	-35.9954	0.0793	15.2966	8.8818	3.9358	4.7468	7.1623	14.9516	11.1735	6.3384	-3.6564	3.3019	10.3446	9.1996
5552.0815	4.4992	-3.8439	-41.9396	-10.2384	3.7261	-6.5695	4.4836	1.3709	9.9655	22.1243	14.0556	11.8062	-5.9954	14.5375	23.1096	17.9049
5560.0817	-7.5741	-12.2328	-53.0911	-20.3742	-3.0014	-14.2321	-5.4563	-7.4639	-5.6916	-6.5313	-6.4470	-13.6784	0.8317	-11.1838	3.3713	-5.1211
5568.0818	-3.5921	-9.1236	-56.3048	-15.8219	-7.0185	-3.1765	-3.5698	-4.4817	-0.7403	8.0986	-0.8314	-10.2245	0.8917	-8.3699	0.9114	-0.9046
5576.0819	1.7407	-6.4563	-57.9744	-12.9791	-11.9340	1.1389	0.2863	-0.1415	4.8513	26.0741	6.3485	-6.2587	-0.4250	6.0327	1.7748	4.4634
5584.0820	1.4390	-2.4124	-46.3897	-4.6545	-9.5746	12.9429	0.7477	2.1879	1.8814	21.4435	0.9605	-12.3728	2.9541	-0.3188	-13.3769	-0.7567
5592.0821	7.6065	-4.0973	-46.5321	-8.4106	-11.3052	0.5142	2.6421	2.7615	9.2043	34.2310	12.5127	3.4818	2.3498	3.7820	-8.6756	10.5521
5600.0823	-4.2149	-15.0035	-53.7045	-31.7353	-9.8536	-20.4900	-3.1611	-5.5307	-2.1096	10.6250	-2.8519	-12.6892	3.7994	-7.4275	-12.4196	-3.3568
5608.0824	-15.4488	-8.9621	-19.4780	-23.7273	3.1524	-1.4607	-2.9552	-5.1171	-11.4695	-11.3559	-21.8399	-30.7542	2.6593	-11.8706	-18.9923	-17.0524
5616.0825	-1.8856	4.8128	14.9496	3.2137	15.7329	8.7782	6.2044	4.3195	5.9781	18.7774	1.2539	-3.1039	-6.9527	9.4538	8.9481	5.6100
5624.0826	9.7357	8.5236	26.5549	14.0365	18.7721	0.1447	9.5621	6.1955	14.2125	28.9138	16.0368	16.5560	-11.1353	14.3164	33.3096	24.6981
5632.0827	14.2238	12.7650	41.3384	19.7596	13.4012	7.1020	12.7752	8.6000	12.6827	19.7967	14.6791	21.9336	-10.0008	23.8290	36.4126	31.2880
5640.0828	10.0891	11.2498	39.0212	16.1673	12.4675	6.3735	11.4607	8.2230	9.9686	12.6440	11.1440	19.6539	-8.2774	26.4733	27.0034	23.5555
5648.0830	3.0575	6.3623	35.5138	8.4589	11.2138	1.8175	5.8072	3.2703	3.5151	-0.8308	2.2541	10.3692	-4.3499	9.2121	13.4080	11.5853
5656.0831	4.5279	5.3177	43.3152	2.5871	-5.7736	3.3710	3.6316	1.9332	2.0455	-1.6783	1.2852	10.6157	-1.4940	11.0356	7.3772	7.8542
5664.0832	-3.0269	0.0891	41.9659	0.0290	-8.6373	-11.0066	-2.1345	-2.6263	-0.8665	-4.9379	-2.4272	4.1146	-0.2154	4.8735	-2.5755	-5.9134
5672.0833	-5.0288	-0.2152	40.8849	7.6414	10.1141	-21.2574	-1.9159	-2.7654	0.4178	-6.8539	-0.7741	6.7795	-1.1303	-4.6905	-3.5347	-4.4844
5680.0834	-4.5877	-3.6607	31.3808	-2.4803	0.1410	-21.5077	-3.0570	-5.2863	0.0219	-11.3314	-1.0789	12.1825	1.9363	-8.4032	-6.6373	-0.2223
5688.0835	-18.4658	-10.4146	32.7464	-11.4491	-13.1178	-22.9049	-13.3124	-14.4679	-11.7540	-35.4523	-18.8992	-4.9217	8.0763	-29.6922	-27.2097	-22.2426
5696.0837	-7.1352	4.5167	58.0552	10.8114	10.2679	-2.0617	-3.3240	-1.7042	-4.3357	-23.6487	-7.3039	4.8958	1.3634	-10.3159	-11.9575	-12.6344
5704.0838	9.0867	13.3949	55.1606	17.1148	18.7164	10.3042	7.8415	9.5031	9.0256	3.4183	13.3424	25.0128	-5.4212	17.6229	11.4539	9.8972
5712.0839	0.7666	4.6540	41.9687	9.1088	9.6832	-2.3483	-0.9942	0.9590	1.2518	-9.4608	2.8591	12.5495	0.9548	-7.8093	-6.9490	-3.4160
5720.0840	1.6608	7.3654	45.0942	12.5354	7.2564	8.3774	0.1153	2.5021	0.3160	-10.5110	0.4735	10.2832	2.1463	-7.5513	-10.6392	-3.0004
5728.0841	2.7436	7.5480	36.9660	10.7516	-5.3386	13.3688	3.5602	3.1342	2.7310	-2.0825	0.9345	11.6264	0.0307	10.1698	-0.4345	6.4165
5736.0842	-1.2218	3.5023	35.0146	14.4299	-1.9174	-3.3537	-0.4357	-0.4050	-4.3965	-13.4477	-7.0200	-0.9015	3.1436	-2.3918	-10.5856	-3.5208
5744.0844	2.4180	8.2582	42.0101	20.3623	10.7094	4.1254	2.3437	4.1309	-1.2724	-8.7199	-1.9798	3.2185	1.6351	-2.1213	-10.1313	-1.9399
5752.0845	4.9160	10.3380	42.6904	20.8815	4.6315	12.3370	5.1091	5.3470	5.0469	4.2851	3.8425	12.0300	-0.7939	6.3842	-1.4455	8.4618
5760.0846	8.3115	12.1423	45.2440	24.4511	5.8062	12.6083	7.5464	7.5599	6.4629	8.3755	6.0218	13.7910	-1.0552	10.9017	-0.2617	12.7312
5768.0847	2.8917	8.7355	36.8418	10.6255	1.8685	15.9881	5.4347	5.6385	5.2482	6.2749	3.0741	11.0826	-0.7356	11.0673	-4.9500	5.9486
5776.0848	-10.5361	-3.8818	22.5802	-9.1942	-11.8951	-3.9224	-5.3084	-4.4306	-5.8497	-11.3814	-11.2868	-6.9675	5.1581	-5.1036	-26.1198	-17.8962
5784.0850	-18.6494	-8.2668	19.6091	-9.9254	-10.5655	-16.1098	-6.7479	-8.1163	-10.7252	-20.3332	-20.7870	-15.9863	6.3441	-6.9585	-33.0597	-22.6001
5792.0851	-20.7716	-3.9929	25.3423	-4.1662	-6.1764	-2.8547	-0.8488	-7.4667	-3.4412	-13.2062	-18.4708	-4.1605	-0.4170	5.3186	-10.0671	-2.9798
5800.0852	-10.2496	2.6386	36.4711	3.8077	4.0063	3.0309	1.3376	-1.4616	-1.2367	-10.8472	-8.9396	1.5898	-2.7253	8.3882	0.0252	-2.2073
5808.0853	-2.6829	5.8507	34.1295	7.8479	11.3815	5.3850	1.5225	2.9905	0.2918	-6.8073	-0.7506	4.1829	-2.6642	7.0990	-0.3393	-5.8621
5816.0854	-11.7557	0.3331	20.6176	3.7066	4.2082	2.7187	-1.7612	-4.4787	0.4980	-10.4104	-6.1954	5.4329	-2.4709	-2.9654	2.6134	-0.6226
5824.0855	-17.3049	-2.7956	19.5939	1.2524	8.7115	-4.4242	-4.2341	-7.3520	-4.6594	-19.2240	-14.0807	-4.8103	-1.1408	-12.4120	-4.0443	-8.0467
5832.0857	-12.2608	-2.9988	14.4257	-6.7400	6.0188	-1.3449	-4.7902	-5.5775	-5.5204	-14.4444	-11.6953	-9.5434	-0.3274	-14.5006	-5.4302	-12.2733
5840.0858	-13.1280	-6.7835	-4.3483	-13.3743	-18.1188	4.0410	-8.2594	-9.0737	-8.2090	-17.5739	-15.1107	-11.5135	4.4931	-14.8429	-13.1886	-13.8828
5848.0859	-16.7823	-4.6347	-7.4406	-1.7841	-23.8096	11.4634	-5.5918	-6.6800	-8.1020	-15.2528	-19.4991	-13.1797	7.9073	-4.2107	-31.5855	-14.1102
5856.0860	-4.7543	1.1794	6.1426	3.6825	-10.2000	11.9193	2.3447	0.4405	-0.1700	2.5532	-7.9110	-2.3833	4.8348	2.1361	-22.1723	2.2443
5864.0861	3.3444	0.2892	10.6740	-7.4750	-0.4742	0.9434	0.5113	1.6067	-3.5598	-5.3387	-2.8060	-3.8967	3.0205	-3.5420	-9.1925	-3.8749
5872.0862	-2.8386	0.2079	10.0037	-3.9182	4.5686	-0.5001	-4.6604	1.1516	-5.6173	-10.9801	-2.5233	-8.0548	1.6639	-2.5550	-13.6526	-23.0326
5880.0864	-2.3089	3.3730	13.0742	6.2791	7.6836	5.4884	-4.1441	2.0559	4.0353	3.5860	8.1888	7.9264	-0.6880	-3.2371	-10.2343	-15.5210
5888.0865	-1.6135	4.3658	11.8134	1.8655	11.1304	13.6691	-2.2524	2.9301	3.3598	-1.9430	6.4036	9.8561	-0.1457	-5.4544	-9.3664	-10.9054
5896.0866	-2.1476	4.6692	13.0679	3.5302	9.9909	14.0208	0.9094	3.1780	-1.3144	-9.3731	-2.3001	1.4371	0.6600	-0.7219	-8.4735	-6.1281
5904.0867	-1.9704	1.7287	19.1086	10.7620	1.2118	-2.8005	-0.8850	-1.8749	-1.5432	-8.2589	-3.7274	1.5603	0.7529	-6.0808	-0.9161	1.1872
5912.0868	0.7060	2.6209	23.3607	13.7136	1.9840	-6.0934	-1.3495	-1.5433	0.3448	-3.1497	0.6074	3.3833	-1.2076	-5.4089	6.2980	1.5363
5920.0870	13.7808	10.7744	27.4716	18.4976	13.9303	4.3657	10.4402	8.5854	9.0058	15.4945	12.6971	14.7827	-7.2228	18.9080	26.6577	22.6328
5928.0871	7.6906	6.1501	18.4801	9.4323	9.0283	-1.2559	9.9821	5.3644	6.3229	9.9193	6.2819	10.8604	-6.8105	22.6422	25.3864	22.3067
5936.0872	-11.4792	-6.8496	2.3496	-6.7284	-8.1379	-13.5885	-5.7953	-7.2370	-8.3933	-17.0941	-13.5236	-11.8808	2.8562	-6.5123	-10.5669	-12.9240
5944.0873	-9.4382	-6.7163	3.5671	-6.5323	-7.7391	-11.2933	-8.5568	-8.0758	-10.0149	-22.1884	-13.2153	-11.7202	5.6443	-20.6172	-16.2875	-16.2163
5952.0874	4.0606	3.4003	10.6744	3.3862	5.9628	4.2217	1.9452	2.0386	-0.8382	-8.0716	0.7405	4.5135	-0.1270	-0.7392	5.0878	4.3099
5960.0875	19.2653	10.6611	11.3088	13.5921	12.0636	7.4695	11.8321	12.8006	4.9549	4.8955	12.9377	15.8118	-0.8593	22.9646	9.3108	18.8801
5968.0877	19.4519	7.9936	9.9037	15.5501	0.2257	1.8490	9.7830	8.9781	1.5094	-2.4773	7.9137	14.2115	3.5516	14.2618	3.6222	22.2402
5976.0878	10.0517	5.6938	8.7549	13.8101	-11.6311	13.2109	3.0763	1.9634	-1.0680	-7.6508	-0.3870	7.3576	4.8197	-3.2279	0.2695	15.2369
5984.0879	13.4076	7.9310	8.5358	16.2083	-7.1901	14.2111	6.1450	5.4312	3.4179	2.7739	6.0605	12.4569	2.4646	6.1353	4.5468	19.2974
5992.0880	5.7278	1.4110	-1.3702	8.0200	-4.4482	-2.2417	6.7828	0.3325	-0.8365	-7.1798	-3.5614	5.7579	1.0095	7.7155	12.1087	24.2910
6000.0881	-4.8162	-0.9623	-7.0294	-0.5995	7.0398	3.4996	6.8429	-2.3728	-3.9884	-12.2715	-14.4286	-6.3683	-1.2154	-0.4104	12.2732	21.3726
6008.0882	4.7699	8.4183	9.0707	6.7956	21.1519	17.6194	11.1922	8.0868	4.8809	4.9662	2.1171	6.8042	-4.5484	12.7900	11.7032	18.6150
6016.0884	13.6662	11.7287	18.6287	15.7221	8.1327	15.4659	8.9468	10.0995	8.7550	9.1800	14.9811	20.7362	-4.7662	23.5884	18.6678	16.6168
6024.0885	18.4341	13.8076	18.8272	19.5218	13.5730	15.8224	11.0451	11.5989	11.1867	13.3561	19.4483	24.3097	-7.1740	23.7502	30.5243	24.3411
6032.0886	19.2137	15.1173	21.3849	15.6735	25.4741	20.3533	11.1913	13.8696	13.3289	21.6657	22.5538	21.7072	-8.5687	16.0938	27.3797	19.7363
6040.0887	11.7656	7.5600	9.3177	5.9308	-1.0331	16.1269	2.0596	6.1038	7.6631	18.3131	14.5441	9.6574	-3.4356	6.0776	12.2930	3.9647
6048.0888	10.5544	9.0443	1.3582	9.5748	4.8112	19.4305	6.4145	8.8128	5.3410	12.9552	9.7878	5.3148	-4.0344	17.5818	13.2653	7.5663
6056.0889	13.0031	14.0753	3.7475	20.2296	26.4290	21.7237	11.1747	14.9587	5.4151	7.8304	11.7218	7.5256	-5.0988	23.3423	11.5220	8.5777
6064.0891	8.7284	0.9367	-11.2485	11.8235	-1.9248	-12.4099	1.8316	3.4757	2.3876	4.4768	9.5206	8.3117	1.4159	11.2728	0.5571	4.8316
6072.0892	3.3121	-11.3315	-24.0702	-7.8224	-12.5715	-41.2117	-4.0126	-5.7613	-3.0475	-3.7544	2.9622	1.6827	4.1766	-0.8401	-1.4408	1.3962
6080.0893	-1.5138	-10.4724	-24.7327	-18.5648	1.6319	-23.7650	-6.5425	-5.0802	-9.5751	-12.9644	-6.4446	-15.9984	5.1824	-20.5118	-12.3665	-14.3936
6088.0894	-5.2971	-9.0509	-26.9813	-18.5732	-2.0933	-8.5651	-6.2036	-5.7140	-6.5747	-4.3618	-7.8696	-17.1054	3.7014	-21.8589	-11.3766	-11.8498
6096.0895	-4.1159	-4.6844	-22.9225	-9.5432	7.4138	-6.2128	-1.0577	-2.6225	0.6215	5.1672	-0.1123	-6.0535	-3.8626	-3.5165	11.2823	0.1123
6104.0897	-3.6048	0.1050	-24.8166	-4.6044	16.3172	7.3629	1.8387	2.2984	1.8472	6.9617	1.6270	-6.4838	-5.9851	5.6792	12.2191	-2.1631
6112.0898	-3.1595	-0.6783	-33.4289	-8.4408	3.6991	13.8103	4.1425	3.0104	1.9795	9.3318	-0.8170	-5.4411	-2.5007	13.0387	2.3753	3.0564
6120.0899	-2.0072	-3.7138	-37.0348	-7.8066	-5.9609	3.8693	1.3250	1.1939	-0.6171	5.1483	-1.7233	-5.7202	2.6904	8.0899	-11.2378	-0.9208
6128.0900	-6.6407	-9.7249	-44.9612	-11.0456	-15.8128	-9.2195	-5.1380	-3.4662	-4.2513	1.3457	-5.0681	-11.2545	7.7887	-2.9519	-29.5627	-13.5650
6136.0901	-5.0013	-10.0012	-43.8434	-16.6201	-20.6847	-6.1221	-3.1382	-4.1752	-3.9017	3.8053	-6.6358	-11.9365	6.5062	-0.8711	-20.3830	-5.4123
6144.0902	-0.3940	-6.9059	-40.1929	-17.1677	-12.3514	0.5525	-0.9779	-1.5457	-4.5201	3.3350	-5.7374	-14.7456	4.2408	-2.3875	-10.2895	-2.7736
6152.0904	-6.6414	-10.5233	-44.2176	-22.4509	-9.7884	-7.1363	-5.2296	-4.4243	-6.0623	-1.4017	-6.9042	-16.8622	3.8224	-6.0423	-13.8156	-13.7351
6160.0905	-4.1961	-4.9550	-30.0045	-13.8055	-8.7294	5.9089	-3.5933	-2.8370	-1.1333	6.5797	-2.1999	-10.5247	-0.1562	-3.8483	-0.4696	-7.0684
6168.0906	6.0425	3.0406	-25.6690	0.9929	-3.4662	19.7237	3.0774	3.7929	7.1121	26.1351	8.0645	-1.8957	-3.0589	3.3224	9.7481	8.8451
6176.0907	1.3377	-4.3604	-45.3450	-7.8137	-7.6894	2.0854	2.1305	0.3652	5.9511	23.0091	5.8862	-0.8889	-0.6822	6.4557	2.2134	9.4697
6184.0908	-9.1450	-11.1362	-52.3346	-20.2555	-13.5163	-3.6138	-1.9148	-6.1343	-1.2042	6.7670	-7.0839	-10.3811	2.2929	-2.4615	-6.8070	2.3294
6192.0909	-12.4039	-14.8364	-56.8084	-28.8618	-7.1894	-12.7608	-3.7720	-7.2930	-8.2720	-4.6830	-14.6137	-22.9803	3.9887	-8.0915	-14.3438	-8.3956
6200.0911	-10.2657	-14.3719	-50.6965	-27.9095	4.1251	-22.5203	-5.9201	-5.6237	-13.1440	-17.0854	-13.9430	-27.0347	3.8448	-9.5271	-14.3441	-20.7918
6208.0912	-3.2518	-0.7096	-29.1752	-11.3621	5.2417	14.9582	0.4310	2.1647	-1.9903	0.2565	-2.4116	-10.2167	-1.9679	5.1708	1.9265	-7.3574
6216.0913	-1.8862	0.6832	-33.1348	-12.4035	-5.2253	22.8832	4.6929	3.3352	7.9802	22.1696	5.9919	2.2416	-6.4655	23.3816	15.4549	7.6775
6224.0914	-10.4161	-13.1466	-41.9910	-18.1315	-9.8772	-23.4812	-6.1018	-8.3434	-0.5511	9.6244	-1.9485	-11.0067	-2.4267	0.7079	5.5083	-7.6253
6232.0915	-7.4420	-13.3689	-38.3398	-11.5575	-3.6487	-31.5214	-7.8437	-9.5040	-2.7409	6.3336	-2.6072	-14.6608	-0.5204	-15.7328	3.2564	-7.6982
6240.0917	-2.3971	-9.9645	-48.1259	-17.9985	2.9274	-16.1516	-1.8969	-4.9954	-2.8305	4.7269	-2.4640	-15.0528	-3.3984	-5.8675	17.7982	2.2306
6248.0918	-12.2532	-13.7050	-53.8130	-22.3870	6.9034	-19.1519	-5.9151	-9.2259	-9.5358	-9.0597	-13.2285	-27.8956	-3.1066	-14.2548	13.5130	-9.4734
6256.0919	-8.3238	-9.1757	-45.7220	-15.6876	8.3708	-9.5386	-3.9920	-5.3060	-5.3973	-1.2710	-7.4701	-21.0356	-2.6113	-11.6788	8.1592	-7.8355
6264.0920	0.9373	-5.5882	-47.5400	-18.4324	4.1773	0.0658	1.8412	-0.2302	-0.9116	7.3134	-0.1825	-11.3181	-3.4162	2.5317	16.0404	5.1582
6272.0921	-8.7687	-15.7445	-62.0318	-31.0015	-9.9878	-16.5077	-3.8891	-9.6745	-4.8704	2.0172	-9.0724	-18.5067	-1.0251	-7.7215	11.5890	2.1627
6280.0922	-11.8662	-19.3628	-66.2686	-34.9640	-16.6203	-19.8910	-10.5546	-13.6144	-8.4890	-3.0932	-11.7825	-24.4228	2.6462	-23.2974	-0.3563	-10.5850
6288.0924	-0.1919	-7.3892	-51.1851	-15.2226	-2.4226	0.5245	-7.4406	-3.1760	-5.6713	2.5833	-1.7365	-20.6682	2.6742	-21.7890	-5.1848	-15.3787
6296.0925	7.3950	-2.9853	-44.5447	-5.2913	-0.7112	0.0438	-2.3751	2.1026	1.4756	16.0996	8.8884	-7.4881	1.4818	-7.8032	-2.6900	-5.0356
6304.0926	0.0997	-9.7229	-47.3923	-21.2507	-7.9473	-11.4335	-2.5705	-2.8638	-1.1403	10.2035	1.1962	-10.1865	1.2283	-2.7416	-0.9695	-2.8396
6312.0927	-5.1683	-8.3201	-34.0838	-25.0095	5.0007	-7.2794	0.0197	-1.9284	-3.4239	7.3905	-6.2553	-19.5783	-2.1710	-1.1132	2.1286	-5.3384
6320.0928	-1.1372	-6.1008	-19.6501	-23.9707	4.6191	-5.9870	-0.4300	-1.1271	-1.5987	10.2500	-1.9020	-15.1818	-3.0958	-3.3006	6.6405	-5.0186
6328.0929	-13.8166	-11.9931	-16.7140	-26.4898	-13.3008	-7.4668	-11.0984	-11.6951	-8.5454	-6.6940	-14.1659	-23.3448	1.1691	-24.1103	-4.5360	-19.6180
6336.0931	-16.1821	-8.5923	-5.9967	-10.6899	-18.0048	-2.6503	-11.3502	-11.7558	-4.1057	1.6361	-11.6844	-17.9474	0.0862	-19.9657	-5.6279	-18.0307
6344.0932	2.7764	0.7665	10.9245	2.4144	-20.2220	3.6752	-4.0904	-2.7362	2.5630	9.4790	4.3963	2.4880	-0.9440	-0.3151	8.2837	-1.4569
6352.0933	-2.5640	-0.4714	17.4613	1.5568	-17.5067	3.0675	-5.9565	-4.7887	-8.8417	-20.4751	-10.5474	-7.6681	4.5858	-9.5620	-6.5228	-10.4010
6360.0934	-9.5369	-1.6915	27.3995	7.3566	-6.0354	-10.3672	-5.2266	-4.7828	-7.6990	-19.4221	-12.3714	-6.9079	4.5342	-6.9249	-19.3002	-14.8517
6368.0935	3.6200	5.4665	48.3899	17.2241	-1.9518	-10.7491	1.1294	2.1956	4.5673	2.7842	6.9443	15.5440	-0.4303	10.6168	-3.0457	0.8614
6376.0936	12.4491	11.5415	53.7221	21.9305	-1.6197	4.7737	4.1941	6.9725	7.2740	6.2595	13.1395	22.2038	-0.8254	13.5193	3.1568	7.5016
6384.0938	15.4575	11.4529	44.0598	21.4202	-1.5506	5.5866	4.0736	8.4435	8.0861	8.8935	16.6313	23.8506	0.7584	12.0993	-1.4296	6.7968
6392.0939	10.1418	6.9206	40.3075	14.7380	3.2727	-4.1954	3.4315	4.5985	3.0794	-2.6073	7.5864	16.6759	1.9339	3.2246	-3.2842	7.4439
6400.0940	5.4351	5.5551	45.1816	10.5390	16.0861	-7.1704	3.3336	2.8774	-1.3823	-15.6039	-0.1072	10.7727	1.8739	-6.9278	-4.1579	5.6180
6408.0941	10.5450	9.5250	51.9848	16.8724	15.5411	1.3877	2.2143	4.6621	2.0713	-12.1265	7.5741	19.3058	1.5556	-10.5578	-0.8528	5.8870
6416.0942	10.5365	8.8924	46.1618	19.1374	1.8481	4.9547	2.2239	2.6934	1.7608	-11.3794	5.0657	18.9861	2.7354	-7.8337	1.5308	11.8527
6424.0944	8.8984	7.4748	41.2211	15.1090	4.0098	-0.6637	4.5202	3.4681	3.0524	-6.2806	5.5181	18.0537	0.1218	3.9410	6.3478	13.5661
6432.0945	11.6455	13.1647	47.9866	23.5341	13.2835	11.2237	6.1773	8.1823	5.4985	-0.4160	9.7684	18.5543	-1.6993	6.0124	6.2770	10.5520
6440.0946	13.1200	16.8216	46.3997	34.9997	4.3278	24.1870	7.9839	10.5456	6.0225	3.7871	8.1491	17.4524	1.3876	10.0351	-4.3732	13.0578
6448.0947	10.7380	14.6660	45.0086	30.1810	-0.6071	18.1409	8.5852	10.0580	11.0278	14.3296	12.9189	24.9296	-0.4308	21.5233	-3.6588	14.9065
6456.0948	1.2889	8.0409	41.2811	14.8924	7.6901	8.0966	3.6888	4.6180	5.6017	4.6383	4.2570	13.0875	-0.3604	4.9031	-8.8067	2.8412
6464.0949	-4.1767	2.1571	31.2036	7.8401	2.9123	-0.7551	-2.9229	0.2722	-4.5664	-11.3135	-6.7326	-3.8536	5.5191	-10.6870	-27.7192	-15.2012
6472.0951	2.8999	5.0969	39.4616	13.0764	-7.7441	0.0595	-3.8471	2.1664	-2.0000	-7.8550	2.0319	5.1604	4.8055	-0.4797	-20.1705	-15.7977
6480.0952	6.9275	7.1919	50.3122	17.5890	-12.2063	2.3932	-3.2674	0.9252	-1.0874	-8.8091	3.1855	9.3628	3.1794	-2.9210	-5.4683	-6.2642
6488.0953	7.1016	10.4882	55.9070	25.9890	-6.7674	9.5045	-1.0136	2.3182	2.1463	-3.8719	4.5235	13.0726	2.0811	-4.4697	-4.0821	0.0950
6496.0954	13.2594	19.9322	60.9879	31.6390	9.8222	33.9603	7.6954	11.3782	12.2607	13.5656	15.5624	25.8489	-3.8187	9.6331	7.8698	13.4429
6504.0955	15.4952	18.3590	52.2765	22.5221	10.7809	31.3151	10.0435	12.6493	12.8426	16.6851	17.1301	26.0223	-4.7960	16.2633	12.2171	17.1868
6512.0956	13.9674	12.1535	45.3572	23.2160	1.9697	4.4632	6.6421	9.1768	9.4690	11.6604	16.3000	24.1313	-2.2099	21.1626	6.1554	11.0033
6520.0958	11.6299	10.4666	35.8036	25.9934	5.2930	0.0078	6.9187	7.8529	6.3094	5.6195	10.9851	18.2491	-1.1717	17.5643	4.6451	12.4843
6528.0959	6.1111	7.1964	23.3558	17.2245	3.0278	3.4819	4.2260	5.6202	4.8897	5.2013	7.3228	12.7504	0.1074	11.4466	-3.4677	5.6426
6536.0960	7.0162	7.0247	24.6117	16.1964	-4.5887	3.4584	2.2504	5.6389	5.7872	6.0305	10.7902	17.0789	1.1066	15.1570	-6.8170	1.0425
6544.0961	11.3106	7.4628	20.8991	14.0081	0.8703	8.4034	2.7440	5.6620	-1.2646	-8.8922	3.4262	8.1202	4.8566	-1.8856	-8.8996	3.8157
6552.0962	18.5625	11.6508	22.5824	13.6434	13.9333	17.9480	5.0162	10.9070	0.7409	-2.9892	9.3214	8.8703	4.5804	-8.3377	-10.1083	3.9200
6560.0964	20.2255	13.0109	24.1414	11.9663	12.2320	17.7360	8.4990	13.3631	10.1870	17.1781	20.3215	21.0448	-1.3169	11.7801	3.7465	11.7675
6568.0965	5.0511	2.7424	11.8367	-3.3316	-0.2122	5.8875	2.8267	2.8676	3.5793	4.9310	5.1422	8.8019	-0.3245	4.2409	1.5411	5.9138
6576.0966	2.3043	6.1463	21.2774	1.7079	3.5454	17.2549	2.2059	4.4757	0.5898	-3.4608	0.6351	4.6684	0.7862	2.6749	-6.7072	-2.3591
6584.0967	5.5873	11.6943	28.4174	13.3555	8.6534	23.6210	7.6179	8.4916	5.9539	5.3404	6.0274	12.1269	-3.9923	18.3322	8.0005	8.7679
6592.0968	-0.4085	3.4607	19.8954	9.5258	5.8181	-2.2857	2.8033	0.3381	6.1082	6.7465	5.1404	10.9383	-5.9083	9.2927	17.5283	9.9433
6600.0969	-0.2836	2.6755	19.5376	10.3948	8.0026	-7.0284	2.7392	0.1324	6.7584	7.5622	6.1661	12.7057	-5.1510	6.7712	14.3103	10.6842
6608.0971	-15.0037	-4.4418	2.4297	-2.0308	-0.4995	-4.6495	1.0181	-6.1847	-0.6288	-2.7673	-12.9067	-4.7409	-1.7045	0.9538	-0.8491	6.1933
6616.0972	-23.8404	-12.4591	-6.4396	-13.2204	-8.8188	-16.4577	-7.2381	-13.2183	-8.0244	-12.2300	-22.4591	-19.4108	2.2636	-15.3969	-15.8389	-11.6270
6624.0973	-5.1830	-5.1449	7.0896	-5.4244	-7.1431	-14.7072	-4.7956	-5.0415	-4.6340	-8.7830	-5.9486	-5.1624	2.6108	-6.8885	-8.5853	-9.2202
6632.0974	0.9409	-5.3524	10.4712	-5.5211	-14.2146	-20.8223	-6.2779	-4.7106	-7.8774	-16.4448	-4.4320	-4.0776	5.4762	-7.1293	-9.7650	-11.6280
6640.0975	6.8380	-0.8016	22.0410	2.2082	-14.7865	-14.8584	-5.6315	-1.2122	-7.0626	-13.8235	-0.3136	-2.1375	5.9942	-5.1592	-11.1711	-13.4994
6648.0976	16.8673	10.6306	26.7499	10.3479	-6.9092	16.3807	5.6611	8.9443	2.2724	2.0293	9.3719	11.2856	0.6136	16.3287	6.4757	7.6826
6656.0978	7.3005	4.0776	11.2252	0.9389	-4.8426	8.1656	3.0181	3.2058	-1.1713	-5.4968	1.0168	3.9484	0.6147	7.7957	5.7493	5.6312
6664.0979	-0.5706	-2.9830	5.6884	-2.2708	1.5179	-15.8093	-0.1071	-3.0224	-3.0932	-12.0957	-3.0769	1.8868	-0.3318	-0.1689	8.2325	4.4843
6672.0980	-3.4723	-2.9413	-0.6592	-8.8088	7.7496	-9.2300	3.6397	-2.0742	0.7283	-5.7132	-2.5542	5.2803	-3.6527	6.4891	14.9583	12.3649
6680.0981	-10.8359	-5.4438	-3.9925	-13.0357	4.1315	-4.9245	-2.3413	-3.8448	-5.5592	-11.1106	-11.1987	-10.5410	1.3579	-6.3541	-11.2677	-9.7799
6688.0982	-16.3359	-6.5237	-1.9325	-6.1971	-5.4024	-6.6027	-2.3631	-7.0013	-5.3282	-8.5986	-16.5497	-12.9327	1.2791	-2.6262	-11.6832	-5.7446
6696.0983	-17.9652	-9.4196	-13.7521	-16.2332	-12.6336	-5.3934	-0.9918	-9.8369	-3.9624	-8.1246	-17.5454	-9.5280	-1.2889	3.5411	3.6655	5.0277
6704.0985	-18.3623	-10.7672	-15.4924	-21.5055	-10.7827	-5.1754	-9.1114	-9.5871	-14.4348	-28.0098	-22.3497	-23.1336	5.3393	-13.2557	-20.5570	-24.4155
6712.0986	-21.9412	-8.0890	-7.7962	-9.7535	-4.6762	-3.1244	-7.0044	-9.2848	-8.2751	-18.7706	-19.1704	-15.2872	1.9486	-8.9293	-15.9114	-17.3571
6720.0987	-21.4926	-9.5504	-12.8558	-10.8962	0.4985	-12.0260	-3.6904	-10.2689	2.3556	0.9831	-8.6500	-0.6789	-4.3058	-2.2367	3.5472	-0.0258
6728.0988	-18.2326	-9.5844	-14.1879	-12.8825	6.5002	-15.6823	-6.5552	-7.3371	-5.8128	-11.5873	-11.8391	-12.9641	0.6285	-9.5777	-14.6951	-18.7341
6736.0989	-15.4118	-5.3095	-8.8612	-7.6965	10.1866	-4.9248	-3.2187	-4.5722	-5.0899	-10.8319	-11.9975	-12.7461	-0.9280	-6.0019	-8.1280	-12.7331
6744.0991	-5.8899	-4.7017	-8.3740	-9.7100	1.8918	-6.2957	-5.3698	-4.8754	0.2291	-0.1327	0.7506	-1.6894	-2.6797	-9.4311	7.1178	-7.4990
6752.0992	-0.4319	-3.4874	-8.3796	-8.7897	-7.0417	-3.1079	-6.9258	-3.3066	-3.6169	-6.1319	0.7399	-4.6802	0.9442	-9.3271	0.7790	-13.5463
6760.0993	-3.9027	-0.0923	-5.4985	-2.6507	-1.8629	8.0634	0.2675	-1.5863	-1.5399	-5.9883	-4.6623	-2.2426	-1.8184	2.8252	8.5468	2.3115
6768.0994	-1.4114	0.8436	-1.4674	2.1773	0.4013	3.7316	0.6639	-0.5815	1.0594	1.0084	-0.3052	0.4389	-2.5646	2.9881	9.4814	3.6484
6776.0995	10.0707	3.8418	-0.7130	8.0247	-1.4182	1.4897	2.5316	3.8435	4.9233	14.2124	10.2518	5.2994	-2.3450	6.7918	12.1200	7.6854
6784.0996	11.2725	2.9382	-8.6892	4.5044	0.0539	1.3158	3.7645	3.1688	7.3900	15.1295	13.2085	11.9698	-3.6224	6.6501	20.8305	16.3135
6792.0998	-4.7925	-5.8885	-23.4253	-8.6883	-3.4155	-5.3624	-4.1499	-4.8890	-3.0210	-6.6193	-3.4979	-4.6532	0.8689	-8.7316	1.5009	-3.4054
6800.0999	-19.2893	-13.1780	-37.0400	-18.8661	-7.3776	-10.5750	-8.2261	-11.2715	-8.0593	-13.7783	-16.3498	-17.5687	2.4214	-14.7429	-10.6960	-13.4689
6808.1000	-23.5666	-15.4419	-37.9401	-21.3559	-10.4589	-13.3270	-11.8207	-14.7525	-6.9291	-14.0454	-15.4009	-14.8463	1.2652	-18.6699	-7.6341	-16.9625
6816.1001	-14.8389	-6.0820	-22.4921	-9.0441	3.0604	3.0380	-6.7945	-7.0705	-5.7875	-12.3669	-11.4131	-14.0353	-0.4857	-15.4711	-2.6215	-13.6752
6824.1002	-2.1367	2.1375	-16.3850	-1.2324	21.1449	11.6788	5.4197	2.7015	1.7227	3.8507	-1.9335	-5.1460	-5.4636	0.5261	14.3382	9.2239
6832.1003	-0.8439	-5.4510	-26.5121	-10.6432	4.9874	-10.7959	0.2885	-2.3691	-1.4062	0.4922	-1.0762	-6.2085	-2.6526	-0.9371	13.5990	4.4857
6840.1005	-0.0604	-5.0300	-22.5118	-5.4967	0.3425	-10.6246	-3.3941	-3.4829	-8.0931	-13.8658	-6.3109	-13.1715	1.2992	-9.5681	5.7229	-4.7784
6848.1006	3.5699	1.6360	-16.3901	2.8310	16.6356	2.8460	2.1893	2.3096	-1.3618	-6.4915	1.2492	-1.4997	-1.8187	-4.8342	11.1278	5.0114
6856.1007	7.3943	-1.7642	-24.7732	-6.3867	6.5738	-6.4371	0.7781	2.6654	0.6977	4.3178	7.6326	0.3306	-0.4753	0.6155	6.0853	1.1449
6864.1008	11.5309	-0.0915	-21.5966	-3.9114	2.7237	-3.2581	2.8232	4.6270	-0.6954	6.0465	5.8987	-3.5916	1.5166	1.6840	1.8427	3.7750
6872.1009	11.6951	6.4148	-12.4331	7.3800	7.6113	15.4805	7.7406	7.4109	6.1169	13.6148	9.2394	7.5631	-1.6241	7.1168	10.1044	17.7390
6880.1011	14.1580	7.6066	-15.5831	7.8725	-0.8114	20.9178	9.1964	8.4744	9.7726	24.8463	13.2062	10.2143	-3.3355	16.2364	16.5123	22.5655
6888.1012	6.4183	-0.4986	-24.7788	-0.5745	-3.2539	1.4781	3.9245	1.7085	4.3782	15.5504	5.6799	1.2599	-1.5876	5.5664	11.3976	14.4404
6896.1013	-8.2600	-10.7553	-30.6716	-10.8995	0.0912	-20.0042	-6.5742	-9.2532	-1.7554	-1.1594	-3.4259	-6.6672	-0.0871	-20.0089	3.8574	-1.9207
6904.1014	-2.9429	-5.4494	-25.7446	-8.9950	12.8985	-8.6202	-3.6547	-3.9594	0.5124	4.5616	1.7408	-6.5072	-3.2377	-18.1956	11.0518	-1.7589
6912.1015	5.8893	-0.8838	-26.5239	-7.7298	14.2298	-3.4406	3.5166	3.5673	3.7885	13.2897	8.5859	-1.1942	-5.1957	5.4003	17.4903	6.1728
6920.1016	3.0787	-7.2151	-37.3134	-15.4947	1.9159	-19.0711	2.2113	-0.0680	-2.3462	3.1868	0.9337	-8.1522	-1.8914	10.8706	12.1193	4.1068
6928.1018	3.2975	-4.1803	-36.3744	-12.6776	13.1944	-7.6940	3.7938	2.3326	-5.3354	-6.6074	-3.4346	-11.2408	0.3297	1.8513	4.1234	3.4981
6936.1019	9.8220	2.3245	-30.3437	-4.2971	18.2569	7.1157	6.1406	7.7501	1.2359	5.4303	6.8427	-1.2757	-0.9037	4.0187	4.8509	6.7868
6944.1020	10.2019	1.7797	-30.3189	-0.2348	12.5656	1.4970	6.6715	6.0103	5.6070	19.9495	10.3968	-0.7156	-5.2950	10.1107	20.3314	13.9778
6952.1021	1.5431	-2.6919	-36.9136	-5.1682	11.0137	-3.9231	3.5472	1.2451	5.2944	16.7187	6.6482	-1.0488	-5.5533	5.7636	18.1087	10.7857
6960.1022	-6.5658	-8.9526	-44.8350	-17.3242	-3.2914	-7.8153	-3.8820	-3.9403	1.6682	8.8055	2.4409	-3.7120	-1.1649	-0.2204	0.5071	-5.6569
6968.1023	-13.3048	-8.3388	-42.3900	-16.0063	1.5564	-0.7465	-3.9863	-5.5987	-1.5505	2.8918	-6.2042	-13.5496	-3.4561	-2.5090	5.1123	-8.1397
6976.1025	-7.2882	-4.7193	-43.0734	-8.1680	7.7267	2.8865	-1.6827	-2.5311	2.3725	8.1169	1.1336	-5.7432	-4.7962	-1.6452	12.1233	-0.8742
6984.1026	4.8861	-5.0674	-49.3584	-6.8126	-4.6827	-6.1066	-2.5685	-0.2954	3.0374	12.9159	10.4915	0.1295	-0.7112	0.7303	8.2402	-0.0225
6992.1027	-1.9519	-4.8120	-49.6272	-6.7436	3.0969	0.4757	-1.4341	-0.8705	-1.9599	-0.4953	-0.1980	-7.8381	-0.0205	-1.8708	3.0970	-2.0615
7000.1028	-10.2168	-11.1762	-55.3369	-15.6958	-5.4326	-6.0082	-6.2194	-7.3108	-4.1287	-5.3665	-6.5560	-10.3878	3.2801	-14.3798	-8.5284	-6.6387
7008.1029	-11.8360	-18.8368	-55.5004	-21.0026	-26.1430	-25.6119	-12.1685	-15.2318	-9.9564	-7.6951	-14.2927	-22.1509	7.5447	-27.6244	-13.8583	-10.3709
7016.1030	-10.2079	-11.0804	-39.6722	-10.1233	-11.0478	-11.5100	-5.8912	-9.1647	-8.0202	-4.4389	-14.5374	-22.9575	3.6055	-17.8316	-7.5433	-5.4929
7024.1032	-3.2300	-6.0268	-32.6246	-9.6017	-1.2167	-5.2227	-1.8498	-2.1169	1.4145	13.2511	0.6537	-8.0028	0.2110	-5.5437	-4.7672	-2.5447
7032.1033	-7.1093	-10.2363	-30.3647	-14.5801	-6.9363	-14.9948	-5.4976	-7.3300	-4.0274	1.7917	-6.6231	-14.7706	1.1783	-13.0954	-2.4605	-6.2604
7040.1034	-4.8677	-3.3159	-14.9286	-0.9760	-4.5288	-0.6858	-2.0357	-4.7777	-1.1607	2.4588	-5.1351	-8.7257	-1.9804	-6.5200	9.9485	2.7836
7048.1035	3.3051	2.6501	0.8969	9.3289	-1.4108	1.6101	0.3456	1.0403	10.2057	24.7104	12.7963	9.6985	-5.0104	4.3862	12.8863	6.5626
7056.1036	0.9275	3.7817	15.8812	8.9272	7.6169	-2.2231	0.3464	3.0870	5.3813	9.3088	8.7144	7.9206	-3.6696	8.7732	3.0527	-4.2942
7064.1038	10.8545	12.1746	33.8675	13.7595	17.2465	10.4925	8.4441	11.4112	9.8112	11.2536	16.4923	21.2053	-6.1605	25.3832	12.5376	7.7548
7072.1039	12.5072	8.4319	34.1982	8.3018	8.6524	1.0408	5.6998	7.2568	11.5493	16.8618	19.0736	24.1897	-5.5677	15.4655	16.5077	11.9930
7080.1040	-5.6481	-3.3758	24.1275	-3.9085	-10.4131	-11.1511	-6.9254	-6.3937	-5.1469	-15.0047	-5.9964	-1.4350	1.8520	-9.0831	-3.8302	-11.7991
7088.1041	-8.6340	-1.9280	30.2774	-0.3364	-12.7721	-4.4113	-7.4812	-6.2696	-4.6912	-13.8875	-7.7981	-1.9277	2.6419	-9.1336	-11.1935	-15.2002
7096.1042	0.9195	5.3445	46.6231	12.1390	-1.7483	1.4682	-2.7426	0.7143	2.2604	-0.8125	3.4528	9.6464	1.8954	-6.4119	-12.6131	-7.9695
7104.1043	15.0460	14.2028	60.5275	25.8072	-2.0276	11.8086	3.1834	9.0533	4.1984	1.3077	11.4345	18.0075	2.3935	8.0734	-7.8555	0.3477
7112.1045	21.5636	16.6544	61.2387	28.4569	-6.9475	15.5015	6.7550	10.9709	9.7617	12.8879	18.6205	27.0441	0.0595	16.5471	5.1435	13.8004
