Time	Fz	Fpz	C3	C4	T5	T4	O1	O2	F7	F8	F3	F4	T3	T6	P3	P4
0.0000	15.4912	7.2027	14.7954	3.6186	6.7850	6.0795	26.6104	15.0006	2.6889	12.9282	5.8946	0.6142	-1.4758	16.3439	13.0447	16.0856
8.0004	-5.0217	-0.7966	43.6988	-3.8736	-8.8975	-6.1160	10.2214	7.0914	0.4874	-5.6663	-4.0822	8.2967	1.3894	-3.8385	-1.9535	2.9668
16.0008	-1.4712	3.1332	47.6965	1.1746	-2.0981	-1.5742	-4.4261	2.7616	-0.4779	-12.7979	-3.9341	10.8195	-0.3813	2.6270	1.8014	6.4020
24.0012	-0.7735	2.8836	41.6888	-0.9796	-2.4379	-0.7561	-7.8910	3.4990	-1.2480	-12.1489	-4.6737	8.1991	-0.1527	5.4761	-0.2565	6.2984
32.0015	-10.1139	-1.2432	32.7551	-6.5817	-7.6865	0.6506	-12.1524	-0.0454	-7.5468	-24.6667	-14.8475	-2.6533	2.4809	-3.6729	-10.3106	-5.8482
40.0019	-13.3385	-3.2505	31.5042	-1.2822	-6.0178	-8.0230	-16.2856	-11.3189	-8.4829	-27.6563	-18.1849	-4.3511	2.4106	-10.0569	-10.0988	-4.8302
48.0023	-9.7645	-0.4233	34.1251	3.5193	-4.1170	-4.1278	-11.1078	-2.8146	-2.5799	-13.6146	-11.9442	2.3884	1.3170	-3.9077	-9.0483	4.2976
56.0027	-10.7936	2.6239	36.3059	4.2601	-5.3871	10.7003	-18.9183	-1.1606	-4.9914	-17.6240	-14.5727	-2.5858	2.6580	-4.0367	-19.4033	-5.4866
64.0031	-14.3733	-0.6454	34.0623	5.1607	-6.7952	-0.3724	-11.8613	-7.2477	-4.8282	-19.8203	-15.1457	-0.1523	2.9294	-4.9414	-17.9203	-5.9555
72.0035	-18.9710	0.0278	31.7125	9.7194	-4.8528	4.7902	11.1124	7.7527	0.4357	-9.4904	-14.3156	4.2991	0.7114	1.6133	-9.1082	5.7408
80.0038	-13.6325	3.2885	32.9212	13.3605	-3.1228	10.1116	3.4000	8.8274	0.8633	-8.8566	-12.1046	5.7435	-0.0533	5.0218	-5.8832	10.2763
88.0042	-17.4638	-5.2179	28.7937	3.0406	-9.7791	-16.3363	-15.6360	-15.7193	-3.8173	-20.9047	-15.4664	4.2715	1.3108	-2.2100	-9.8494	0.3497
96.0046	-24.1784	-3.6395	33.7837	5.0967	-9.1184	-2.6776	-7.6342	-8.5135	-7.1693	-23.6978	-21.9142	-7.4668	2.0725	-9.0450	-17.1810	-13.3123
104.0050	-18.5300	5.8011	38.6371	15.6203	-3.5893	24.7375	5.0042	7.0564	2.8529	-2.5789	-10.9805	3.0586	-1.8682	2.4881	-8.5988	-2.5018
112.0054	-22.1132	0.9354	25.7677	9.7551	-8.6323	14.6904	-6.5783	-17.1891	4.8955	-2.7166	-10.6332	10.0023	-2.3305	5.1711	-9.6175	-0.1850
120.0058	-17.6491	2.4132	27.1639	16.3780	-3.9855	10.8242	-7.1902	-11.4882	-3.8745	-18.3865	-15.8782	-1.2013	3.3304	-0.5205	-25.5653	-11.1756
128.0062	-3.7557	8.8571	35.6445	24.2994	9.1303	8.9413	20.3578	19.9615	5.6695	0.8974	2.1419	15.2693	0.6557	17.3005	-11.9469	5.2777
136.0065	-2.7113	6.3476	31.4885	16.4009	9.9843	2.1468	23.1722	4.1019	7.3103	4.3894	3.7822	17.1161	-2.5779	19.9549	1.5776	9.4621
144.0069	-8.0471	3.7144	28.2521	11.2406	1.4810	4.9909	-0.5750	-12.5136	-1.4152	-13.9242	-8.3308	4.3647	-1.4006	9.9773	-1.4609	-0.5280
152.0073	-13.3786	-3.4082	16.6533	-1.0768	-15.0653	-4.2574	-8.5150	-11.4792	-0.4288	-14.8639	-8.0921	10.1217	-1.0119	7.1552	3.0920	2.3475
160.0077	-12.2485	-8.4129	9.9207	-5.3024	-22.2239	-13.8034	1.2453	-5.4302	-10.7096	-30.4281	-16.8370	-5.2723	6.3723	-15.8370	-6.3340	-6.6588
168.0081	-9.1758	-2.8178	15.7441	0.1693	-8.1458	-2.1206	11.7595	15.6749	-10.3497	-27.4460	-17.3694	-8.7068	5.8736	-11.1811	-7.8206	-0.7526
176.0085	-9.1794	-1.5138	10.8240	-8.8364	-3.0274	4.3034	10.6836	12.4047	0.7350	-2.1032	-8.2421	1.5168	-1.9264	9.9681	5.6272	11.3196
184.0089	-10.9154	-3.8187	7.0986	-7.6740	-7.7546	-0.0458	0.2450	2.4419	-6.0362	-10.3020	-14.8723	-12.4803	0.3149	-2.5245	-0.9109	-1.8846
192.0092	-11.2754	-1.1197	3.9637	-1.6219	-3.1155	4.5745	-15.0228	-2.7818	-4.0348	-10.1008	-12.9294	-7.7245	-1.2028	6.1189	-4.4657	-1.0462
200.0096	-9.4554	-2.3809	-2.9937	-8.7324	-1.1491	0.5130	-14.1050	-13.9160	-0.4383	-2.3024	-8.5008	-2.0896	-2.4343	16.3868	-5.0339	1.3683
208.0100	-14.7443	-4.2984	3.2863	-6.5239	5.5996	-6.4377	2.9238	-8.0255	-2.8745	-4.3523	-13.9280	-10.4151	-2.0383	6.7074	-5.2109	-2.3713
216.0104	-14.7994	1.3496	7.6844	0.3084	23.2067	5.8264	-17.4754	-32.5812	4.9577	13.3982	-8.6730	-7.6035	-9.5441	10.0957	-0.8134	-0.7463
224.0108	-7.9111	3.9074	9.4551	3.4901	26.5501	9.0963	-27.4000	-33.9109	2.3847	8.0208	-3.5168	-8.4076	-5.8716	-2.2584	-13.7425	-15.1308
232.0112	-0.6339	6.7942	18.6596	6.7404	19.2106	13.8943	24.7420	28.8077	2.6962	-2.0126	4.6695	6.7340	-1.3927	2.9247	1.4963	-2.0725
240.0115	5.4659	8.0447	14.1925	0.2386	10.7534	19.6645	35.3242	22.4162	10.5692	19.2275	9.6228	13.3169	-8.3542	25.0313	31.1484	22.7543
248.0119	-2.8553	-2.1948	4.2644	-5.8512	-1.4923	-6.9967	-0.8840	-0.2269	-0.8083	8.4292	-5.9585	-11.5486	-4.4518	7.0303	12.1993	5.1425
256.0123	-2.8125	-1.3986	6.8920	-0.7383	-1.7185	-7.3611	3.0944	29.8665	-6.9973	-13.1935	-8.4064	-9.4545	1.9161	2.0203	-0.4779	0.8304
264.0127	2.7483	4.3342	3.9618	-2.4225	2.9666	15.4486	15.2654	17.7546	2.1183	1.1972	1.0866	5.1030	-1.1901	12.8374	7.3045	11.0279
272.0131	-0.4285	0.3960	-1.3647	-6.6135	1.0975	6.8670	2.5147	-2.2817	5.4797	13.2327	3.9926	4.6415	-2.1306	4.3128	0.8861	3.7695
280.0135	9.5112	7.5471	8.5771	6.5266	9.1553	13.5323	-14.4186	3.8972	4.8874	10.4714	9.0899	6.2143	-2.6308	3.4820	2.0994	4.8712
288.0139	11.4842	12.8129	13.9275	14.2174	21.8133	23.8509	-7.9497	7.7384	6.4949	10.1848	10.1993	8.4523	-5.2825	8.3407	9.5179	10.5957
296.0142	8.6774	8.9448	7.4405	7.6705	25.7207	12.2192	30.4233	16.3254	10.6338	15.3067	14.4434	17.5173	-5.6434	19.2212	16.4913	16.5351
304.0146	11.6426	7.3964	1.9810	5.5568	18.0090	9.9021	37.1112	4.2077	8.1562	10.8725	14.0033	16.1919	-3.3037	17.5564	16.4359	12.8640
312.0150	-0.3478	-1.6405	-10.1636	-4.4584	3.0343	-0.0601	-0.3389	-11.1168	-1.8846	-7.0370	-0.1758	-0.3730	0.6318	-6.0867	0.0293	-5.5329
320.0154	-5.4170	-4.5593	-16.8250	-11.2649	2.1981	-3.4114	-6.8941	-2.5682	-4.5140	-8.9758	-5.3925	-7.5404	1.0704	-3.6806	-6.3414	-8.5338
328.0158	-2.3910	1.9250	-9.3820	0.8773	10.5420	8.0021	9.4521	10.0169	-0.1775	5.8814	-2.7586	-9.2544	-2.0602	8.8861	-0.3647	-0.8984
336.0162	2.0148	2.1114	-10.1903	4.4109	6.4944	4.6233	-0.3151	9.3340	2.1034	9.4064	2.3927	-2.7788	-1.0300	4.4057	-1.2404	3.4670
344.0165	7.1415	-0.1260	-16.6276	-3.2306	-6.0155	3.0989	-15.9424	-13.2922	0.5362	4.1729	3.9084	1.6714	2.8865	-0.6027	-10.3682	0.1022
352.0169	3.5897	-1.6739	-18.2078	-7.3356	-8.8177	5.3157	-15.4186	-14.3400	-0.4645	8.2026	1.9129	-5.9336	3.2489	-5.9475	-16.0713	-9.8185
360.0173	10.2072	1.4200	-17.1198	-6.2697	0.7478	6.8245	-6.7393	5.7910	2.5843	15.5296	10.3509	-2.3246	1.0276	-2.7136	-6.3420	-5.6419
368.0177	6.1595	-2.5574	-21.5963	-10.9876	-4.8542	-1.5097	-11.3274	-5.3653	0.2632	7.0404	6.8108	-2.0862	0.9039	-2.9254	-2.7731	-7.2951
376.0181	-10.9502	-14.0950	-34.9867	-24.7106	-12.7345	-21.3718	-36.2693	-23.0475	-6.5510	-6.9542	-5.1079	-13.6520	2.0100	-16.8200	-14.8016	-26.1846
384.0185	-6.5947	-10.8586	-37.2604	-20.5601	-1.8387	-16.6524	-37.6973	-32.7042	-4.4770	-3.1141	0.2144	-11.3040	1.2688	-17.1641	-17.8203	-30.0717
392.0189	1.4614	-6.6275	-31.6553	-8.6834	-6.9993	-8.9890	-8.1318	-37.0014	-3.2759	2.6289	2.5284	-10.2623	3.6263	-15.7867	-13.6732	-24.1302
400.0192	9.4590	-3.6361	-29.8739	-5.6716	-9.6351	-2.2373	3.7218	-11.2119	-5.2366	1.3044	4.0223	-12.7784	5.5876	-19.6565	-6.6011	-16.6709
408.0196	15.8622	3.7047	-30.2264	-0.8007	1.1452	13.9662	-7.6362	16.9014	3.1058	12.4345	16.1896	2.4570	1.1434	-6.9564	3.0404	-1.2294
416.0200	7.8529	-2.3269	-39.1650	-6.3501	-11.8826	2.0274	-25.0164	12.8680	4.4119	15.0083	13.3898	5.4306	1.7481	-0.8225	-5.2878	0.5133
424.0204	6.6520	-2.0520	-34.7433	-4.4022	-13.7760	5.1537	-32.0833	-3.8836	0.8107	9.6160	7.3016	-1.6508	3.6986	-8.1467	-14.3892	-6.1628
432.0208	16.4218	5.9862	-23.5824	6.1343	-4.7217	18.2170	-21.2603	-6.1477	11.6224	27.2280	24.0573	16.6969	-0.3060	-1.1927	-2.8987	1.0310
440.0212	17.4727	-2.5745	-36.7859	-6.6380	-13.1658	-9.1036	-19.0435	-7.0638	9.9743	26.6096	27.3859	17.5082	1.8844	-0.8936	-3.6769	-3.4223
448.0216	5.7614	-9.0934	-47.2826	-15.3111	-11.6096	-14.0032	-21.9685	-18.8390	-2.6657	6.2240	8.1826	-8.0368	5.4311	-19.6834	-16.7521	-21.5628
456.0219	-0.7131	-9.6564	-48.0305	-15.2801	-13.9584	-6.6687	-21.8715	-21.9513	-2.4890	7.3838	3.5887	-11.8262	4.3807	-24.0670	-16.0402	-22.7922
464.0223	1.1197	-12.8014	-50.6349	-18.0189	-18.1184	-22.8031	-42.6352	-35.3135	-5.8817	0.1893	1.2726	-13.1310	5.0328	-19.8068	-18.5709	-22.7833
472.0227	5.0441	-6.9094	-45.5482	-6.8296	-4.3616	-13.7130	-44.8880	-44.2394	-5.5798	-0.2636	1.8496	-14.0042	4.0954	-18.0891	-21.3794	-22.8800
480.0231	17.5767	3.8771	-36.4655	3.5107	10.5259	6.7402	4.4627	2.0958	6.3443	24.7094	19.4505	1.8299	0.7965	1.6253	-4.1446	-2.8704
488.0235	25.0151	10.7918	-25.0325	9.4761	28.1749	11.5691	25.4801	37.3825	10.5284	31.2635	26.7528	8.0782	-4.4414	19.8834	17.0882	13.5489
496.0239	20.9236	7.4196	-32.2550	4.1994	23.0624	7.0842	-5.9637	19.7520	11.5164	30.7611	25.9698	10.0759	-7.5374	15.2783	22.5728	14.6066
504.0242	12.2352	-3.6025	-51.6036	-13.8700	0.0982	-4.0557	-11.3964	4.1685	7.5378	24.4963	18.8457	6.1128	-1.9135	3.1429	8.3963	5.5988
512.0246	7.8190	-4.3680	-44.7661	-9.4833	3.5805	-5.6548	0.2453	-3.2422	-1.8877	5.3514	6.8374	-7.7466	3.1288	-8.9790	-5.8756	-8.7572
520.0250	15.8464	1.1101	-39.2719	-0.9127	2.0368	4.1857	-7.1212	2.4989	2.0521	12.0323	15.3467	0.1225	1.7226	-6.4402	0.8613	-3.4756
528.0254	13.3931	-0.9772	-46.8146	-5.4928	-12.7078	6.4267	-4.7609	16.2000	6.9271	21.3976	18.1772	8.2648	0.2758	3.1270	10.2312	8.8513
536.0258	5.9148	-4.5297	-43.3677	1.3807	-5.4295	-9.8932	-1.0269	10.0097	1.4714	11.4435	8.0524	-3.1594	0.5735	-6.8010	9.3743	5.1148
544.0262	11.1603	-0.7148	-38.5193	12.6924	12.1457	-13.9669	0.1099	9.4781	3.5167	15.3311	13.3903	-1.6593	-1.7011	-8.8470	14.0144	7.2241
552.0266	11.0614	3.7534	-32.8053	14.0004	16.7873	0.9592	7.1399	8.0066	11.2926	30.4678	19.3506	6.6086	-6.3152	2.7621	21.4790	13.2288
560.0269	8.9167	-0.1243	-28.0553	0.6123	6.3762	-2.2809	2.0238	-9.1859	12.3086	39.1920	18.8282	3.3499	-6.9621	-1.1028	19.3371	6.0493
568.0273	8.5811	-3.2777	-24.8133	-12.4179	-2.6503	-4.3886	-5.4606	-12.0287	7.7188	33.4043	14.4502	-3.2836	-4.1739	-6.6314	10.8169	-2.5844
576.0277	3.6849	-2.2319	-14.8664	-8.1945	-4.4676	-0.5901	-14.7319	-4.5620	1.1345	19.5380	3.9322	-13.0591	-2.2203	-8.2728	2.0772	-7.8598
584.0281	1.1250	-2.8626	-7.0665	-0.7301	0.6572	-13.0582	-4.5500	4.9279	1.6989	19.3274	2.8603	-11.5341	-2.7781	-3.6209	4.2396	-2.6634
592.0285	2.8841	-1.1461	3.3021	3.9121	7.7953	-18.4539	22.9915	9.5072	5.9668	16.1417	7.2793	5.3455	-3.5930	10.0574	14.4986	11.8590
600.0289	1.9081	-0.2736	16.2300	2.1801	1.2866	-13.8402	5.4046	3.9636	1.3605	-0.9498	1.6194	6.5281	-2.2861	6.8016	12.8406	10.0461
608.0293	-8.5673	-2.1509	23.0341	-1.4815	-1.4553	-10.5933	-10.5593	7.6416	-0.2064	-5.1110	-4.9763	1.6394	-3.6175	0.1780	8.9203	3.2417
616.0296	-19.2035	-6.2968	24.6230	-0.3998	-2.9419	-18.9943	-3.7567	6.5893	0.3317	-9.3915	-9.2961	4.7326	-3.1204	-4.0324	5.8446	2.5115
624.0300	-25.5284	-12.8977	20.3482	-9.2118	-13.4511	-28.6814	-19.5704	-7.2906	-8.3488	-27.6395	-19.8027	-5.0442	2.1331	-20.4989	-9.7579	-11.5193
632.0304	-24.3901	-9.1539	26.7963	-10.8522	-4.3807	-15.2433	-10.1694	-7.2622	-10.6148	-31.9397	-22.0186	-9.9678	2.9424	-21.0277	-16.0028	-19.1111
640.0308	-14.5916	-1.1856	42.1214	3.1544	5.1532	-8.6269	-1.0422	6.3342	-5.8181	-23.1699	-13.8550	-1.6971	0.9738	-10.3604	-8.5049	-7.4908
648.0312	-11.1853	2.5231	48.1801	9.1536	1.7371	-2.3451	-14.1128	2.6585	-0.8929	-13.0867	-10.2207	5.0921	-1.9886	0.2195	-2.6543	3.7627
656.0316	-8.4230	6.4352	50.3305	11.6690	4.3106	10.5013	7.7516	-11.5443	3.4691	-7.2009	-7.0530	12.8588	-2.9504	11.4372	1.1354	8.8935
664.0319	-6.2765	3.1425	47.1950	13.9838	-1.5909	-2.5887	22.2558	4.7698	-1.7411	-14.7721	-10.7319	6.5198	1.6452	2.1815	0.5648	11.2463
672.0323	-6.3858	3.5622	45.0293	15.9256	-5.1079	1.1136	19.9291	12.1071	-4.4661	-19.8753	-18.6587	1.5402	1.2863	3.8639	9.3763	26.4589
680.0327	-5.5231	6.8745	47.9795	17.3757	0.8630	9.9185	26.0960	-3.5424	-4.3633	-27.0615	-23.1426	6.3229	-0.4859	18.3868	16.2485	38.6088
688.0331	-11.3730	2.1612	48.4314	13.5834	2.5005	-5.7399	23.9738	23.0286	-9.0427	-32.7158	-27.4633	-3.1404	1.2766	10.4098	9.5108	30.9189
696.0335	-4.5787	7.7107	55.3694	16.2388	10.3759	7.3813	30.8670	41.3384	-0.9527	-11.0849	-13.9260	2.4189	-2.3376	7.6823	17.5008	31.6822
704.0339	-4.5059	6.4187	52.7497	10.3226	11.0305	6.3360	25.9809	11.7022	5.3098	-0.1866	-3.5457	12.3227	-4.7082	5.0961	16.6390	19.6995
712.0343	-20.2354	-6.7713	39.2330	-6.1267	2.4716	-21.2561	6.8750	-6.2078	-2.9380	-11.9659	-12.4848	-3.3552	-1.7186	-10.5951	-3.7931	-13.1543
720.0346	-13.2933	-0.7111	44.0021	-1.4478	9.7467	-5.8901	4.8518	-7.2571	-4.7861	-14.9752	-10.2070	-6.7545	-1.1466	-13.7070	-6.7909	-20.4697
728.0350	-8.8450	6.6125	49.6067	9.5711	18.9652	10.6665	8.5857	0.2433	-1.3836	-16.7060	-6.6679	3.8382	-2.1384	-6.0602	-2.7577	-8.4970
736.0354	-1.0692	11.8597	52.7978	17.6342	18.7635	18.0655	31.1277	15.3738	4.7223	-6.9941	0.1645	16.6413	-3.0421	14.1094	7.5948	11.8476
744.0358	19.4576	24.9454	64.2142	30.9091	19.2729	43.9404	48.0954	32.1293	12.1620	10.1744	12.4715	28.6114	-5.1416	35.5545	24.7332	36.8787
752.0362	12.8242	20.8354	52.3821	26.1377	9.6941	40.2257	28.6129	26.9187	9.8602	9.8721	2.7310	20.6727	-5.6372	40.8412	22.1920	43.5635
760.0366	7.1107	13.5735	35.5894	19.5162	-1.7716	26.9453	27.1206	1.4946	2.8373	0.1991	-9.3567	8.2366	-2.5178	41.3657	14.7267	38.4833
768.0369	11.8273	20.8906	45.5427	34.9695	13.1150	37.4432	50.8188	26.8715	1.1645	-6.5133	-7.3089	6.9699	-2.5846	42.0858	21.5750	38.5882
776.0373	8.3476	17.8280	39.1948	31.1012	23.2392	24.3885	43.4614	40.5203	8.4765	3.7927	3.6839	19.0021	-7.2942	40.4687	31.0265	41.0100
784.0377	-0.7614	0.3095	10.8172	0.7554	6.5395	-8.1224	8.8454	-2.2171	6.4779	0.6049	4.9890	18.9793	-4.2614	13.1090	16.6350	17.7561
792.0381	-15.1022	-8.4857	5.9785	-10.1535	2.9415	-16.4753	4.6665	0.2417	-9.5438	-26.9153	-14.4916	-9.0390	3.8956	-21.3919	-10.4229	-14.5314
800.0385	-12.2506	-5.7825	10.1733	-9.9699	4.0696	-8.2810	17.5932	1.2347	-9.1873	-21.2224	-16.2821	-13.0819	3.4369	-14.7684	-8.2615	-9.8060
808.0389	-11.3820	-8.3103	0.4847	-19.2252	-6.9738	-9.6363	6.2454	-15.3976	-4.9701	-13.1930	-12.7613	-4.7886	2.0111	-4.3862	-5.2997	-3.1945
816.0393	-15.3654	-9.8711	-2.8333	-15.4622	-10.9779	-13.9680	-0.8558	-1.5514	-11.4131	-26.8129	-20.7447	-12.2164	6.0992	-5.6899	-17.8718	-7.3225
824.0396	0.2536	-0.9639	1.9871	-3.0234	-16.1230	4.7132	-11.4383	-23.7891	-5.9888	-15.5450	-9.1634	-1.9185	5.2931	-0.1702	-13.2812	-2.2929
832.0400	2.0260	3.9701	6.5231	1.1805	-11.2841	22.0595	-6.8214	-19.7235	-2.4909	-7.5530	-2.8940	-0.7747	2.5199	-4.8093	-6.8233	-8.4276
840.0404	-0.6111	2.8713	11.9107	4.3199	2.9922	7.1270	41.9099	28.4684	-4.1906	-8.7066	-5.3792	-6.0185	2.0667	5.1684	4.7054	0.6740
848.0408	9.0491	7.3891	14.1593	10.6664	4.6338	7.2417	34.0902	20.5955	5.3608	4.7055	6.2284	14.0832	-3.0023	26.2531	22.3046	24.5741
856.0412	10.1850	15.6615	15.0608	19.5223	15.6313	33.1252	2.3733	16.5152	10.2811	11.5564	9.7396	19.1390	-6.0466	29.5293	14.3092	26.6851
864.0416	7.7718	12.9079	9.6501	14.5771	18.2555	28.9636	32.6968	22.5565	7.3316	12.1694	3.8599	9.7616	-2.5756	30.2076	5.3909	24.2088
872.0420	-2.0127	1.3146	-0.8324	-2.5060	-1.1306	9.9477	21.7935	-4.6800	-0.3355	-2.5546	-7.0225	0.1345	0.2290	16.3624	1.9896	10.7654
880.0423	-11.1577	-3.0407	-3.0949	-7.5153	-1.7036	4.4757	-7.8905	-11.2897	-7.4107	-19.3771	-15.2884	-9.6692	1.5539	-1.0435	-9.0750	-6.5662
888.0427	-10.2292	-6.0714	-6.0222	-11.6588	0.8018	-7.8293	9.0257	-10.8128	-3.0258	-11.1648	-8.1217	-1.4665	1.4349	-0.6192	-6.3356	-4.7617
896.0431	-11.4461	-8.8162	-9.7179	-14.6616	-7.4058	-12.9575	-4.4448	-10.9920	-4.7819	-10.5363	-8.9943	-6.4534	1.8356	-6.5347	-7.8466	-10.3347
904.0435	-8.9939	-3.2997	-2.1099	-4.0445	-5.0450	-0.0819	-9.0612	8.1611	-8.7288	-11.7054	-14.1693	-18.6301	3.2791	-7.1823	-15.1641	-11.7468
912.0439	2.7253	4.2840	7.7319	4.0604	1.8791	11.1867	10.7933	11.5891	0.3678	4.0309	-2.2027	-2.4643	0.5669	7.3816	-2.1382	7.1338
920.0443	14.1484	10.8516	10.6739	8.7349	8.7445	20.2827	-5.8815	11.0687	4.9794	11.0752	7.9666	7.0785	-2.8053	16.6331	6.8229	16.0790
928.0446	12.5659	9.4840	5.4175	9.7695	4.8138	18.3361	-1.4506	20.1244	1.8450	5.0478	6.2494	3.5146	-0.1261	14.1638	1.2105	9.5861
936.0450	8.8353	2.3933	-2.0332	4.4819	-8.4397	2.3975	0.6492	-1.2033	-0.1882	-3.3856	5.3222	7.5167	3.5779	5.6766	-4.1378	1.6008
944.0454	12.5268	1.7184	-5.7557	2.3082	-7.5958	-4.6036	-33.1408	-31.2045	-0.6668	-1.5331	6.7914	5.8029	2.6660	5.6564	-11.7360	-4.5677
952.0458	14.6284	4.2579	-4.0999	5.1305	2.5109	0.9984	-9.7346	-16.1985	-2.7306	-1.4855	6.1964	-1.3789	4.6415	2.7769	-16.8727	-9.9286
960.0462	21.5182	7.8212	2.2362	13.3693	3.9973	5.8908	22.5434	6.3673	-2.0548	-3.3900	10.1860	4.1094	6.5302	0.5251	-5.9684	0.2859
968.0466	21.3216	4.3481	-5.4584	6.7053	-11.4689	-1.0128	-3.6088	-7.7674	3.5072	7.7089	13.7871	13.5766	2.6599	10.4479	5.4920	13.8980
976.0470	9.1259	-4.4120	-17.0795	-8.8743	-17.4072	-10.7732	-12.1522	-18.5564	-5.3263	-6.6769	0.2929	-2.7952	6.1159	-2.0735	-10.2055	-4.4507
984.0473	8.5669	-1.4077	-8.3296	-1.4664	1.8948	-8.4411	-0.2969	-3.8049	-11.2393	-17.1177	-5.9342	-15.5844	7.3744	-14.2076	-14.7292	-11.1758
992.0477	17.0125	3.0639	-4.4220	1.9034	9.5500	-6.1714	4.2857	9.8144	1.6888	8.8168	10.4225	1.2693	-1.7028	-1.2326	17.3437	12.6121
1000.0481	17.9264	0.6905	-13.3545	-4.5719	8.0390	-9.4123	4.9577	1.2251	1.2396	5.9480	12.8573	2.4251	-3.2302	-4.5909	28.3761	10.1520
1008.0485	7.3472	-2.6251	-18.9964	-2.1373	5.8356	-13.1594	-26.9606	-17.4201	-5.1925	-10.2813	2.5028	-6.2431	-1.0917	-14.6888	10.2612	-5.6668
1016.0489	3.6906	-4.1429	-19.6342	-6.0199	-4.9627	-9.9354	-44.1862	-8.3735	-5.5459	-11.6883	1.6141	-4.7181	1.3895	-17.5938	-2.2965	-10.0868
1024.0493	10.6221	0.6406	-11.6985	-1.7189	0.5617	0.4977	-9.2953	4.4781	-4.8445	-6.1946	4.1368	-6.1526	3.3754	-14.7198	-2.2577	-7.8602
1032.0496	14.6140	4.2718	-7.5045	9.3442	4.8562	0.0956	6.9578	-5.8042	4.7878	17.8150	12.0454	2.4377	-0.8778	2.1370	6.7716	5.7190
1040.0500	20.9448	8.9910	-6.3040	11.0408	4.2250	11.9467	-1.7333	5.9547	7.5469	22.0356	18.3227	8.8132	-1.8164	10.7443	8.9030	10.4966
1048.0504	19.9736	13.8512	-6.9551	13.9572	17.4097	27.0603	-5.0072	19.9149	10.9857	23.5260	21.8369	14.1498	-5.4172	16.4607	14.1689	14.3205
1056.0508	12.0817	3.4214	-22.0125	3.7214	11.0479	0.3992	-8.0632	-1.5935	15.6701	32.6470	24.5303	21.0795	-7.2212	12.1370	18.5360	16.1899
1064.0512	3.6640	-7.3918	-27.1698	-11.9861	1.3018	-18.5096	11.6057	-6.1852	1.2867	8.0526	8.8349	-0.8889	-0.1679	-12.7965	9.5431	-5.7324
1072.0516	-7.7466	-10.8144	-26.9344	-18.1513	-0.8706	-17.9980	13.2794	4.8285	-4.4341	0.0782	-2.6610	-16.2180	-2.0270	-16.5539	14.6507	-13.6008
1080.0520	-5.5522	-14.7287	-37.3934	-23.7115	-13.0705	-29.5004	-25.3215	-14.4209	-4.1791	2.8788	-1.3227	-14.1040	-1.4240	-15.6593	7.4361	-12.5062
1088.0523	0.5682	-9.1589	-33.2152	-12.8549	-2.9728	-17.6677	-16.7542	-25.1402	-9.1418	-6.5051	-4.0350	-20.7739	4.5434	-24.1994	-13.9328	-24.0431
1096.0527	9.7617	1.8938	-24.3301	3.7316	9.2645	4.2282	6.1417	-1.3546	2.8770	16.7940	12.4212	-5.2374	-0.2164	-9.8278	0.0768	-10.6965
1104.0531	23.3504	6.7971	-26.5844	3.6530	4.9924	9.7497	-18.9625	3.4699	13.6781	35.0800	30.8583	16.8884	-4.8598	7.4545	14.4064	7.5958
1112.0535	12.0418	-2.8571	-41.9145	-10.5735	-1.0382	-7.6026	-28.2134	-21.2795	8.5782	25.8301	21.3914	8.3341	-3.4008	4.3073	3.9433	-5.3502
1120.0539	-5.3130	-18.8254	-60.4258	-28.8046	-18.7281	-34.9172	-13.8224	-24.1066	-3.1197	9.9019	3.4234	-13.9577	2.6518	-14.7127	-7.9340	-24.2756
1128.0543	-6.5410	-14.3100	-51.4316	-24.4888	-15.6039	-14.2863	0.4630	-11.9501	-7.2143	2.6561	-5.0236	-23.5520	4.3066	-22.4748	-9.1753	-23.7068
1136.0547	-3.8397	-8.0644	-48.4499	-18.4745	-7.3793	2.8789	-4.0852	-20.7912	0.3393	15.8363	1.9297	-14.4813	-0.2192	-13.5471	-3.5546	-17.1320
1144.0550	-8.0849	-17.9359	-66.6596	-29.1789	-18.1652	-24.1613	-27.2874	-17.9534	-2.4845	8.2694	2.3396	-12.4267	3.1866	-19.9949	-13.6815	-22.7489
1152.0554	-14.2962	-17.9320	-64.8185	-21.0192	-3.9729	-28.6303	-1.6518	9.3959	-5.5917	-0.6570	-4.4392	-17.6355	4.7866	-22.0772	-15.9860	-19.0039
1160.0558	-7.1006	-13.0367	-64.5994	-13.1324	-1.4391	-20.3433	9.6412	13.3195	0.0796	15.4179	2.9394	-13.7030	2.1956	-12.3002	-6.6251	-9.6291
1168.0562	-6.1013	-14.4003	-71.1986	-21.2581	-17.5834	-16.2100	-23.6417	0.2614	0.0577	18.2800	4.3788	-13.2448	3.0706	-9.2030	-16.8120	-16.7838
1176.0566	-9.2728	-10.6064	-58.7839	-14.0063	0.0489	-11.1183	7.5210	8.0505	1.6479	22.2937	2.6989	-16.1218	1.0889	-3.3041	-15.3405	-17.2322
1184.0570	-2.4133	-5.1451	-46.9052	-3.6737	12.6112	-6.5212	21.1229	11.2220	5.9381	30.4931	8.3509	-11.4510	-2.1387	-4.5469	-0.7729	-5.9943
1192.0573	-4.2845	-3.2092	-42.3973	-7.0917	5.5958	7.8135	-19.7630	-11.9863	8.2595	28.8567	6.2434	-4.5976	-4.8504	-4.7519	-0.6810	0.0884
1200.0577	-4.3840	-6.4309	-37.9484	-12.4474	4.0024	-4.8982	-5.3681	-20.1039	3.6716	23.5409	0.8674	-12.0048	-2.4888	-2.3687	-5.3296	-5.1717
1208.0581	-3.5861	-10.6937	-30.5556	-12.1986	-4.0574	-24.7701	10.3788	-4.0192	-1.1199	15.0460	-0.0311	-14.9866	1.7890	-9.3710	-6.9880	-10.8520
1216.0585	-5.7179	-7.7259	-15.8877	-3.4337	-9.3067	-18.6491	2.0494	1.7150	2.6718	11.5242	3.3745	-0.3846	1.0611	-7.1611	-4.4008	-5.2508
1224.0589	-1.4558	-0.5140	-2.3084	10.3464	0.0378	-7.5141	-2.1980	-0.2755	2.1079	5.6649	2.5579	1.5488	0.4762	-2.6753	-4.6670	-1.2301
1232.0593	-4.7048	3.6720	5.0548	14.1917	0.8165	8.5670	-26.7313	-10.3055	7.1397	9.3942	1.9656	10.4260	-3.2571	3.7787	-3.3281	9.0148
1240.0597	-5.9459	0.2518	13.1182	8.6582	-9.1805	0.0912	-21.7750	-18.4468	7.5251	5.8994	1.9266	17.9518	-0.2137	0.9507	-9.1155	9.1617
1248.0600	-1.5008	3.9758	29.2907	17.8609	1.2180	0.2760	3.3061	4.6237	-0.5367	-10.0235	-1.4147	8.0078	5.0579	-9.3638	-18.0239	-2.9997
1256.0604	0.0078	11.6910	35.3768	22.6382	8.7534	21.2449	3.4476	13.3415	13.1676	10.3174	11.0499	29.3619	-3.3673	14.6545	0.4656	16.2396
1264.0608	-7.1682	-0.8349	27.2961	4.0641	-8.7070	-9.0133	6.5349	-3.1912	6.5170	-2.9956	1.9439	24.6620	0.4708	13.2194	-3.5755	10.8088
1272.0612	-14.2930	-2.1867	38.8255	7.5574	-3.3552	-9.7130	8.4962	9.5254	-13.6638	-39.9868	-21.3449	-8.5792	7.9901	-15.2382	-22.0853	-14.0864
1280.0616	5.8377	16.5030	58.8164	26.7697	9.7795	29.6559	12.0841	22.1017	5.3581	-2.9779	2.6350	17.1213	-1.9860	9.0223	6.4901	16.8093
1288.0620	9.5760	11.0154	56.7063	16.8338	-4.3819	9.5757	10.3048	8.9982	9.5657	9.9529	8.6665	24.3966	-3.1021	18.5652	13.7294	23.9029
1296.0624	-12.2578	-3.2913	43.1885	-1.7124	-15.6577	-10.0380	-13.7029	-6.5270	-8.5604	-23.9339	-17.7214	-5.5231	2.9147	-8.1365	-9.9077	-7.0152
1304.0627	-9.9736	-2.4270	37.3625	-1.4474	-18.9995	-3.7975	-23.7229	-20.6277	-6.7958	-24.3813	-13.9585	0.8678	3.1559	-10.8974	-10.4939	-7.9327
1312.0631	-10.4581	-1.3740	40.8523	3.8382	-21.2610	-3.1154	-25.0915	-19.8255	-4.8025	-23.8158	-10.8651	7.2614	3.9541	-9.0838	-15.0374	-9.4308
1320.0635	-18.5625	-3.8956	39.7060	-3.4801	-18.8311	-2.8559	-21.2584	-7.6379	-8.5394	-29.1472	-18.9020	-2.1174	4.5169	-9.1130	-21.6499	-15.1891
1328.0639	-14.3631	-2.2560	45.2391	-2.2972	-5.9689	-8.4216	8.2396	8.3463	-6.7122	-23.3732	-15.3280	-1.5884	2.4876	-1.5474	-9.8173	-7.7263
1336.0643	-10.0560	5.1554	56.0037	9.7042	7.7407	2.4957	19.6290	19.4660	0.3425	-13.1934	-5.8908	8.5646	-3.1425	8.5441	6.9608	1.0348
1344.0647	-12.5126	0.9549	41.4054	-2.9914	-6.9095	5.5645	2.1628	0.1787	-1.2338	-13.8362	-9.3380	5.2701	-2.2627	6.7233	2.9777	-3.1807
1352.0650	-19.5746	-4.3868	35.8732	-9.3267	-10.0813	-0.3647	12.4132	-8.0898	-6.7856	-20.1318	-18.4348	-7.2885	1.6865	-6.3327	-9.8435	-15.5627
1360.0654	-7.2917	9.8777	57.8603	9.7752	19.3295	21.7189	45.8848	16.6081	3.2966	-3.3432	-2.4922	6.0339	-4.3199	4.3169	9.1245	-3.3448
1368.0658	3.0333	13.4379	58.3031	10.5877	22.7692	21.0953	31.7342	18.9235	5.1890	-1.7021	3.7403	12.7829	-7.6944	17.0048	23.8637	9.9273
1376.0662	-6.2199	3.3730	40.0434	2.5128	4.9567	-0.8346	0.8422	6.9450	-0.2210	-14.2361	-4.7553	9.0973	-4.7170	14.0494	13.4624	5.7846
1384.0666	-8.4541	0.5041	31.1294	-0.9237	1.3516	-3.7679	23.0338	8.7914	-0.2831	-15.8027	-3.9780	11.4637	-1.8822	14.3659	9.3182	1.8463
1392.0670	-17.9124	-3.5411	23.9374	-9.5524	2.0541	-3.7756	11.6712	-0.4223	-10.7979	-31.8986	-21.0956	-10.9748	-0.7459	6.7160	0.9769	-10.8967
1400.0674	-23.1803	-5.6434	13.1522	-12.4657	-3.3421	-2.3598	-26.9515	-10.9619	-11.4059	-27.8597	-26.0400	-18.3504	-2.3089	4.9393	-6.9075	-12.9302
1408.0677	-16.4776	-5.5827	10.1168	-15.4697	-5.5703	-1.2344	11.7309	-2.1252	-5.6477	-14.5193	-15.7897	-8.2150	0.5149	5.2298	-6.3502	-8.4583
1416.0681	-20.2793	-9.6689	9.6275	-23.2272	-6.7815	-6.9438	14.1506	-10.4549	-10.1729	-21.7727	-22.0642	-16.8239	1.6334	-7.4506	-6.7982	-15.4547
1424.0685	-23.5877	-16.0751	-1.1030	-29.0996	-19.8645	-23.7844	-33.4463	-30.3229	-11.3447	-19.6260	-25.1213	-21.0677	0.0818	-12.1134	-8.5879	-15.5495
1432.0689	-25.2076	-17.4032	-1.1818	-27.4244	-18.0988	-26.8413	-3.3055	-8.3150	-18.5530	-30.7788	-34.2781	-33.3789	5.0176	-17.6737	-13.8815	-16.7216
1440.0693	-17.4951	-6.4033	6.3745	-15.1824	-3.1818	1.1924	14.0016	12.7879	-16.3796	-29.7036	-30.7744	-30.4055	3.1515	-9.9392	-4.7897	-6.7108
1448.0697	-11.1713	-2.7223	-0.4752	-10.5189	-5.8960	4.5860	-6.1129	-8.1360	-0.3845	-0.1000	-10.5948	-4.8970	-3.6317	14.3830	3.6959	4.5454
1456.0700	-19.7262	-8.2459	-4.7486	-16.7167	-3.8561	-6.3657	3.3258	-16.2270	-3.8566	-4.5404	-14.8202	-13.0349	-1.3326	5.7564	-9.5342	-14.5070
1464.0704	-16.3031	-5.7163	-7.1240	-16.3275	-2.6834	6.2534	-15.2430	-7.8647	-7.2327	-11.5336	-15.1039	-17.7343	0.7337	-10.5533	-15.1726	-20.1240
1472.0708	-9.6362	-2.0342	-5.4312	-4.6769	-5.9353	7.4912	-19.2707	-4.4580	-1.5854	-0.6964	-7.0102	-7.0112	0.6332	-2.5158	-14.5410	-9.3492
1480.0712	-5.8584	0.8421	8.1991	5.6499	3.9229	1.6788	9.8332	6.4882	-3.4072	-4.1173	-7.4218	-9.0695	1.8660	0.5915	-12.0670	-7.7472
1488.0716	-3.7516	-0.1834	7.3260	2.8341	-3.1308	-0.2875	-1.8859	4.2494	1.3679	0.8415	-1.7588	2.7545	-0.2705	-0.1600	-0.4367	4.1574
1496.0720	-4.9956	-1.3201	3.0951	2.8977	-6.2478	-1.2802	-0.9366	-3.1267	3.3359	4.8063	-2.4041	5.3368	-0.3725	1.8820	-0.1361	10.1307
1504.0724	0.1691	1.6692	4.2478	4.9920	4.3796	2.6283	10.1054	1.2152	-3.7755	-6.7464	-6.8812	-6.3542	2.5276	0.0240	-6.7142	1.9450
1512.0727	-12.5381	-6.0620	-8.6804	-7.1181	-7.8917	-5.2445	-9.6028	-13.7936	-2.6009	-8.6734	-9.9702	-2.5079	1.3586	0.1004	-10.2111	-3.7474
1520.0731	-26.1470	-8.7776	-13.6078	-10.5171	-2.6285	-0.0295	-4.5349	-20.7054	-3.1428	-10.3918	-18.5003	-8.9394	0.1951	-4.6410	-16.0172	-10.3480
1528.0735	-19.9765	0.1375	-3.1516	1.7507	20.9200	15.8398	8.2312	9.2328	-4.9135	-13.0223	-18.9504	-15.6058	-0.7624	-6.5958	-12.5328	-5.0337
1536.0739	-15.6176	1.3346	3.4142	7.0355	18.5248	6.4775	3.8182	16.7007	4.3093	2.6664	-6.9770	1.7357	-5.0459	7.8384	1.2097	10.5324
1544.0743	-9.2012	-0.5951	1.7983	1.6658	9.5520	-1.5690	2.1845	-4.4146	5.7749	6.8704	-0.8094	6.9745	-4.6205	8.9678	4.3911	7.9597
1552.0747	-11.7324	-3.5022	-2.9099	-2.9610	3.1540	-1.2519	-2.1548	-2.1339	-3.6644	-10.6543	-11.2887	-6.8853	-0.4299	-5.7470	-1.6839	-0.8877
1560.0751	-12.7603	-3.2863	0.2897	0.0859	-0.1313	-0.7886	0.5841	8.5237	-4.0246	-10.5572	-12.6131	-8.3109	-0.5241	-6.7791	1.8934	2.0012
1568.0754	-1.8622	1.5683	2.2768	3.5997	5.4219	5.6201	-2.3221	2.9121	-1.0565	-4.6051	-1.7413	-2.0018	-1.0347	-6.3755	3.3317	-1.3346
1576.0758	1.2649	4.2379	0.1909	11.3409	9.9229	6.8520	-8.6275	-0.5483	-0.2400	-6.7250	1.4162	2.7218	-0.9432	-1.9898	1.1769	-0.4396
1584.0762	9.7184	7.8584	-0.1320	18.6496	7.8239	8.3630	-4.4013	0.6671	6.2610	7.0364	10.0824	13.4782	-2.9466	12.2242	10.9331	15.1507
1592.0766	6.0193	1.4142	-10.4290	5.8286	-4.6035	-0.0131	-16.6003	-4.8568	5.7687	11.7747	9.0037	9.4763	-1.9327	4.7214	6.2157	9.5933
1600.0770	-9.1562	-7.9906	-16.3004	-4.4361	-10.0070	-14.7131	-13.8711	-7.9010	-5.2902	-5.5365	-8.9277	-12.1360	2.2633	-10.5197	-8.8354	-8.8252
1608.0774	-5.8437	-5.3985	-12.6402	-0.9087	-3.7178	-10.6558	7.6929	2.8604	-6.4296	-8.5845	-8.2676	-13.5219	2.1116	-10.0733	-0.3719	-6.9373
1616.0777	-1.0788	-2.1076	-14.4524	-0.4864	1.8912	-3.9418	-1.7892	14.1440	1.7952	2.2003	5.0318	2.6109	-1.6591	-6.0964	9.4858	1.3545
1624.0781	5.6316	4.2316	-13.1734	4.1690	13.4690	8.2699	-12.9225	10.4336	5.4643	8.6608	11.0898	7.9838	-3.3379	3.3163	5.2126	4.1733
1632.0785	5.3225	4.2598	-17.5283	1.7887	14.9004	11.4949	-4.4745	6.0437	4.1414	10.4577	8.1849	1.8019	-2.8076	6.8418	1.5253	1.3932
1640.0789	-4.0848	-6.5852	-26.1308	-10.2463	6.5216	-13.5077	15.6803	14.1073	0.4648	6.6076	2.3319	-5.2810	-0.4319	-3.1354	2.3717	-3.7176
1648.0793	0.8324	-8.3375	-26.8838	-12.2001	-2.9239	-18.7432	23.9087	9.0268	-3.9104	-2.3086	0.5310	-7.1778	3.3509	-8.5744	3.2888	-4.2502
1656.0797	0.4607	-10.3594	-36.3286	-14.4877	-26.2341	-12.3155	-10.1610	-14.2358	-7.9906	-8.7247	-5.1335	-11.7112	6.6685	-14.6738	-7.2615	-9.7744
1664.0801	1.7006	-7.6516	-35.3250	-10.7032	-21.8981	-4.9617	-20.7331	-9.8209	-6.5429	-1.6576	-3.1939	-14.5178	6.1686	-18.4175	-13.1912	-12.5084
1672.0804	13.6585	6.3318	-18.7417	2.3606	3.7204	22.5383	-2.7958	7.1205	4.1186	15.7959	12.4959	0.2657	-0.0890	-4.6935	1.7541	-0.3362
1680.0808	11.8455	3.8531	-22.5151	1.1434	-3.2884	13.6535	-16.3270	-8.0632	8.9318	24.0457	16.7801	8.7799	-3.0743	4.3012	7.0552	3.7858
1688.0812	10.3720	-3.7811	-29.4937	-1.7950	-7.6064	-14.6358	-18.1287	-15.6176	2.9711	20.0983	11.7795	-2.9871	0.8098	-4.5699	-3.6566	-5.5264
1696.0816	13.8788	-1.1501	-28.1406	0.0662	-2.9814	-8.1919	-18.6136	-8.7475	0.5465	16.6614	11.2747	-7.3319	2.3118	-8.1606	-8.3247	-8.8072
1704.0820	14.8249	1.3146	-29.0885	2.3640	-5.0873	-0.4159	-25.4507	-9.3598	3.8703	17.1977	14.8517	2.3564	0.5348	1.2792	-3.1446	-2.1363
1712.0824	27.3192	8.9777	-22.0924	13.5960	7.7977	9.0966	11.8025	12.2519	10.5351	25.8848	28.1203	16.9795	-0.3174	8.2911	11.7522	12.6540
1720.0827	32.6801	9.0039	-27.5862	8.7150	4.9455	12.5976	17.0829	23.2002	10.6036	29.4479	31.1480	16.2773	1.2335	3.1859	13.4122	15.5059
1728.0831	22.5616	3.3682	-34.4642	0.9596	2.5118	3.3672	-0.1468	16.7490	2.1487	18.2188	16.8397	-2.3803	2.2961	0.1475	2.0177	3.6300
1736.0835	31.8021	15.2038	-16.0803	22.2141	24.0032	19.0485	37.8229	36.3086	11.2723	33.9292	29.5682	9.8703	-2.2470	15.1145	17.8171	16.0196
1744.0839	39.6178	15.1190	-21.9686	20.1308	7.3192	19.5151	26.6496	23.2831	24.8811	60.4911	49.1112	33.6670	-5.3532	21.0327	29.1359	26.7603
1752.0843	18.1155	-4.3655	-48.9598	-9.8853	-19.0159	-8.1472	-20.7873	-12.4255	11.1238	36.2573	27.4663	12.2440	0.1770	-2.7755	4.0777	-0.2415
1760.0847	5.4035	-9.0642	-48.3491	-13.6393	-7.4620	-13.0783	4.1891	2.2635	-5.8271	2.9155	3.5491	-16.3246	6.1054	-23.4815	-8.3616	-16.7460
1768.0851	4.5488	-7.1413	-46.8303	-10.0651	-3.5124	-10.0263	10.6300	13.5335	-3.4082	7.9666	3.8394	-15.2184	2.8267	-14.2126	2.3411	-7.5660
1776.0854	2.5132	-9.1969	-60.2693	-15.3779	-10.3447	-14.6874	-20.2194	-1.1189	3.7311	21.0509	10.3411	-3.9506	-1.9738	4.8149	5.4438	-1.0981
1784.0858	0.8915	-11.9485	-68.8777	-15.2908	-11.4936	-18.1194	-10.0566	-3.3407	-1.5749	11.4748	5.5056	-11.0360	3.9038	-7.7557	-9.8413	-11.1217
1792.0862	-4.0145	-8.8717	-58.6399	-5.5531	-3.0568	-7.4716	-11.7841	-0.8132	-5.2891	5.4925	-1.7597	-21.8824	5.0948	-22.9520	-19.6144	-20.4844
1800.0866	13.5228	7.7182	-32.3468	12.0887	16.6777	15.5709	-17.5932	7.6574	15.5586	45.3137	25.9193	7.2756	-7.1186	7.5730	5.9572	3.8556
1808.0870	23.2579	7.3082	-26.4195	6.3779	13.6183	7.9589	20.9380	11.0240	22.4486	62.9622	39.3601	18.1730	-7.8663	12.5900	20.5612	9.6764
1816.0874	4.3673	-6.6015	-32.4264	-9.6810	3.8293	-13.1623	31.1554	0.0699	3.9346	31.4349	11.9562	-14.8080	-1.3515	-18.7722	8.0165	-15.4601
1824.0878	6.6186	-2.5613	-24.5055	-3.6699	12.7838	-13.0733	3.6398	-2.3633	8.5782	39.0706	14.9273	-8.8494	-7.2829	-5.1745	16.3952	-2.4137
1832.0881	7.3504	-3.1884	-20.9204	-5.5997	7.9381	-19.0571	-6.3072	-0.4285	11.9370	38.9448	19.2086	4.2559	-7.7431	5.3670	17.1801	5.5795
1840.0885	1.6381	-4.8764	-8.4256	-5.7737	2.8568	-20.7006	-3.6882	8.3382	-1.0524	2.7432	4.7121	-3.6395	-0.5666	-5.8392	3.5768	-6.3362
1848.0889	15.5249	6.0631	14.0796	9.9058	8.5889	-6.8706	2.7591	17.8843	5.0965	7.9480	16.3179	14.1462	-1.1964	9.4612	8.3369	7.2311
1856.0893	19.5406	6.5793	22.5444	10.0645	-2.4969	-4.2026	-1.7538	-3.5400	6.6352	8.4533	19.2671	21.5816	0.9326	4.2626	4.6150	5.9999
1864.0897	16.9867	2.2262	27.9146	5.4649	-14.6936	-10.4409	-10.1953	-22.4367	-0.5880	-9.0038	10.7551	15.9269	5.1366	-14.6019	-0.3753	-2.1754
1872.0901	9.6108	-0.7400	29.4510	5.6420	-16.2562	-18.0226	-3.5273	-11.8258	-0.0599	-8.8152	7.1742	15.8938	4.4593	-12.7690	1.5200	1.5537
1880.0904	2.7095	1.7259	38.3392	12.7402	-8.6509	-11.4943	-16.8521	-9.7612	-4.8009	-21.1640	-2.8553	7.7463	4.4030	-12.8891	-7.5202	-3.2772
1888.0908	10.6746	11.5935	55.1515	24.3412	4.7549	4.0318	-25.8666	-15.7749	0.6167	-17.0725	3.5409	19.8069	0.4093	2.8010	-1.9647	7.9030
1896.0912	2.9378	5.6677	47.6396	14.0758	5.0181	-7.7987	11.0401	-9.6951	3.4198	-10.6325	1.9561	21.7884	-1.1407	13.7350	7.0508	13.9081
1904.0916	-3.7766	2.5182	45.0119	11.7439	9.7256	-10.6325	36.1605	0.6183	-7.8046	-30.6501	-13.8720	1.5543	2.3940	2.7498	5.2075	6.3874
1912.0920	8.9076	14.5118	56.8994	26.3069	13.9392	16.6381	26.2144	6.0599	-0.7726	-19.8009	-3.6451	14.0770	-0.5902	11.9961	14.1759	21.3524
1920.0924	6.7255	9.4498	47.9291	17.8179	-6.2942	10.9877	7.8243	-3.1147	3.0614	-9.8756	-0.7744	20.4064	-0.3153	12.7649	12.1844	24.4910
1928.0928	-6.6599	-1.3499	40.8267	8.7664	-9.6131	-14.1846	-9.1412	-11.6125	-8.3563	-28.3866	-17.1629	-0.3581	3.5290	-7.8999	-3.6690	6.7228
1936.0931	-5.1883	3.9762	49.3120	15.0625	5.4913	-4.9457	-0.1776	1.1198	-5.3274	-21.9271	-12.6153	0.8377	1.2808	-3.8071	-3.7901	4.6770
1944.0935	8.5732	11.5877	55.0330	18.7361	-0.1012	12.9761	18.8639	8.1016	2.6572	-6.3184	2.5915	16.3548	0.1849	12.9664	6.5196	12.9670
1952.0939	5.6810	9.5580	51.5999	16.5055	-7.9910	11.3212	4.8340	-2.6371	1.9132	-10.6616	0.4640	18.0585	0.1689	13.4533	5.8735	12.1792
1960.0943	-10.4066	3.9856	44.1705	9.9982	-1.2670	4.2909	-13.2405	-3.7194	-2.5738	-19.0845	-13.0754	5.5981	-0.8761	9.5011	-5.2702	5.2871
1968.0947	-7.9225	6.5886	48.3823	12.3960	11.0137	5.7445	5.7370	-2.8700	-2.2975	-14.1534	-15.8057	0.2973	-2.9119	17.4744	1.3136	13.7708
1976.0951	-1.6178	6.3968	47.1513	10.4616	13.4865	1.2919	28.4472	-10.0787	-0.3469	-8.9117	-11.8361	3.4330	-3.4561	18.5156	12.9137	21.2246
1984.0955	-8.8120	-5.1286	31.6432	-8.1121	-2.4407	-19.9191	17.9521	-6.7671	-6.9190	-20.9740	-15.5110	-2.6743	1.8972	2.1997	-0.0322	3.6135
1992.0958	-13.6588	-7.8125	33.3196	-12.1482	-14.3248	-20.9568	-4.5149	-5.8618	-10.6344	-27.7029	-17.6861	-7.4776	3.8062	-7.0919	-10.5159	-12.8003
2000.0962	-6.7637	4.5024	49.5131	7.0085	-4.8431	8.7920	0.5949	-0.2533	-6.1556	-20.0772	-11.7588	-3.5512	0.5728	-2.7365	-2.9721	-9.5192
2008.0966	4.5825	13.7880	53.6243	25.2853	10.8190	18.1515	28.3267	21.7261	4.2565	-2.2877	3.2300	13.1906	-3.4128	15.0253	14.5308	11.8435
2016.0970	5.1453	8.8706	37.4223	20.3911	6.8420	2.1873	18.9886	13.7526	7.7162	2.2791	7.9719	22.3147	-4.1211	20.0287	18.4214	20.7602
2024.0974	-2.8146	2.6766	22.2372	7.9113	-4.3818	4.0586	-8.4131	-1.4151	-4.0254	-19.8201	-8.4535	4.5593	1.8102	0.9560	-2.0065	5.8805
2032.0978	0.0753	6.2523	25.1262	11.2035	4.2047	11.2605	3.8322	1.4645	-0.9587	-11.9073	-7.1043	5.9015	0.2122	8.0327	1.4102	14.6202
2040.0981	2.5580	2.9300	21.9475	3.5098	8.6369	-5.0259	-7.0167	-15.9470	2.4038	-2.8233	-1.9603	9.5686	-3.1211	11.0018	7.7691	17.4442
2048.0985	-14.6371	-6.9623	12.2902	-12.6713	-0.1458	-12.7773	-25.0975	-9.0384	-11.9581	-27.4982	-21.9343	-16.2204	2.2498	-12.3524	-13.8792	-8.9160
2056.0989	-18.3901	-4.0467	12.7541	-10.4328	0.3236	3.6178	15.2530	12.2790	-7.8402	-15.0187	-22.2010	-17.2303	0.7671	-0.4388	-7.1188	-3.1912
2064.0993	-0.9054	2.6440	13.2659	-2.0015	5.1061	8.7286	25.1094	-3.6159	-1.2429	-1.8919	-7.7072	-4.5060	-1.6344	10.4650	8.1734	8.4781
2072.0997	0.9767	3.0902	12.4549	7.0350	9.9998	0.9027	7.4660	1.4940	-4.6893	-15.9615	-5.1117	-1.9637	0.6404	-0.4786	2.3744	0.5961
2080.1001	-2.0829	3.2517	8.1966	6.8673	11.7294	3.1247	14.8780	15.2134	1.8278	-5.0730	1.5003	7.8192	-1.4038	8.1876	4.3636	4.8632
2088.1005	-0.3530	2.1231	3.8562	-1.3048	6.6279	4.3438	1.7450	17.7264	0.9852	-2.5314	1.5375	4.5881	-1.0401	8.0712	1.1828	3.4932
2096.1008	0.5439	-0.2545	6.4812	1.2943	0.0235	-7.1329	1.4151	27.5140	-2.6923	-7.4024	-0.5350	-0.0116	1.6347	0.9976	-0.5499	1.8387
2104.1012	3.6123	-3.9517	2.1044	-4.9449	-8.7931	-15.6952	3.4815	-7.3456	-2.5325	-4.1395	-0.5855	0.1876	2.3673	-2.4692	1.8225	1.6356
2112.1016	-1.3197	-7.5328	-0.8874	-16.3818	-9.4849	-16.6865	-25.5029	-31.5957	-8.3302	-15.9608	-8.0117	-9.0351	3.0927	-15.2438	-8.6579	-13.2646
2120.1020	0.7968	-2.4165	10.4432	-9.1828	-2.1069	-9.6398	-14.9136	-0.4659	-5.3440	-13.5637	-1.3523	-1.8495	2.3502	-6.9427	-7.7265	-12.1476
2128.1024	5.2255	4.4115	19.5147	-2.6664	2.8292	7.6536	9.4462	7.7296	3.1026	1.4452	6.8640	10.2689	-0.8205	8.1617	2.6507	0.1331
2136.1028	-2.7268	3.4879	17.7639	-4.6324	6.5574	13.0794	-3.1781	6.3778	4.7772	8.4440	2.3112	4.1394	-4.4876	2.4302	5.0064	1.2927
2144.1031	1.8542	5.2661	12.4899	-1.6731	2.8030	16.9444	-17.1844	13.8339	4.3535	14.7584	3.5507	-1.2654	-4.1758	3.4015	2.1095	2.1176
2152.1035	8.4850	6.9849	6.8409	1.7356	-4.2011	20.0393	-6.9682	4.4328	3.2779	10.9692	4.7064	2.5171	-0.9104	13.2836	-1.1737	5.0341
2160.1039	0.1167	-6.0312	-5.7912	-7.7003	-12.1738	-16.7489	1.1090	-15.1604	-6.0638	-12.7949	-6.7590	-3.0134	4.8177	1.1618	-7.4279	-1.0993
2168.1043	-8.5735	-15.6722	-14.2504	-19.1026	-22.7515	-35.1773	-29.7293	-32.1133	-18.3457	-39.3573	-20.7812	-17.0216	10.3213	-22.4427	-23.5327	-18.4797
2176.1047	-3.7194	-6.2318	-2.6205	-11.1398	-13.1692	-9.5044	-19.3672	-7.6115	-11.6829	-26.4633	-11.2149	-9.6831	7.4223	-15.0851	-19.4857	-15.9278
2184.1051	5.0907	-0.8552	5.9933	-2.4121	6.0084	-11.9485	23.2906	14.2467	-2.5547	-3.0736	1.7290	-2.0637	2.5396	-0.3289	-0.6897	-1.6663
2192.1055	-3.0443	-4.5228	-2.6493	-8.4547	3.5291	-12.1385	-19.5636	-21.8864	-6.2276	-11.7302	-6.8579	-9.8427	0.4554	-10.8013	-5.5619	-11.1980
2200.1058	-6.3110	-4.2097	-8.3202	-10.7120	-1.8042	0.2876	-28.1334	-25.2885	-3.4791	-10.3212	-4.1151	-3.9887	0.2052	-15.8637	-7.5540	-14.9684
2208.1062	-3.5600	-4.0590	-4.2567	-5.2183	5.9197	-8.7223	27.6683	13.5169	-2.4796	-3.6711	-2.1108	-5.3772	1.8940	-11.4873	1.3276	-4.3482
2216.1066	-10.5803	-2.2463	-6.5854	-5.2166	4.8455	4.2115	1.5865	10.4316	-1.9962	-2.7166	-9.3581	-9.1750	-2.1036	-0.1416	2.0536	1.4617
2224.1070	-13.4064	-4.0227	-22.2185	-17.1518	-2.0572	10.6779	-20.9570	-3.8055	2.7590	6.8048	-6.0722	-2.6399	-4.2380	12.8746	-3.4275	1.5040
2232.1074	-22.1815	-12.3347	-32.4751	-25.4830	1.9466	-9.9519	-0.9628	5.2859	-4.1251	-2.0669	-15.1593	-16.6150	0.0941	2.7144	-16.1004	-10.2005
2240.1078	-23.8806	-11.4526	-31.1313	-22.9878	2.3045	-5.4983	-9.4397	0.6556	-6.6983	-7.8573	-18.3567	-21.0508	0.1932	-1.9364	-18.2963	-15.9065
2248.1082	-10.9943	-6.5526	-25.6283	-19.4392	3.0644	1.6324	1.7801	-10.8020	-3.8637	-4.3243	-7.8126	-11.8059	0.5388	-0.9326	-11.2123	-15.3220
2256.1085	-1.7616	-1.0252	-13.8058	-2.2152	13.5951	1.0663	9.1954	7.7901	-4.5494	-6.3741	-3.4906	-11.4538	1.2689	-11.2021	-4.0838	-8.8655
2264.1089	12.1563	5.6526	-9.4789	13.6592	9.4824	3.2594	-3.2270	29.0518	3.3678	9.7619	9.6505	3.3676	-1.1221	1.8712	9.7204	15.5742
2272.1093	14.1474	1.1930	-16.0105	3.8924	-4.2774	-7.1562	4.9913	15.1871	4.4594	13.0207	11.4884	8.4664	0.2048	11.4201	11.3961	18.5189
2280.1097	6.8486	-4.3748	-23.2458	-5.6765	-14.0078	-9.1461	-7.2467	-5.0722	-2.2274	1.5226	2.6520	-3.1316	2.9571	-4.2344	1.2566	0.9788
2288.1101	0.9593	-6.3892	-35.2364	-9.1422	-21.9248	-3.5496	-23.4105	-7.2349	-1.2893	7.3566	1.5548	-6.5041	3.1110	-5.3580	-8.4968	-6.4380
2296.1105	-8.1825	-8.3438	-36.9502	-10.0686	-13.7791	-6.4898	-18.4166	-4.1838	-1.3743	6.4961	-1.6769	-9.8135	1.9823	-5.2010	-13.6864	-13.9114
2304.1108	0.6175	-5.3093	-29.7572	-4.2743	-2.7461	-10.6936	-18.9101	-3.6654	-1.2102	2.4328	5.9389	-4.4647	1.4899	-13.2935	-6.3284	-14.4717
2312.1112	4.4434	-5.7258	-34.6591	-8.1330	-3.5596	-12.8640	-9.0372	-8.6144	1.1464	8.6607	9.9957	-0.8096	0.9374	-6.2193	-1.9000	-10.7517
2320.1116	-2.0971	-4.3341	-35.4808	-6.2493	0.1041	-3.0928	-9.5241	-6.1671	0.9186	12.5556	3.2965	-9.3522	-1.3069	-0.6301	-3.4807	-10.6132
2328.1120	2.9207	4.5271	-28.3276	9.2619	12.0501	17.0163	-11.0855	13.8800	3.2616	13.5994	7.1925	-5.4602	-2.0975	-1.9718	-2.2253	-3.8093
2336.1124	3.7750	8.9386	-29.6769	10.9709	23.0706	32.0749	25.3535	21.3007	13.1518	29.1506	16.1056	9.0720	-5.4116	12.2462	8.0877	8.3541
2344.1128	-2.8101	-1.1620	-45.3751	-9.5003	6.2061	15.9183	14.5889	-5.2251	14.5454	39.9485	13.5389	5.1051	-7.7581	14.3633	12.9838	6.5179
2352.1132	-24.2966	-22.3109	-67.1368	-36.2426	-24.8564	-20.8881	-41.0050	-32.9941	-8.9393	-1.3578	-16.7277	-29.8396	1.8197	-19.9075	-18.9756	-29.6370
2360.1135	-31.4254	-19.5600	-56.7850	-27.0302	-8.5451	-11.9837	-11.5855	-15.7537	-14.9705	-20.1610	-23.7758	-37.2422	4.7338	-33.1608	-26.2704	-43.7531
2368.1139	-12.5495	-1.7259	-31.1225	0.2211	20.1098	11.5916	41.0003	23.4757	11.2666	25.2501	11.8176	2.4426	-7.3523	-9.1697	18.2088	-6.9989
2376.1143	-14.3204	-10.4296	-44.2109	-13.1669	4.0557	-12.7372	11.1784	18.9093	12.0592	28.0313	12.4546	6.4780	-8.7880	-4.3502	24.6662	1.9898
2384.1147	-14.8575	-17.7824	-60.7026	-25.5268	-8.0356	-26.2921	-5.6667	-2.4767	-3.5788	2.7377	-4.1196	-15.9633	-0.8277	-13.9211	4.1335	-13.7116
2392.1151	-8.7038	-8.8332	-53.1581	-9.3733	2.1208	-5.3591	22.4807	11.5062	-1.6398	4.6119	-1.7096	-13.0628	0.1544	-9.3156	5.7319	-6.4651
2400.1155	-9.0095	-4.4064	-50.7181	-1.1720	6.4249	4.6492	16.0175	27.3664	2.2741	10.2402	-2.0759	-7.9904	-2.5031	2.7340	10.3739	10.7306
2408.1158	-1.2383	-1.9714	-50.3260	1.2997	13.2085	0.4212	10.3015	27.9743	8.8476	30.2222	5.6472	-3.8719	-6.4103	12.8725	18.2291	24.8207
2416.1162	-7.6939	-8.0074	-55.4899	-5.1931	1.7100	-8.2037	13.0680	13.0285	9.2697	32.0843	5.5123	-3.7730	-5.3578	3.7828	15.3485	14.3608
2424.1166	-11.1803	-14.5839	-65.6222	-13.8620	-25.4684	-11.0349	-18.5854	-17.5126	0.0801	13.7930	-2.0139	-12.5064	1.4786	-16.5815	-3.4169	-8.9747
2432.1170	-5.7074	-8.5727	-53.9124	-5.2442	-11.6556	-2.8954	-19.2909	-10.5673	2.1050	22.1940	2.7206	-14.5661	0.8424	-20.0867	-9.5303	-12.6522
2440.1174	-9.8952	-1.7783	-32.7632	2.1163	14.1934	7.4227	8.0434	23.2278	8.0162	32.6259	3.7161	-11.9844	-5.6755	-5.4035	2.6501	-0.5238
2448.1178	-6.6208	0.4054	-22.6097	3.1737	6.5508	9.6247	10.2422	26.3370	13.6982	41.9145	7.3775	-1.1455	-9.6175	10.8376	20.1842	18.5283
2456.1182	-10.6773	-2.9663	-17.7519	1.2439	2.6106	0.7081	18.4158	10.2730	12.1031	34.7501	3.3770	0.7767	-7.5447	7.7346	15.7879	15.6858
2464.1185	-15.7510	-1.2606	-8.0228	1.7083	12.7992	6.8618	8.2837	-4.3881	4.4619	10.3390	-4.7635	-4.4366	-5.1602	1.4867	0.4571	-3.1744
2472.1189	-9.1615	6.3833	8.0974	9.3924	10.7801	22.0568	-12.3309	-2.2661	13.6394	23.0692	10.4182	14.4115	-8.5385	11.1093	2.1240	-2.7480
2480.1193	-3.7569	5.8003	17.6941	7.1635	-0.7373	16.2048	2.3153	6.5263	15.9800	27.1803	17.8147	24.0101	-5.3969	14.1771	-0.5477	-3.1023
2488.1197	4.4827	5.0627	20.3142	3.7260	-8.5839	7.6456	-9.0256	-8.6810	5.7388	5.8151	11.5741	16.7015	-0.1895	15.4131	-8.4199	-9.6307
2496.1201	-0.5387	2.7005	22.3452	4.3874	-7.5897	0.0366	-21.6878	-15.8334	2.8151	-3.4061	6.5521	14.5158	0.4059	9.6662	-13.3863	-13.4994
2504.1205	-4.9378	1.7063	30.4944	7.7690	2.8069	-1.2843	8.5166	-5.3294	-3.3396	-18.6282	-4.1719	5.7022	4.0859	-9.1734	-14.3856	-11.8141
2512.1209	5.3291	10.3672	45.8333	22.9034	9.4363	10.6075	11.5052	-7.8076	1.4122	-11.7323	0.3016	13.8982	0.1778	-0.2414	3.7379	8.9702
2520.1212	3.0053	5.4630	42.3987	18.5937	-2.6024	-4.2009	6.5604	-7.5449	3.7655	-8.6587	2.6730	21.0307	-0.6551	4.8908	10.3268	14.8880
2528.1216	-3.7006	-4.1252	30.0819	1.4793	-11.7768	-19.1116	-5.2258	-7.3416	-12.9014	-39.4407	-16.0716	-2.1893	6.7335	-15.5132	-4.9964	-1.2208
2536.1220	-4.0430	1.5834	37.4641	6.6285	-5.0413	-4.9719	-39.7371	-15.1976	-10.6301	-31.1500	-16.2624	-5.8177	2.1666	-7.3753	-9.6918	-3.5949
2544.1224	3.1634	4.2428	44.4300	11.5595	-2.8475	-5.8332	4.3182	-1.8144	-2.9235	-14.2287	-2.7633	6.7983	3.0964	0.5467	-6.1845	-0.5375
2552.1228	11.6302	3.0915	41.8664	8.2959	-0.8483	-9.4923	53.5057	7.7171	-7.1862	-24.8445	-1.6080	6.5906	8.8648	-12.3980	0.4823	1.5577
2560.1232	7.3826	4.5588	40.6918	6.2897	2.9385	-1.9634	5.1562	-12.8678	-5.6610	-23.3736	-3.1697	5.9507	3.5129	-9.5786	-0.5783	-1.2349
2568.1235	4.4283	6.4318	45.5977	8.2896	6.7514	2.3367	-11.0837	-14.7611	-5.5953	-23.7107	-3.5282	4.5629	1.8891	-6.0155	-6.5912	-8.8120
2576.1239	5.3436	11.4542	53.4813	16.1721	15.6234	14.0593	19.6329	1.9104	-1.2315	-16.8009	-0.1020	9.3645	-0.8070	1.5926	6.2228	-0.0107
2584.1243	6.6730	12.8439	47.3489	14.5085	9.7685	19.6784	12.3152	-3.4564	5.4494	0.0166	4.2992	15.7779	-4.7176	21.6403	12.2905	11.2092
2592.1247	6.3756	10.3947	37.4691	10.5335	0.7651	17.4722	-5.7108	-11.8981	3.7634	-0.1220	1.1679	12.8382	-2.0064	22.0320	-0.3227	10.4099
2600.1251	-2.6347	7.0402	36.5392	8.9679	1.6113	16.0631	-14.3568	-11.7948	1.2113	-7.5660	-4.8824	8.5151	-0.1270	4.5573	-10.3843	2.7851
2608.1255	-5.4701	2.9420	37.2972	2.5376	-4.1749	8.2908	-7.8066	-9.9947	-1.9245	-16.3083	-5.9697	7.7626	2.2576	-5.3275	-11.7851	-6.2183
2616.1259	-0.3132	3.8904	45.7728	4.6685	-3.0793	2.1573	-2.0828	-4.7946	0.2533	-14.5759	2.0498	15.0245	1.0429	-6.7560	-1.8313	-6.3257
2624.1262	4.1986	8.4624	57.1566	15.0043	8.3437	2.9624	1.0119	-0.7294	5.3902	-2.6783	9.5847	19.1216	-2.8342	-6.1328	7.4567	-2.1172
2632.1266	4.7917	12.3388	56.8957	21.2213	15.9928	12.5846	26.5694	7.6028	9.0506	4.2418	10.7159	22.0268	-5.2842	6.7775	17.2885	8.5455
2640.1270	-5.8558	4.4514	37.7245	5.2696	4.2409	7.2279	8.8811	-3.7771	5.7145	-5.9120	1.7823	19.4413	-4.9664	7.6541	14.8927	7.6521
2648.1274	-13.8079	-7.0585	21.3399	-13.0791	-14.7219	-8.5701	-24.7166	-23.3170	-9.2220	-30.2133	-15.8319	-2.9578	3.2924	-18.0411	-10.6377	-13.9376
2656.1278	-4.0613	3.2320	33.4952	1.1211	1.8168	10.5022	13.3628	5.6324	-5.4006	-18.3951	-9.8696	-2.3333	2.6432	-8.2963	-5.2058	-4.1723
2664.1282	7.4305	10.6234	34.3217	2.8972	9.3680	22.1619	24.0107	19.1733	6.2309	8.9648	4.8516	10.9424	-4.3669	21.3375	14.3299	16.7028
2672.1285	3.4759	0.3173	14.2935	-11.5159	-14.7700	3.6585	-27.0732	-26.9568	-0.6350	3.8721	-4.1457	-2.2880	-1.3660	10.7550	-1.9399	2.4101
2680.1289	-2.7969	-0.8054	12.2988	-1.2052	-9.1628	0.1116	-36.0694	-40.0042	-4.1840	-3.3763	-9.2835	-10.0534	1.0971	-6.8700	-16.6944	-11.5695
2688.1293	-0.2905	0.9306	12.4335	5.3479	-3.5631	0.4827	-12.3956	-8.2618	-8.6680	-13.2091	-10.5856	-14.5067	4.7936	-10.3547	-18.1075	-12.2618
2696.1297	5.8055	3.0470	13.9895	11.4099	-17.2418	3.0682	-14.2994	4.8017	-9.3742	-15.6701	-9.4968	-10.5951	6.3518	-2.1880	-12.0940	-1.6539
2704.1301	16.4403	12.6040	30.3408	27.3686	-5.9207	13.6463	-12.7346	9.3124	2.0849	1.0443	6.2042	10.2818	0.8856	9.8774	4.1037	16.2770
2712.1305	23.9252	14.1348	31.1481	23.8184	6.3623	13.5829	17.6563	21.2602	3.1419	4.0097	11.5032	11.9164	1.1065	6.9493	12.9419	21.1786
2720.1309	21.7627	7.7605	13.6317	8.6671	0.0375	4.2304	14.9116	12.8470	1.2503	2.2360	9.4374	9.1108	1.9088	7.1579	12.5695	19.2775
2728.1312	15.1037	1.7279	4.2332	-3.2128	-3.5424	-7.5205	-10.6234	0.1868	-1.1101	-3.9049	5.9633	7.6485	2.8817	6.3276	-0.5174	9.8147
2736.1316	13.5897	0.4526	6.0693	-6.2184	-3.3181	-7.1607	0.9870	4.5215	-7.3458	-14.3318	-0.4504	-2.0342	7.5395	-3.1863	-12.8500	-0.8868
2744.1320	16.9044	-0.0691	4.1574	-8.1328	-7.8573	-8.8531	-5.9548	-4.1830	-11.0058	-19.1015	-1.6077	-7.0499	9.5852	-6.1534	-17.7961	-8.1335
2752.1324	11.2496	-1.4195	4.3136	-10.4857	-5.9832	-11.8929	-16.7084	-6.9013	-11.8137	-20.4035	-5.5188	-10.2532	8.0728	-0.5562	-21.6161	-11.3224
2760.1328	4.5863	3.6676	10.0079	-1.8818	5.9843	5.6191	3.6567	-2.7658	-3.0174	-6.8286	-4.4979	-1.9844	1.5786	12.8480	-7.5797	3.4298
2768.1332	-8.7081	-5.0114	-3.2045	-12.7713	-2.2540	-4.8558	-14.3528	-23.9380	-7.8850	-19.7936	-16.4080	-9.0412	1.1229	2.6822	-6.9357	-1.0702
2776.1336	-22.7698	-18.0883	-14.6628	-27.7344	-18.2730	-28.5044	-25.4581	-18.3193	-22.5126	-43.8433	-36.6299	-32.8982	7.3970	-18.6983	-20.8065	-16.3512
2784.1339	-5.9631	-7.5767	-1.9076	-10.9376	-13.2414	-11.8110	1.5655	-2.6448	-16.8233	-28.4596	-24.8400	-25.8264	7.3151	-12.8541	-10.5190	-3.4414
2792.1343	7.2373	0.0192	5.5324	-1.6166	-9.9212	-0.1020	4.2706	-20.5191	-11.3936	-21.0593	-11.9158	-12.9221	5.9046	-5.5938	-4.2511	-2.3118
2800.1347	5.3330	0.3190	5.2471	-3.4911	-9.1974	-0.3792	3.4348	-12.8010	-4.7830	-9.4841	-2.4445	-2.6136	2.7625	5.2201	-2.1759	-5.2214
2808.1351	6.9458	2.9453	3.2500	-0.6675	-4.1764	6.1678	1.5622	1.2528	1.6289	4.4041	6.5674	4.2836	0.3878	6.8185	-0.0956	-2.6889
2816.1355	-7.2288	-5.1365	-5.9304	-8.7619	-8.9916	-3.1266	-17.8780	-16.8891	-6.2420	-13.8957	-7.6180	-7.6340	2.7886	-12.4320	-11.6482	-16.3445
2824.1359	-14.3500	-12.3205	-16.3173	-20.3828	-15.4884	-19.1725	-31.7127	-27.8845	-5.5387	-13.3056	-8.8085	-5.5503	1.5138	-8.4416	-12.6852	-18.5357
2832.1362	-9.8047	-12.5869	-22.4247	-24.3554	-9.3239	-22.6377	-21.7497	-18.0120	-8.7192	-15.1683	-9.1997	-12.3386	3.0923	-8.3517	-14.1538	-19.9429
2840.1366	-7.3389	-4.8918	-10.5767	-11.9538	8.0072	-4.3721	14.1810	5.1202	-12.0273	-21.5463	-14.7587	-21.2543	3.2156	-9.2355	-7.1655	-14.9006
2848.1370	3.9184	7.3101	1.6590	1.7118	12.6081	20.3983	23.8984	17.9343	4.3579	7.1887	5.2218	4.1290	-5.2925	19.8996	17.8847	8.6090
2856.1374	4.1371	5.1238	-7.2870	-2.0076	2.5017	18.1445	11.1960	17.6542	5.4453	11.8881	8.1208	5.2564	-5.2205	20.4812	17.1185	6.6477
2864.1378	-0.8189	-1.9296	-12.9685	-3.1616	1.9367	-1.7856	15.1874	15.0503	-2.7147	-0.5031	-1.7937	-8.9166	-0.1934	-1.3324	6.9445	-1.7825
2872.1382	-0.0520	-1.1973	-11.6657	-1.0990	1.6634	-1.3649	2.9158	5.8422	3.0586	7.9660	4.9923	1.7250	-1.9014	-1.4193	7.0806	1.3668
2880.1386	1.9480	4.9610	-11.7016	2.5671	3.0603	20.6897	1.2963	15.7376	6.8057	14.3729	9.4817	6.5447	-3.1882	9.2035	4.9565	2.0312
2888.1389	7.1238	8.6908	-12.4015	8.0778	14.6101	24.2233	19.2815	19.6119	9.3219	20.7174	13.2485	8.1922	-4.6178	17.2297	10.5900	8.5752
2896.1393	0.2035	3.5147	-19.2531	-0.5442	12.5920	14.7674	-2.2914	2.0935	11.7296	25.2122	13.5916	9.8200	-7.8727	13.2489	12.5072	4.9611
2904.1397	-0.8204	2.4991	-18.2240	-6.2259	3.2629	15.9252	-22.8412	10.5028	7.8564	22.3204	9.4088	1.7426	-6.9312	14.0053	5.9143	-0.6756
2912.1401	6.6348	2.7037	-13.9984	-7.1037	4.7491	7.8268	-9.2148	11.8185	4.1822	17.7919	6.9537	-2.1041	-4.4161	17.9634	6.7169	5.8156
2920.1405	1.3656	-4.0718	-26.2120	-20.3042	-0.1083	1.0251	-6.6138	-9.7592	5.1264	18.3215	5.3583	-0.5922	-4.6446	6.2914	10.7907	5.2496
2928.1409	-6.4526	-11.4443	-39.9316	-31.0767	-15.6176	-3.9953	-17.3658	-16.8273	-0.4265	11.0526	-1.9557	-10.8968	-0.7527	-8.9137	-0.8352	-9.0218
2936.1413	-13.5226	-14.1989	-39.5217	-25.8595	-15.8218	-12.1280	-14.1914	-11.6230	-9.7631	-6.7906	-14.0792	-25.0851	4.3209	-17.4025	-16.9920	-21.7592
2944.1416	-7.2545	-4.2344	-33.5481	-6.7819	-0.6774	5.0026	0.2146	5.5217	0.8627	10.4965	-1.5881	-9.9101	-0.6026	-2.7984	-4.2563	-5.4674
2952.1420	-1.1944	1.0217	-32.8879	6.7011	2.7987	9.6834	6.1509	16.2644	11.7285	31.0445	11.3695	6.2333	-4.4952	10.9255	7.3636	12.1561
2960.1424	-7.2271	-1.5524	-27.6042	9.8677	4.0111	0.5802	8.8616	27.4013	5.8604	19.8022	2.2725	-3.3107	-1.9938	2.1771	1.0156	8.3630
2968.1428	0.7068	6.2020	-17.9408	14.0733	13.4190	18.3801	19.7716	39.7058	9.7759	28.0993	8.5064	0.5872	-5.3856	11.1989	12.9259	16.3234
2976.1432	1.6513	5.2947	-24.1054	10.0560	10.5100	19.4626	21.7631	11.9659	14.9147	37.3496	14.2261	8.0668	-8.6139	15.0514	22.6570	16.9276
2984.1436	-3.6133	-0.2501	-33.8859	6.9652	1.6241	10.9629	8.0953	-0.3075	11.3388	31.0276	10.1248	2.5325	-6.2346	-0.8506	15.9541	7.0933
2992.1439	1.3511	2.7707	-35.9648	10.5188	0.1632	17.7641	0.0050	18.2660	10.9783	31.4465	13.0183	3.2698	-4.0283	1.2335	8.5874	8.2598
3000.1443	0.6807	2.4735	-39.4773	12.2750	5.4308	14.4666	7.0765	15.2144	10.2629	26.5032	13.4098	5.5748	-2.2532	3.1327	1.4793	4.3610
3008.1447	6.7056	7.9473	-41.1287	19.3720	16.2828	24.5399	12.8686	19.2775	16.0151	35.5129	21.2009	14.3101	-5.3962	11.2448	11.0874	15.1817
3016.1451	10.5405	9.2917	-47.4672	15.1442	12.3865	31.5538	10.4042	12.1068	19.7501	44.1899	23.2702	19.1924	-7.5047	24.3910	18.0367	27.6600
3024.1455	4.8762	-2.4497	-56.3204	0.2061	-3.7027	6.0846	9.6509	-7.6285	8.0644	25.5021	10.1042	2.9419	-0.6742	5.3172	5.7395	12.2060
3032.1459	5.4394	-4.6964	-53.0521	0.8227	-1.6485	-5.1504	14.8226	3.4758	3.4832	18.3552	8.3518	-4.4256	0.6876	-7.8493	8.9070	6.6497
3040.1463	9.0272	3.0573	-43.8510	13.7299	8.2088	10.0943	16.2154	8.5583	12.2105	32.3809	18.7978	7.5242	-4.6594	0.5190	20.4712	14.1963
3048.1466	16.8531	9.0577	-38.4822	24.7316	2.7356	23.2100	-2.3427	11.3618	19.0413	50.0486	29.6547	15.2972	-5.1681	-0.1489	15.8557	16.4559
3056.1470	17.7381	7.5318	-40.6720	16.6971	-3.8526	22.9954	-13.4440	9.4922	19.7081	57.1267	29.8254	13.3385	-4.1410	1.8635	7.0556	15.2046
3064.1474	14.8564	4.7281	-39.9877	4.5538	0.4281	19.7467	12.2533	-8.0254	17.7176	51.5144	26.5658	11.7118	-3.5279	6.7620	5.7802	7.1408
3072.1478	14.3467	4.5727	-33.5595	5.6525	3.1941	14.7384	26.3379	11.2446	16.9952	49.6156	27.6228	11.6388	-2.9918	7.0116	7.5919	5.6981
3080.1482	6.0675	0.6489	-27.8666	2.2502	6.2029	-0.1599	17.8099	32.2771	12.9041	39.5978	18.8988	6.4210	-3.3354	9.8431	6.0148	9.6077
3088.1486	10.7302	4.6041	-7.3086	9.6916	10.7206	-0.5819	30.3556	28.7820	9.6144	28.7645	14.8748	6.3354	-3.2377	15.3692	13.3213	15.7607
3096.1489	17.9634	8.1647	8.6828	18.0767	-0.5529	1.2507	18.5402	16.5705	11.8239	28.7710	18.3810	16.3555	-4.1036	19.7378	23.0606	26.3194
3104.1493	9.8048	3.0502	6.4078	10.0709	-7.9787	-4.5528	-22.1430	-9.9182	7.5560	11.4394	10.5574	17.7500	-1.9012	8.0530	8.2854	18.5648
3112.1497	10.4457	10.6749	22.4954	21.5170	4.5485	19.4241	3.7548	3.8864	2.9466	-3.8118	5.8438	13.9372	2.9718	-4.2099	-4.3383	9.7071
3120.1501	17.5429	17.9281	37.5931	29.4674	4.5000	36.0946	31.7813	16.9379	8.3805	7.3703	13.2489	21.9271	1.7188	6.5446	5.2154	17.2854
3128.1505	22.7995	17.2902	38.5997	24.0262	2.5239	26.6345	-2.3864	-4.6163	10.7927	12.3664	20.7105	28.1516	-0.6020	12.3939	3.1816	12.4694
3136.1509	25.9522	18.5571	49.4269	27.9110	13.6455	19.5854	12.9151	6.2192	7.7817	6.3931	20.8492	25.0746	1.8999	7.4489	-2.7992	7.2106
3144.1513	13.7382	6.7932	42.5507	8.3623	4.3237	-3.4737	16.9253	-16.8542	4.9506	1.5485	10.2751	19.9341	1.6257	4.9077	-0.7163	6.4818
3152.1516	-3.6084	1.4626	38.0571	2.2145	1.7236	-6.0185	-34.9390	-43.7487	-0.2482	-10.3104	-3.4569	7.6199	-1.3040	-4.3418	-11.4567	-9.6137
3160.1520	-3.0312	14.3159	63.3092	30.5324	25.5968	17.7884	8.6158	17.4397	1.9056	-8.8998	-0.8450	7.1801	-2.7217	-2.1465	-3.9336	-4.1265
3168.1524	5.1037	14.6205	65.1161	29.3355	24.2411	10.6018	52.4207	45.0378	10.7501	9.8326	10.5826	21.6786	-5.6400	12.2202	23.5041	22.2239
3176.1528	4.1262	11.2305	52.6774	19.7469	14.2297	8.2566	21.3063	20.5421	8.6930	5.4312	6.5466	20.2564	-5.9411	15.6669	20.5571	22.4804
3184.1532	1.5243	12.8426	54.7623	16.2173	18.6579	19.8958	26.8941	13.0489	4.2827	-8.9176	1.6648	17.6472	-3.4384	14.7965	9.8053	10.5823
3192.1536	-4.2610	5.4891	47.1594	-1.1431	3.5379	12.1563	1.5432	-3.9799	3.4150	-6.5875	-0.1513	13.9229	-3.7747	5.5409	6.0457	0.2528
3200.1540	-4.7982	5.8773	48.0721	5.3296	-2.2664	11.9458	-28.7741	-8.1878	-2.5614	-10.5599	-8.5412	-1.2340	-2.1089	-1.5379	-5.3295	-5.6555
3208.1543	7.0354	13.2007	59.3780	19.4261	14.4945	12.9789	3.5254	0.1770	0.5876	-10.0171	-0.7350	9.7567	-2.3559	11.4298	4.3469	7.9258
3216.1547	7.5449	7.8652	51.4981	10.2183	9.5329	-3.7120	6.7090	2.8748	5.3260	-4.6480	7.5619	22.5479	-4.0235	14.0753	16.3030	15.1713
3224.1551	2.5860	1.5367	41.7057	3.2355	-0.1050	-14.9296	7.3357	7.1187	-4.2763	-20.5018	-4.1527	8.2764	1.3001	5.9227	5.6637	7.0653
3232.1555	-4.2930	-2.9028	31.8908	-4.8734	-3.7244	-17.5201	-6.3797	-10.1081	-9.6098	-31.3042	-13.6620	-0.2028	3.1018	0.7757	-4.4311	-0.9720
3240.1559	-18.3756	-12.4817	16.1682	-18.8191	-15.8384	-26.7412	-37.4548	-18.0718	-16.3433	-41.8441	-25.5953	-13.8375	5.4003	-16.4649	-19.1018	-16.0506
3248.1563	-10.9295	-7.7634	25.7716	-12.7320	-2.3515	-21.8018	2.9586	-0.0313	-22.1892	-52.9061	-29.1398	-21.4994	9.1385	-16.4538	-18.8195	-15.2937
3256.1566	5.8705	9.6703	47.3305	6.4217	23.4620	9.7204	25.8445	8.3487	-7.1405	-28.4715	-9.0441	1.1346	0.1990	7.2995	7.2853	7.7014
3264.1570	2.8993	10.6002	45.5327	6.4254	19.4695	18.0378	16.3982	9.3451	-1.5643	-17.8138	-5.3842	7.0553	-3.6166	11.6411	14.7217	12.7206
3272.1574	-2.3591	5.1010	39.2836	-0.1070	13.5439	5.7582	27.0756	9.6821	-6.0977	-25.2252	-12.0494	-0.2287	-2.6775	12.7881	17.5185	9.5773
3280.1578	-0.0525	7.2934	36.0589	6.0130	13.5485	5.8642	2.2581	11.4239	0.5237	-7.6330	-3.7106	4.1319	-8.3043	20.4263	26.8236	15.2916
3288.1582	-1.0574	2.5108	26.6779	3.8057	7.3745	-5.1160	0.3638	9.0518	-4.8287	-12.8968	-8.8807	-5.8486	-3.6120	6.9923	15.5381	8.2586
3296.1586	1.9668	1.8559	24.5344	-1.5764	13.9034	-4.2522	30.9319	7.5421	-7.3542	-18.5538	-9.3222	-7.8826	-0.1768	-0.7965	13.1441	4.1781
3304.1590	7.4060	2.7354	15.8759	-6.9716	10.9394	0.6411	16.6730	11.3785	-1.1927	-3.7642	0.9396	0.1384	-2.3291	2.3715	16.8466	8.8726
3312.1593	-2.6254	-7.1183	4.4338	-15.6016	-2.4023	-19.1362	-11.1680	-7.9076	-13.3287	-27.1590	-16.8875	-16.0389	3.5124	-11.5470	-2.2768	-2.3256
3320.1597	-2.7180	0.0820	14.9230	0.8746	10.1763	-5.7846	-21.8939	-16.2098	-12.0071	-29.7803	-17.4855	-13.5611	1.7465	-8.3974	-6.5213	-2.0879
3328.1601	8.7872	9.2933	17.2413	13.2484	14.0784	9.1457	-17.2154	6.6671	3.2197	2.6175	4.8946	7.3598	-3.3827	13.8688	3.6862	12.0973
3336.1605	9.0380	7.0821	18.2282	12.5651	6.5941	1.9982	9.1544	21.8637	1.2425	1.4921	4.0949	5.0928	-0.2595	15.9390	3.3694	10.8763
3344.1609	21.8091	16.8597	31.4244	28.0222	16.8142	20.3009	42.7122	31.4718	5.6175	4.9487	14.9443	16.3452	-0.0822	15.2084	15.2992	18.2792
3352.1613	14.6772	5.1474	6.7207	7.0498	-0.6209	3.0748	8.7444	-1.7843	4.5477	-0.6490	12.9228	19.5292	0.2764	3.8415	14.1994	13.4735
3360.1616	-17.3451	-17.3280	-20.1294	-25.7605	-23.9706	-26.8134	-56.8505	-48.3199	-16.7231	-38.5707	-24.1043	-17.7857	5.7622	-26.7900	-18.8344	-20.9196
3368.1620	-12.0518	-7.8609	-5.1878	-8.1503	-7.9931	-9.6825	-19.0114	-14.6768	-17.3080	-35.1631	-25.4727	-24.1821	7.7833	-20.1788	-23.6512	-15.6921
3376.1624	-2.1074	-0.7081	3.9743	2.3987	-2.5822	-4.8354	6.4882	12.4013	-4.0822	-9.6917	-9.0999	-3.0934	2.9582	7.8410	-5.4434	10.0706
3384.1628	-5.8410	-0.2454	8.1633	-2.4894	-4.8693	4.2029	-24.7085	-10.8856	-2.0803	-5.3722	-8.2122	-3.0964	0.1662	1.7013	-10.6688	-1.1311
3392.1632	-4.7901	-0.0979	10.9803	-1.9375	-0.6663	7.0861	10.6418	-5.6093	0.2961	-0.1971	-2.1564	-0.3015	2.1358	-10.8859	-10.4310	-8.9890
3400.1636	-15.2120	-12.8804	-5.1315	-16.4495	-18.4561	-24.3071	-6.3313	-5.1959	-2.9159	-10.2320	-7.4024	0.8269	2.2247	-10.3776	-4.3958	-7.0551
3408.1640	-21.0906	-14.5156	-11.3217	-22.6376	-23.5280	-18.1847	-50.4091	-28.8602	-13.7937	-34.5226	-22.5310	-13.4680	4.7365	-16.4991	-21.3573	-20.8939
3416.1643	-18.2295	-8.8735	-5.4023	-12.5316	-7.9024	-4.0555	-7.0627	-25.4375	-13.4355	-33.1545	-23.2301	-16.0531	6.8223	-18.7265	-24.4891	-20.6789
3424.1647	-10.3992	-4.4995	0.9037	-1.6437	-3.9790	-6.7873	-1.1402	4.8515	-2.0639	-8.6001	-7.4739	-0.6308	1.8176	-7.0852	-6.4157	-0.3136
3432.1651	-8.3231	-2.3844	-0.5980	-5.6251	-9.3117	5.4202	-11.3236	14.2233	2.2884	0.8066	-1.8237	5.1906	0.2406	-3.2521	-4.2068	3.2538
3440.1655	-22.2865	-11.8916	-11.7001	-19.1281	-17.6959	-5.5166	-0.2651	-9.9183	-5.3080	-10.5894	-17.1863	-11.2510	1.9415	-11.6536	-8.8294	-10.8316
3448.1659	-16.4257	-7.1619	-0.9853	-2.6603	-7.2455	-11.4952	-5.2119	-1.2517	-5.4316	-6.9540	-14.9441	-15.3229	-0.8401	-7.6483	-0.8205	-6.5199
3456.1663	-7.6122	-1.7910	1.3151	3.6237	3.2344	-6.6267	5.8597	19.8553	0.3183	-0.9388	-4.4288	-1.4039	-2.4976	2.5378	9.2939	8.7513
3464.1667	-17.1052	-15.9049	-28.6545	-23.7151	-16.8226	-26.6298	-30.2324	-14.9929	-8.6827	-22.8507	-15.5221	-7.5154	1.5753	-6.8163	-2.7993	-4.0459
3472.1670	-18.8143	-15.6453	-35.6739	-23.4583	-21.4631	-15.4746	-47.4998	-33.3805	-15.3141	-31.4166	-22.6064	-21.1836	6.2355	-20.5082	-24.8964	-23.8670
3480.1674	-16.3151	-7.3409	-23.3483	-9.9785	-10.6383	8.1023	15.7439	1.0938	-8.5774	-11.1581	-17.2140	-21.0925	5.5235	-15.7125	-17.3951	-16.9153
3488.1678	-4.6346	-4.5034	-17.4760	-7.6665	-12.8132	0.7572	15.1452	19.2949	-4.1256	0.4306	-5.6072	-12.6632	2.3414	-0.4555	-0.6159	-4.9819
3496.1682	7.0790	-1.7194	-15.8536	-6.0452	-10.4999	-4.9652	-11.5279	3.5123	-0.5981	1.1107	8.1561	2.6601	1.9665	4.7358	-2.9067	-7.4504
3504.1686	0.4377	-6.6927	-24.4329	-13.6578	-8.7805	-10.2305	-1.1271	-9.9359	-4.2952	-8.8818	2.7601	-1.3594	4.9866	-6.1040	-12.2686	-18.4609
3512.1690	-5.0873	-5.9925	-22.9654	-11.7854	-3.8957	-5.2088	-2.4799	-1.5216	-11.2551	-17.1307	-10.9945	-19.3002	5.4909	-5.3105	-18.1096	-20.1853
3520.1693	-5.9981	-2.1632	-19.4403	-7.9262	3.1145	4.6554	6.6299	2.4661	-1.2661	4.5301	-5.4933	-10.9065	-1.2831	9.7004	-2.9209	-3.2806
3528.1697	-6.5257	-5.0761	-25.3498	-9.7098	3.2133	-3.9870	3.6376	-3.4800	3.2228	12.3526	0.4582	-4.5034	-4.3676	2.6194	9.8926	1.3330
3536.1701	-4.9675	-1.1625	-18.0858	3.2890	14.0016	-1.2170	-8.1961	-5.6570	-4.2774	-4.7714	-5.6853	-14.3628	-1.5907	-7.7952	-1.4112	-9.1804
3544.1705	-9.3881	-4.6478	-26.6463	-5.5302	8.2495	-3.2361	-9.0474	-12.3145	-0.0406	3.3196	-2.3054	-8.4334	-3.2192	-3.3258	-0.2381	-10.1595
3552.1709	-24.4841	-20.0598	-47.9631	-31.1683	-13.3128	-26.0722	-30.5890	-7.2401	-6.2531	-6.7278	-10.5401	-17.8366	-0.5998	-21.3390	-6.6053	-24.7460
3560.1713	-30.1999	-19.1350	-36.4223	-23.1045	-6.6153	-24.1039	-24.3835	4.6309	-21.1849	-39.1568	-29.8629	-38.1687	6.0817	-35.2503	-23.8827	-36.9075
3568.1717	-9.9812	-5.1572	-20.3421	-4.4253	5.2830	-4.4150	7.7724	3.5577	-7.6862	-14.9296	-11.4655	-15.0736	1.2250	-7.4611	-1.8869	-8.7608
3576.1720	6.4630	1.9462	-19.4854	3.0950	6.3942	2.1406	14.0672	2.2941	7.7005	18.7327	11.4264	7.3010	-4.3864	13.3528	16.4128	11.2260
3584.1724	10.6216	3.9500	-19.0716	7.0216	4.7999	6.4264	13.7784	4.9752	2.8241	11.3359	9.0243	0.7188	-0.1540	9.7941	4.6481	3.6929
3592.1728	12.7138	3.7149	-26.3146	3.0681	-5.0312	13.0495	7.3456	8.3528	4.9985	14.8669	13.5981	6.6080	1.2928	8.6416	1.9227	4.0641
3600.1732	6.8378	-0.5514	-32.4581	-1.5857	-11.2535	7.0690	-2.5421	-2.7758	7.4857	21.4262	13.0229	7.5543	-0.1239	5.0802	2.1121	3.9338
3608.1736	9.0910	-2.8824	-27.5299	-0.3159	-11.5853	-7.3698	-12.7246	-13.4144	-0.4533	8.5788	5.5795	-4.8457	0.9222	-5.4433	5.5084	0.2101
3616.1740	11.2528	-3.1905	-22.8321	0.9412	-5.4684	-15.4264	-22.0470	-4.8936	-0.3788	7.9107	8.2341	-4.2549	-0.7628	-14.4430	13.3784	3.1725
3624.1744	1.4423	-5.4692	-26.2795	-3.9036	2.6154	-13.0246	-6.2930	-15.3929	2.9937	14.1563	5.4006	-3.8585	-2.2276	-14.5018	8.6693	0.5908
3632.1747	-3.1462	-3.6714	-33.9835	-8.6491	3.0458	6.1958	-3.6091	-26.5530	1.6684	11.7540	-0.4208	-8.9982	-2.1152	-7.4366	0.8258	-5.5611
3640.1751	-5.1823	-1.5148	-40.9853	-8.4063	5.2296	15.5606	-17.5865	-9.8663	4.2917	20.2767	0.5443	-9.6378	-3.4582	3.3292	-6.5414	-3.1840
3648.1755	-6.3700	-8.6225	-53.7107	-14.3522	-4.9831	-8.1928	-6.0651	4.1924	2.6162	23.3546	-0.6583	-12.3185	0.4771	12.5576	-15.2913	-1.1729
3656.1759	-7.0532	-13.7999	-60.2614	-15.9828	-21.2786	-19.1005	-1.6922	8.1412	-7.7049	-0.2022	-8.3137	-19.4709	7.8396	0.6034	-22.3628	-10.7417
3664.1763	-3.1178	-7.4815	-47.6491	-3.5030	-12.2404	-4.1144	5.8262	5.1105	-6.6047	-1.5442	-6.0452	-17.3172	7.7926	-11.6899	-19.6572	-10.9930
3672.1767	10.0958	-1.9040	-40.9032	-1.0370	0.5300	0.2615	25.0801	7.1559	2.8396	19.7365	8.4896	-5.3684	3.4050	-5.5468	-1.5000	4.7685
3680.1770	12.3564	-5.3599	-48.7882	-13.2710	0.8160	-7.9264	7.7870	2.2509	-0.0855	12.0769	8.9398	-6.6359	2.2765	-11.0306	6.0710	3.4272
3688.1774	8.1819	-11.0353	-56.4811	-24.9384	-3.5409	-18.1568	0.9737	-13.0551	-5.1755	3.3179	4.1081	-14.0503	3.9016	-15.7544	-0.7994	-10.1924
3696.1778	11.0849	-13.4630	-62.1204	-30.8727	-14.5159	-20.6566	13.2859	-7.1382	-6.7577	3.5992	6.2868	-14.7731	8.4759	-18.2503	-9.1009	-16.8647
3704.1782	10.2700	-14.9315	-66.9398	-31.5552	-24.7739	-16.5901	-9.3518	-21.5936	-9.6312	-2.0411	3.2857	-17.4797	12.5949	-32.9169	-24.5918	-25.1769
3712.1786	8.4057	-15.9359	-70.5626	-29.1043	-27.2776	-20.8944	-18.6183	-39.1046	-5.4530	10.4456	5.5914	-15.4289	11.4508	-27.3615	-31.3080	-26.3181
3720.1790	11.7809	-13.2018	-62.7806	-18.7999	-20.4278	-25.4306	-5.1826	-14.7358	-6.4969	12.7544	5.2840	-20.0887	11.9870	-23.4062	-30.1554	-20.7990
3728.1794	11.0166	-11.2929	-47.8817	-11.0569	-17.5071	-24.9413	-5.3461	-17.6198	-11.5145	5.3610	-4.4244	-31.0555	12.3498	-29.5242	-29.4500	-18.6515
3736.1797	5.8945	-12.2303	-41.4608	-15.1237	-14.5087	-29.0549	-4.9384	-28.5875	-7.0391	13.1885	-3.3704	-26.7080	6.4199	-16.8571	-17.4434	-15.4902
3744.1801	3.8946	-10.1647	-30.7508	-15.4326	6.1612	-32.3973	-14.0421	-15.8726	-8.7316	-2.2854	-1.6517	-21.8358	2.8638	-17.2138	-9.6695	-19.4381
3752.1805	-0.9509	-9.4434	-18.1394	-16.4973	7.7720	-26.8043	-17.4344	-21.4030	-11.4723	-20.1653	-4.7438	-16.5423	3.5854	-23.5077	-11.3535	-27.0355
3760.1809	-2.8046	-9.2396	-8.8491	-14.4998	-12.8546	-17.1172	2.1780	-16.3711	-10.2282	-18.6015	-5.5308	-11.1087	8.1030	-23.3307	-18.5715	-27.3341
3768.1813	-0.7862	-6.4196	7.0250	-0.9841	-22.5015	-14.4969	0.8493	-12.1363	-8.9777	-15.7688	-6.6732	-7.2376	11.8613	-26.9576	-29.0104	-20.1609
3776.1817	-7.9262	-7.5979	13.3886	-0.1523	-33.9072	-15.1737	-19.6345	-24.0396	-0.9287	-4.8490	-3.7302	7.7190	8.8339	-15.7846	-30.3798	-12.3035
3784.1820	-4.2643	-2.3201	21.0641	2.7226	-30.3038	-0.0165	-15.4520	-12.1536	-2.6021	-10.1076	-3.3815	7.1699	10.0945	-12.9497	-34.3647	-15.5453
3792.1824	4.4732	5.6836	32.0241	8.9532	-17.1504	15.8478	-1.7076	-11.4198	-2.2325	-10.3557	-0.3818	7.6753	8.6492	-6.2869	-28.2702	-13.1032
3800.1828	-4.5689	-1.4849	20.6461	-10.0410	-22.5855	4.1627	-18.4208	-24.8708	3.3602	-0.3371	2.2242	14.9095	2.6077	6.5698	-18.9444	-11.5469
3808.1832	-7.8637	-3.4420	26.1596	-10.5893	-9.7603	-5.6321	-19.3466	-4.9114	-9.0850	-21.0902	-11.0857	-7.2309	6.6947	-11.2797	-31.0452	-23.7288
3816.1836	1.3070	6.4698	48.9455	11.3229	-0.4047	6.8306	9.8670	7.3270	-4.7306	-14.8769	-5.2406	0.1615	4.7701	-5.5757	-15.6652	-9.7900
3824.1840	12.3300	10.6006	50.2122	15.9151	-14.9996	14.7337	-5.4254	-11.8464	8.2026	2.9508	14.2811	28.6314	-0.3511	6.2804	6.6189	6.1699
3832.1844	21.8500	16.4042	60.6411	26.7900	-5.1174	20.5939	-8.3368	-6.5764	3.2044	-6.1458	14.2181	22.2265	2.6967	-4.9916	0.4557	1.4797
3840.1847	26.1731	20.2153	69.6777	31.7899	4.0880	21.0730	26.8295	7.8048	10.8119	12.6555	21.7879	29.2031	-1.2720	13.1272	14.7862	15.0913
3848.1851	21.6096	11.0362	53.1158	14.8625	-1.1035	0.1245	8.3520	-9.4877	9.3691	6.7095	20.8464	31.2224	-1.9450	9.4632	17.4543	12.8543
3856.1855	6.7153	4.4273	46.8607	11.8481	3.0915	-11.9048	-6.1161	-12.1043	-4.8285	-27.3564	0.2100	12.7856	2.2752	-5.3866	1.7725	-2.5104
3864.1859	4.0217	6.6393	48.4170	14.7190	-1.7033	-3.2308	1.4991	0.3906	-1.6706	-20.0341	-2.0408	14.7229	-0.6651	13.1337	10.7625	11.0010
3872.1863	5.7034	5.8435	40.4777	5.4086	-2.9157	4.0948	-15.6313	-8.3996	-0.2257	-13.4427	-1.8895	13.0334	-1.1901	4.3716	9.1467	14.4343
3880.1867	-2.8123	2.3847	35.6826	-3.8650	9.0587	4.0417	3.5900	-11.7465	-0.6837	-14.5668	-5.6595	8.0952	-1.4838	-6.2649	5.9234	6.0170
3888.1871	-4.3614	0.5667	35.8577	-7.9020	14.8430	-3.0838	17.3740	-6.5509	-2.7329	-15.4248	-6.5193	1.7103	-2.3102	-6.6604	9.4326	-0.8825
3896.1874	-11.0915	-3.0946	33.0151	-10.8086	6.3545	-7.2803	-8.3221	-10.1131	-7.7585	-21.7309	-14.5164	-9.1137	-0.9455	-15.1315	-1.1131	-10.7482
3904.1878	-11.9135	-1.0291	35.8664	-7.3265	-7.5777	3.9757	-2.5308	-18.1995	-0.7209	-10.2916	-9.9542	3.3853	-2.6138	-1.4275	4.2543	-2.5460
3912.1882	-2.4996	5.1926	46.3877	4.4658	-4.4411	13.6859	11.3783	-15.3676	1.0879	-10.0805	-3.1027	10.6226	-1.1189	-4.2752	7.2832	0.2022
3920.1886	-11.8553	-1.7816	34.3953	-1.9555	-6.9970	-0.7678	2.1345	-1.7625	-3.5042	-16.6980	-9.9106	1.9082	2.0279	-12.0264	-7.4014	-8.1495
3928.1890	-16.8639	-6.3357	18.2852	-11.4037	-13.1229	-9.8237	-17.5763	-2.2524	-4.2945	-14.7936	-14.0253	-1.9170	0.1402	4.2014	-8.8460	-5.0800
3936.1894	-10.9698	3.9379	29.9698	3.7809	7.6303	10.5272	-18.4818	10.4599	-5.1308	-20.8764	-12.9405	-3.1246	-1.8046	4.0269	-5.1895	-2.9397
3944.1897	-5.6266	9.1387	34.4599	9.0279	16.3247	22.9793	12.6175	23.8739	2.4458	-4.8702	-4.1135	5.7316	-3.4494	9.6394	2.8502	7.4615
3952.1901	1.6698	9.2088	30.6920	6.5134	14.0784	18.2427	12.9061	-10.8357	9.6599	18.4195	2.4276	9.3104	-8.0980	21.5101	14.8479	17.8329
3960.1905	-5.8541	5.7682	27.6663	7.2209	16.2150	9.5688	-4.2345	-17.6630	4.4854	10.2689	-4.9701	-2.0874	-7.4669	11.2836	5.3803	5.0114
3968.1909	-15.2178	-3.2356	10.2209	-2.7868	3.2121	-5.0977	7.2017	21.9050	-3.3445	-4.5086	-13.4569	-10.7633	-0.1949	4.4587	-8.8589	-1.3692
3976.1913	-13.6127	-4.8165	1.2863	-0.9701	0.6949	-11.7181	2.2267	22.8576	-5.4618	-10.6556	-15.3857	-10.6402	1.0529	4.4743	-6.5334	5.4620
3984.1917	-12.6755	-3.3965	0.4339	0.8127	3.8513	-7.3137	-4.2692	3.0880	-7.2510	-20.5771	-15.0876	-7.9164	2.0739	1.9664	-11.5894	-3.0144
3992.1921	-12.2895	-2.8344	2.1064	-6.0379	3.2999	0.8429	17.8846	7.7807	-8.1880	-23.3621	-15.4323	-7.7641	3.8985	4.5938	-13.6375	-7.0971
4000.1924	-11.3598	-2.6140	8.7096	-4.7346	5.4880	-3.9669	22.1121	13.9214	-3.7436	-13.8699	-12.0247	-2.8873	0.1722	7.5085	0.7283	4.8512
4008.1928	-8.7940	-3.6427	8.2945	-5.4797	-0.3311	-7.0019	11.3858	8.1734	-6.7974	-19.2025	-12.3325	-5.4724	2.5847	-0.6895	-4.4227	-1.4513
4016.1932	-2.8247	6.5048	21.1999	7.5486	13.3069	16.2087	12.8018	17.4839	-3.2558	-12.3986	-6.7057	-3.6375	-0.7449	2.3926	0.9953	-0.1441
4024.1936	3.3914	8.5502	26.7262	14.3281	17.2208	5.4517	3.9842	20.0685	7.2566	8.4322	7.2963	11.8485	-7.8344	15.9875	21.7322	16.6712
4032.1940	-1.9630	-3.8727	9.7991	-0.8890	-7.5588	-18.4588	-13.8542	-13.4270	-4.6497	-10.2924	-7.0667	-3.5343	0.3350	0.9770	1.5874	1.2239
4040.1944	-7.0258	0.3456	13.4426	5.0925	-3.0471	2.4899	-20.0546	-16.0115	-7.2182	-14.3767	-16.4178	-12.9167	0.6324	-3.2945	-7.3459	-1.0854
4048.1947	-2.6328	4.9372	21.8664	8.9947	8.4745	4.7773	-1.5695	16.7019	2.5316	1.2228	-3.9776	3.8969	-3.5386	13.8256	5.7334	16.4899
4056.1951	-6.3038	2.4946	23.3991	4.1460	12.0660	1.6606	34.5948	25.9856	-1.7214	-10.2508	-7.9901	0.3258	-0.4819	8.9506	5.1931	8.8749
4064.1955	-3.7785	4.7834	22.8311	5.8073	15.1587	7.6939	17.5112	16.2315	0.5124	-5.0474	-3.4319	0.6721	-4.8613	5.2475	16.4063	7.1658
4072.1959	-3.3718	-2.7979	11.5098	-7.5907	2.1845	-11.5845	-25.7059	-9.3348	-3.3890	-9.4927	-3.5788	-3.3778	-3.1357	-5.6023	6.2566	-5.6601
4080.1963	-4.6048	2.5953	23.4218	4.5689	14.6892	1.0139	2.0284	-4.9112	-1.8368	-10.9692	-2.4301	-0.5953	-2.6525	-8.0477	4.0187	-9.7405
4088.1967	11.0054	15.8542	32.6683	24.0109	25.6627	20.1497	6.6643	17.0343	14.8189	18.9751	18.7011	25.3381	-11.0411	21.1620	30.5556	23.8027
4096.1971	-0.2190	4.2996	11.3643	0.5615	2.2706	9.2153	-43.9261	-23.7855	3.1359	1.0484	-3.3652	5.8787	-6.8620	16.3108	8.9423	15.3039
4104.1974	-12.0473	-2.6221	6.0656	-10.7007	2.1080	2.8834	-23.8119	-26.0074	-7.5181	-17.8686	-19.6381	-13.1642	-2.1634	3.2488	-3.5607	-1.5722
4112.1978	-2.3196	-1.4983	6.1590	-4.0911	11.0387	-12.8241	19.7246	32.7684	-2.5253	-7.6579	-3.9942	-2.1257	-2.3061	10.8639	14.5174	11.3066
4120.1982	-10.1987	-2.6519	1.9857	-3.5029	6.4098	-3.5441	14.7891	24.9087	-5.2207	-16.8727	-10.5542	-5.7854	-1.2518	0.3460	10.5662	4.3146
4128.1986	-2.2041	5.1989	9.7466	4.4819	6.1842	17.4846	-2.6319	9.5099	2.9819	-6.7788	3.0710	10.5713	-5.1415	2.0128	19.0882	5.5459
4136.1990	7.1925	7.2314	11.9348	10.2748	4.1465	7.6515	-14.5561	15.8097	7.8238	5.2369	14.1151	19.9058	-6.3230	14.5593	21.3761	12.5329
4144.1994	3.9921	10.1640	11.9439	15.8293	8.1952	20.8898	-5.9611	-13.8330	10.6027	14.0661	9.8345	16.5886	-8.6309	21.3732	19.9584	13.6417
4152.1998	9.1669	10.0322	3.0164	8.7355	7.9653	22.7771	-9.0922	-15.6399	13.9810	21.8898	17.6921	21.8062	-10.0238	22.2242	25.5392	14.7020
4160.2001	-3.9361	-0.6072	-11.3233	-3.0795	0.8703	1.5112	-18.3176	12.6364	-2.2783	-8.3375	-2.1075	-1.6862	-2.5359	8.7690	5.5224	-0.4515
4168.2005	-2.0148	4.6419	-7.7962	8.3570	7.0496	14.2213	3.7707	15.9599	-2.3493	-11.0606	-4.7376	-1.3762	-2.0846	15.4894	8.7146	7.3698
4176.2009	1.9831	2.7348	-15.0924	1.9501	4.1296	9.2334	-5.7718	0.3098	3.2628	-0.0476	3.9547	8.7017	-3.2660	14.8839	10.8702	10.7297
4184.2013	-12.9772	-6.8392	-24.8988	-9.7422	-4.7668	-2.3518	-24.4152	-8.9678	-7.0117	-15.6029	-12.9955	-11.1587	2.3763	-4.7928	-15.4941	-10.0059
4192.2017	5.4875	7.3895	-9.3314	10.8331	2.9732	22.4471	-11.4481	8.5247	3.4417	5.1138	5.7663	5.6924	0.1683	8.1507	-6.0567	3.9564
4200.2021	14.2070	12.1000	-3.5048	16.2048	4.8611	26.2013	-24.4836	9.4842	11.3193	21.5369	19.1988	17.5730	-3.6270	15.2423	1.9486	10.2022
4208.2024	7.9305	6.4223	-7.1974	11.0107	3.0647	13.7912	-10.7432	0.6731	4.6498	10.2251	9.3580	6.1014	-1.1153	7.8656	-1.4179	1.9362
4216.2028	18.3337	8.1282	-7.7247	11.5081	9.9612	10.4073	34.5893	13.2373	6.6184	11.5472	17.4225	14.0925	-0.4900	12.3512	15.8284	12.6277
4224.2032	8.8542	-0.8320	-18.6794	-6.9928	6.0873	-3.4638	22.5235	-1.2085	-0.3989	-0.5814	6.5154	1.5922	0.1210	3.2394	11.9919	1.8454
4232.2036	7.2575	0.5640	-15.2452	-4.9464	7.8836	0.9149	14.9331	10.7060	-3.1065	-4.4229	3.1382	-4.6814	0.3027	1.2027	8.5020	-1.7432
4240.2040	18.2406	12.2971	-4.0906	14.1337	22.2911	21.3424	32.0274	46.5254	7.4000	15.0349	19.0441	9.8989	-3.7716	10.7456	23.1349	15.0726
4248.2044	9.8648	5.8789	-14.2459	1.3262	13.9482	14.3914	4.9545	17.1718	4.9929	14.5896	10.6993	1.2727	-4.9431	8.3904	16.6873	8.2572
4256.2048	7.7052	1.4181	-18.8363	-5.7208	0.4703	5.9580	-13.3876	3.9046	1.0957	7.1929	5.9327	-1.5435	-2.3265	8.1272	7.7192	3.0583
4264.2051	-2.0743	1.2392	5.9012	-7.2413	-1.9586	10.1932	-6.3591	10.2510	-0.5711	-7.4981	-3.4962	4.0485	-0.7684	6.4357	2.9850	7.2781
4272.2055	-15.0814	-6.0585	-10.6544	-17.6933	-9.1961	4.5633	-42.9284	-13.8104	-7.6224	-2.1262	-24.5265	-26.8363	-1.2430	1.7067	-14.6212	1.0370
4280.2059	-10.1261	-3.6000	-8.1285	-11.9459	-3.0886	7.1330	14.1283	-0.9629	-6.7432	-0.5465	-19.7606	-23.4713	2.7350	5.4237	-15.8540	-1.0181
4288.2063	-8.5777	-4.2321	-4.0085	-12.5652	0.8466	-2.5559	34.7607	12.9024	-6.7806	-16.4303	-11.7813	-7.1621	3.8846	10.4578	-8.0018	-4.2663
4296.2067	0.2733	0.3518	0.6102	-9.2047	-1.4891	8.1704	8.4306	11.3157	-4.0523	-13.0386	-3.0651	0.4502	3.6487	3.1208	-8.2251	-3.9820
4304.2071	1.6447	1.2602	-0.7275	-1.8931	-5.3524	7.2912	-0.2699	1.3501	1.8837	-1.8148	2.9492	9.6256	2.2363	5.8578	-6.9152	2.3810
4312.2074	-14.2167	-8.2262	-6.3146	-6.3776	-9.3099	-14.2685	-10.5381	-4.0430	-9.4554	-23.3540	-17.5627	-9.5591	5.3266	-4.7273	-18.5969	-6.3992
4320.2078	-6.4759	-4.0350	-0.1937	-7.8737	-6.6540	-1.6399	-18.8585	-1.0325	-7.5366	-14.0696	-13.9822	-11.5821	3.7532	-11.3940	-13.3443	-1.4820
4328.2082	-1.8440	-2.2347	-3.7223	-15.7314	-4.1370	4.1437	-24.4437	-3.5306	4.3923	16.7883	-0.0395	-2.0028	-3.9058	1.0822	2.0847	7.4728
4336.2086	-13.5935	-8.0252	-9.2524	-20.6941	-6.5974	-2.8362	-27.8496	-10.0867	-9.3999	-1.9393	-20.6473	-31.3670	0.2866	-10.4785	-15.8643	-13.6476
4344.2090	-7.1108	-1.5310	2.2413	-3.7845	-9.6346	10.1213	-11.6813	-7.6910	-13.4427	-20.2548	-18.6317	-25.2429	6.4047	-14.8666	-24.3226	-22.4962
4352.2094	4.1478	2.6349	3.9428	-0.2278	-14.3722	11.4966	8.9869	-0.9572	2.6718	0.5122	7.9711	12.4021	3.2540	9.3576	-7.8830	-7.5424
4360.2098	5.0697	4.2946	4.7044	-1.1547	-12.3211	17.6232	11.2405	7.9490	4.7365	12.6391	8.6414	6.9359	0.8972	12.0392	-3.9564	-4.7623
4368.2101	6.6421	6.1024	8.9103	9.7267	-12.9772	17.4512	-0.6579	5.6044	4.8724	13.2103	9.0260	6.0428	0.0060	4.0573	0.5633	-2.1450
4376.2105	4.4879	-2.6340	-2.7748	1.6589	-21.5884	-9.6018	-18.1456	-26.2892	5.5108	8.9465	11.1601	15.0600	0.8647	-0.2938	-0.4814	-2.8800
4384.2109	-4.1652	-3.7496	-1.0472	-2.8475	-6.6032	-5.2353	-6.6240	-23.2410	-2.8567	-8.4087	-2.9702	-1.1490	2.7387	-12.2881	-9.4948	-12.8415
4392.2113	-5.4388	-1.8184	0.4606	-3.0889	2.6207	-0.5005	9.1864	13.0226	0.1040	-2.8211	-1.0603	0.4260	-0.9952	-6.0330	6.0033	-0.2709
4400.2117	-9.1467	-11.5299	-20.8962	-23.1509	-19.2221	-17.1109	-34.9658	-8.9252	0.2116	1.8023	-1.7035	0.2936	-1.9716	-3.6434	3.6339	-1.6676
4408.2121	-17.3336	-9.6778	-17.7210	-19.1286	-14.2881	0.8279	-37.5383	-31.8768	-9.6971	-16.7479	-17.6082	-19.6086	2.2108	-20.4707	-18.3039	-24.6762
4416.2125	-10.2376	-0.4174	-3.6665	1.0254	3.8406	12.0017	5.8845	-13.4366	-0.4209	-1.1473	-5.7478	-6.7272	-1.5734	-10.1835	-1.0700	-10.5581
4424.2128	1.3373	2.4924	-6.6277	5.3759	-0.3541	5.0547	-22.3565	2.7292	8.1310	17.2404	10.4215	8.8119	-5.6285	7.1322	9.8418	5.3856
4432.2132	10.2841	7.6043	-0.9803	12.8731	1.3512	12.7178	-11.9099	19.1361	6.5613	14.5510	12.9538	9.0774	-2.8373	9.7282	7.8405	8.6452
4440.2136	10.2423	4.2777	-2.8434	9.1085	-1.7591	4.7652	29.0641	-5.4244	10.6552	19.0932	14.6110	18.4776	-3.5804	14.8490	23.0132	18.7122
4448.2140	2.7583	3.2004	-8.5959	6.2019	-3.0859	11.2551	-8.2703	-24.6533	5.9948	6.5430	5.1877	11.3647	-4.2383	9.9560	14.3444	10.9817
4456.2144	9.9093	13.4477	-0.1819	19.2938	13.1896	33.2607	-11.0107	16.1274	10.2202	14.1294	12.4114	15.7000	-6.1885	12.3289	16.9652	21.7981
4464.2148	7.0310	5.0379	-7.6630	7.6621	9.7018	7.4591	-0.2966	15.6770	15.4354	24.8078	18.3638	24.3653	-8.6731	11.8457	30.5674	29.9643
4472.2151	-5.1380	-3.0831	-11.4690	-0.2881	5.7719	-8.4066	-22.1580	1.8491	1.7655	3.0911	0.7465	-1.0206	-4.7587	-7.2738	11.4497	3.6271
4480.2155	7.6237	11.5892	5.0353	18.8816	21.9631	22.1009	9.7359	24.8462	16.5561	39.2490	19.3806	11.0871	-11.1770	8.8094	27.2413	17.9584
4488.2159	19.7975	13.4619	1.7404	16.8260	18.3402	20.9590	29.9841	20.2499	28.9042	61.3913	39.5111	34.7448	-14.6060	22.1651	47.5279	33.1038
4496.2163	16.2003	5.2943	-7.4793	8.9649	5.8194	4.6141	11.3692	10.8350	6.3268	11.7627	17.5331	12.0063	-2.4321	-3.1629	22.6629	11.2128
4504.2167	19.0734	13.5367	1.8513	21.8428	11.9652	27.2938	23.4385	16.8263	12.4885	22.9633	20.7412	18.3564	-5.0465	4.5322	29.0003	23.6728
4512.2171	27.2811	18.4940	3.9716	24.7592	16.5973	33.8347	34.8159	24.2483	25.1829	50.3190	36.7680	34.9512	-10.5345	22.9057	43.6674	39.4769
4520.2175	22.6623	8.8491	-6.2946	13.3786	8.5521	7.2189	6.0740	15.0662	12.7559	28.3769	24.2419	18.8269	-4.6901	8.7053	25.2371	25.1920
4528.2178	18.3188	6.9407	-8.1986	10.4000	6.9428	7.0277	-15.0438	-11.1144	11.1405	22.3601	21.5556	17.9839	-3.8667	1.2219	13.7561	13.3361
4536.2182	23.1685	9.8988	-5.3824	9.8902	12.0988	13.6370	10.1007	6.4161	11.4309	22.0434	26.9761	20.6620	-2.3369	4.9027	13.8919	9.2639
4544.2186	8.8464	-1.7514	-15.3500	-6.6718	2.7880	-9.2316	7.8305	13.4726	4.2047	13.2101	13.0241	4.8685	-1.3814	-0.7135	11.3362	2.9921
4552.2190	-2.9768	-7.9626	-22.9915	-17.0453	-6.1125	-12.8049	-24.2370	-16.6279	-2.8196	4.3252	-0.8096	-12.2211	-1.2027	-9.6329	-1.5400	-14.4428
4560.2194	9.0377	1.7334	-16.6229	-4.6882	-4.4404	9.3887	-15.1138	-4.4895	-1.7545	9.7578	4.5537	-11.9632	-0.3731	-1.2417	-0.7749	-10.9193
4568.2198	11.0969	2.1448	-16.7845	-0.5440	-10.8058	9.2145	-2.7374	0.2816	5.1539	23.4365	10.3851	-1.2449	-1.7589	4.7210	9.2765	4.6831
4576.2202	5.2725	-1.2802	-18.4698	-3.2314	-10.4821	6.3625	5.0572	-6.6410	-0.4895	9.3402	2.6615	-7.3326	2.8857	-10.1835	-3.6253	-5.9081
4584.2205	1.3095	-0.9919	-22.0211	-3.6004	-5.6258	9.2728	2.9592	8.5484	3.6796	16.5391	5.8620	-2.9871	0.3254	-6.2313	-1.4289	-2.4475
4592.2209	-9.1813	-10.4483	-40.7757	-18.6412	-9.6094	-9.5145	-16.4193	-1.0285	9.3920	27.7243	9.3083	3.7011	-3.3506	-6.0181	0.2169	-2.4296
4600.2213	-16.8187	-14.9709	-47.9973	-24.9357	-1.0188	-14.0416	-4.1912	0.1806	-4.7560	-1.1303	-7.4246	-17.3794	3.2645	-25.1158	-17.3125	-21.2210
4608.2217	-12.5910	-11.7776	-48.7460	-20.6734	-0.0280	-8.9186	-13.2179	0.4875	-2.7024	6.3548	-6.8081	-18.3031	-0.4884	-15.4642	-5.3401	-8.9360
4616.2221	-7.9416	-17.0289	-60.4113	-28.0846	-11.4173	-26.5224	-27.7824	-22.7288	-1.1403	12.8284	-0.7367	-14.1703	-0.0999	-15.0637	-4.8365	-11.0382
4624.2225	-6.4797	-10.6091	-50.6515	-15.2482	4.5081	-11.1618	-2.3626	-3.8970	-8.8653	-7.6387	-5.0433	-22.6250	4.9281	-27.2347	-16.1783	-26.2822
4632.2228	4.6051	3.1312	-37.5541	2.2243	15.9774	15.4179	-17.8777	7.7768	5.1877	17.1821	12.3189	-2.5751	-3.3820	-5.4703	-0.1758	-6.5999
4640.2232	-2.9211	-9.4222	-55.8333	-18.2633	-2.9966	-10.8022	-23.7068	-19.7118	5.8142	23.8193	8.9639	-2.6245	-1.9807	0.2896	-7.5575	-8.5311
4648.2236	-18.0244	-17.9172	-66.7841	-25.4119	-7.8104	-17.8422	13.1666	-19.8212	-6.6895	8.0461	-13.9448	-31.5232	3.3770	-14.1557	-17.0584	-21.8746
4656.2240	0.6201	-1.6405	-56.0538	-1.1658	7.5439	13.3558	16.5590	2.5842	3.1683	33.0150	1.3793	-23.6516	-1.5316	-4.2717	-1.9054	-2.1475
4664.2244	2.7120	-1.0381	-54.1388	0.0042	7.8189	8.9403	10.2131	17.0800	9.0635	36.0217	10.7949	-5.2048	-1.1269	3.1307	-4.7289	6.5468
4672.2248	-6.5031	-7.8985	-54.9292	-7.6004	-4.3706	-2.9689	2.6847	23.3095	2.6199	16.2366	3.2003	-7.0134	2.4256	-7.1203	-10.2158	-2.0960
4680.2252	8.8804	0.3258	-48.5962	2.3101	-4.5329	12.4337	-1.7616	22.7501	6.9600	29.6568	15.0184	-2.5498	1.0654	-6.9703	-2.2201	1.6739
4688.2255	4.4296	-2.1594	-53.8361	-1.1237	-4.5352	7.2984	-2.2820	2.8414	11.3020	40.6269	15.8960	-0.2487	-2.0613	1.0570	-0.3926	2.5598
4696.2259	-5.4829	-10.6229	-63.4658	-12.2440	-10.3742	-10.1458	-34.2869	-19.4941	2.5525	26.8348	2.7163	-16.3261	-0.5288	-8.7952	-13.6703	-12.2664
4704.2263	0.2454	-7.3783	-58.2758	-7.9509	-3.7154	-6.0747	-36.2745	-12.8704	0.4965	25.5998	3.1421	-20.5082	2.0447	-15.4280	-23.0418	-14.7583
4712.2267	-0.3233	-7.2704	-51.8001	-8.6553	-0.7216	-7.7156	-0.1240	-3.5501	4.5440	32.0184	5.7854	-13.3966	1.5327	-6.6466	-15.8479	-6.5729
4720.2271	0.1050	-7.3904	-46.4578	-14.7140	-1.0954	-5.8433	9.1635	6.6074	1.8688	28.0033	3.8032	-17.6497	2.1968	-7.1573	-14.4484	-9.8873
4728.2275	5.4913	-0.5002	-29.4677	-8.3641	13.4647	4.4210	16.8786	14.4025	7.9221	37.7039	11.6533	-8.9359	-1.4896	-1.7156	-6.9283	-2.9330
4736.2278	8.2200	-1.6342	-13.2360	-4.0610	14.8539	-13.9647	26.5578	-10.3586	9.6499	36.2646	15.2185	-0.3228	-2.9700	1.3086	2.2595	-1.6005
4744.2282	-2.4135	-9.2029	-8.5455	-9.5370	-7.9401	-25.3819	10.8165	-20.6729	-0.3529	11.3936	2.4500	-7.6763	3.0310	-13.6827	-11.7967	-18.5896
4752.2286	-8.7100	-10.1807	-2.6302	-9.3036	-27.2765	-17.3487	0.5222	1.1802	-1.2511	1.0128	-1.1699	-0.2995	5.9550	-17.1087	-14.9153	-14.0431
4760.2290	2.3210	-3.3584	16.7800	3.9194	-21.4420	-14.9954	2.8202	9.6497	-4.5694	-13.3908	0.4756	4.7944	7.6485	-15.0456	-9.5279	-7.0723
4768.2294	5.4441	8.1275	36.1920	20.0467	-1.9142	7.6627	-9.6783	2.1278	-1.4234	-13.4963	2.4230	9.8257	3.2874	-4.0854	-9.6370	-4.9756
4776.2298	4.9957	11.1340	38.6153	21.5550	-3.1802	16.3873	-12.0381	-3.3282	11.6291	11.0043	13.4573	27.5535	-3.1945	15.0008	1.2964	8.6821
4784.2302	0.7030	1.4785	34.4838	8.6373	-14.7941	-7.9764	0.8267	-7.3443	3.1818	-4.4505	4.6549	18.5579	1.9004	5.8926	-3.1578	0.4854
4792.2305	-6.2958	-0.3147	41.4150	6.1941	-9.2019	-8.1905	-1.9444	-12.3631	-11.0813	-35.1813	-14.0968	-1.5031	6.9628	-9.7134	-18.5449	-15.4483
4800.2309	8.4554	14.7836	66.2714	28.9256	12.3062	14.4795	14.8146	5.3163	-5.4387	-28.8626	-3.7617	9.3103	3.5905	1.6452	-5.3455	-0.5241
4808.2313	27.1385	30.4892	83.7028	46.9965	34.0574	35.5227	33.6838	21.6165	14.9486	6.5219	23.9685	41.7561	-6.5148	34.8265	23.3736	30.2171
4816.2317	21.7884	23.9695	66.6581	28.9931	25.3688	29.0925	18.5059	9.4640	18.3809	16.4163	25.1207	44.2037	-8.5805	40.8558	22.3919	30.3852
4824.2321	1.2547	5.0259	49.6833	8.2020	0.0275	0.2801	18.5982	9.5570	-6.0997	-29.2334	-6.2782	9.2791	4.5220	0.6196	-3.6975	-0.1637
4832.2325	0.3438	7.8699	55.9699	17.8950	-0.2824	7.3965	0.2530	-11.8559	-6.2443	-33.4033	-9.2775	10.2017	3.4437	-3.6606	-3.9361	0.6678
4840.2329	11.8026	14.8674	54.7298	21.3775	7.0094	18.3124	-28.3504	-43.3676	7.4390	-1.1829	7.6710	24.8876	-4.2567	15.2218	2.2723	10.5117
4848.2332	1.6656	1.8475	40.1947	1.9420	-0.6886	-6.0126	9.5232	-7.6667	-9.0113	-29.1372	-9.0803	0.9486	5.9736	-5.4851	-11.7464	-7.7404
4856.2336	-3.8142	0.8498	40.8558	3.7349	-1.4290	-5.1086	32.3981	23.6644	-17.0201	-45.8251	-21.6856	-10.8867	8.8041	-5.8650	-8.9984	-3.6204
4864.2340	5.8807	15.3879	59.1472	22.7088	14.4901	21.9913	15.3333	17.4439	-1.9914	-11.3128	-7.9803	1.4134	-1.9872	18.5968	6.0628	15.6302
4872.2344	8.5714	12.9893	57.6737	13.0257	15.2257	14.3299	18.1297	14.1640	5.4736	0.8330	4.8315	16.1222	-4.0538	17.9013	12.1255	16.3050
4880.2348	1.7664	0.1275	39.1040	-4.4581	-7.9446	-11.2516	-4.8163	-8.7989	-4.1657	-25.5925	-2.7574	14.3646	2.2957	4.9146	1.0490	1.0312
4888.2352	-9.7228	-2.1735	37.6135	-3.0899	-18.4168	-5.8711	-36.9368	-27.8873	-16.0014	-46.0299	-21.9561	-7.7138	5.5967	-4.3765	-19.5027	-19.2181
4896.2355	-6.4875	3.3254	41.4954	0.2111	-3.6274	9.8272	-7.9927	-14.2711	-10.8700	-29.4481	-17.5033	-9.4847	2.8701	-1.8050	-13.1174	-14.2622
4904.2359	5.3339	10.6546	49.6885	13.2178	14.0422	13.6480	32.5056	6.3512	-2.7633	-11.9962	-5.1477	0.8834	0.0415	9.0099	3.9272	4.0702
4912.2363	5.7821	11.2558	53.0549	16.9655	3.6346	12.4284	10.3468	-2.6948	2.8992	-4.7923	1.1419	13.8782	-2.0705	17.6818	6.0983	9.5847
4920.2367	-6.1256	-4.0036	26.6874	-12.4316	-21.1943	-8.3511	-23.2016	-28.7967	0.6935	-10.3156	-2.4742	14.7812	0.4131	6.5611	-5.4408	-3.6394
4928.2371	-17.6744	-11.3697	17.4070	-19.5006	-13.2158	-19.6634	-5.9178	-20.6728	-18.8166	-45.0046	-27.7361	-18.9147	8.1115	-17.7504	-23.1170	-24.1811
4936.2375	-6.5623	2.6392	35.9171	7.7916	2.6301	3.0451	13.7323	-1.2725	-12.6831	-33.5515	-19.6004	-12.4451	3.8996	-5.7649	-6.5689	-8.0611
4944.2379	5.2653	10.6404	38.3540	19.7024	2.2606	16.0111	23.7811	16.8490	8.0105	4.4014	8.5631	20.5520	-3.6009	13.0993	18.8613	16.5284
4952.2382	5.4623	9.1886	32.9927	12.5310	6.0837	15.1369	22.1695	26.4181	2.3616	-6.5176	3.7695	13.0378	-0.8960	7.7905	12.0696	12.0694
4960.2386	8.6265	8.7843	25.6764	4.1638	0.1957	16.6615	-17.8062	-6.6668	2.8479	-4.0592	3.7494	13.7913	-2.9792	16.1975	8.2572	11.9829
4968.2390	-2.2131	1.9543	14.9882	0.0516	-9.7378	7.2148	-17.1785	-17.4811	3.6533	1.4382	-0.4016	9.8436	-2.8481	10.8651	3.8551	6.1185
4976.2394	-14.8670	-8.7541	6.4798	-8.5486	-15.0206	-13.2053	18.0754	4.6342	-9.6023	-21.4473	-18.5578	-11.7775	4.6783	-9.3196	-4.9618	-5.2871
4984.2398	-11.7117	-8.5495	2.5627	-10.7855	-14.1502	-15.9715	3.7785	7.8715	-9.5704	-24.4925	-15.9907	-7.6538	3.8416	-4.3737	-1.9041	-1.1112
4992.2402	-5.8773	3.5350	12.9889	4.8328	9.0638	10.2334	-6.0956	8.9132	-4.3804	-18.9388	-8.6269	-1.0567	-0.1871	1.9077	-2.7933	-0.0839
5000.2405	-5.5113	1.6064	9.2907	-1.5433	6.8427	6.7004	7.3551	0.0131	0.1366	-9.7040	-3.6752	5.6762	-2.0210	8.3666	4.6792	3.1590
5008.2409	-13.2284	-12.4186	-9.9245	-20.6732	-21.1339	-22.5565	7.1925	-7.0948	-4.1085	-16.0885	-8.9211	3.3760	1.2595	8.5224	5.4195	-0.4959
5016.2413	-19.8615	-11.7076	-5.8267	-13.8033	-18.4986	-13.5219	0.1834	-10.8408	-18.5344	-45.0488	-28.3373	-19.5217	7.6234	-11.7069	-15.0439	-17.9985
5024.2417	-20.8619	-7.8599	5.0542	-5.8870	-13.4480	-6.1888	-23.1391	-22.9828	-12.8487	-32.7174	-25.0006	-15.8488	3.1621	-13.0054	-14.1096	-15.8517
5032.2421	-11.7795	-3.7560	12.2833	0.3936	-5.6628	-11.3863	-22.0818	1.2206	-3.8852	-11.4106	-9.9571	-4.1084	-0.6786	-0.4464	-4.9279	-3.9673
5040.2425	-4.3218	3.9038	21.8274	9.8954	13.9920	1.7565	11.7166	15.8546	-3.3821	-10.5851	-8.2516	-4.8151	-0.4675	3.8549	-1.3916	2.6839
5048.2429	-12.1353	-0.5460	17.7922	2.8294	3.6345	-1.2505	11.3491	-0.9240	2.6549	-0.9428	-6.2285	3.7079	-4.4683	6.9195	9.8935	6.2918
5056.2432	-11.9693	-4.8804	9.5900	-6.2879	-5.5120	-8.1457	12.5866	9.4554	-2.5461	-9.8996	-7.9465	-1.4265	-0.6303	-0.1494	5.2764	-2.0167
5064.2436	-12.4040	-5.3309	6.6495	-7.8871	1.8314	-7.0032	29.6370	10.8032	-7.0588	-15.4191	-14.8160	-11.7516	1.9528	-6.0958	-0.2949	-3.7784
5072.2440	-19.8482	-9.0069	3.9013	-7.4021	-5.9531	-15.1505	3.5408	-0.9264	-3.3817	-8.2030	-15.3398	-8.2225	-0.9782	-6.7484	0.6019	-0.8633
5080.2444	-15.2206	-5.7022	4.4003	-3.5303	-4.4606	-7.5967	-14.0316	0.0691	-6.8459	-19.7643	-14.2387	-7.3155	2.0750	-11.2271	-10.4557	-8.2762
5088.2448	-9.2116	-0.6086	7.7645	-0.7027	6.7838	3.1436	4.4962	-6.3343	-1.8367	-9.2392	-8.2669	-2.0815	-0.5512	-2.8055	-3.1088	-2.1244
5096.2452	-7.9317	-3.6989	3.6490	-5.6631	0.8524	-9.2627	-5.1188	-3.4622	1.9556	4.9389	-3.5814	-0.8893	-3.7725	3.2439	5.9453	4.0133
5104.2456	-17.6633	-13.8730	-11.8526	-19.7422	-10.7379	-27.0887	-27.0611	-7.1417	-10.2187	-18.8552	-17.3642	-16.0093	3.0432	-10.9915	-16.6093	-14.5918
5112.2459	-22.7556	-15.5166	-15.6433	-20.9561	-10.8997	-23.0174	-16.7590	-21.5203	-14.2399	-30.8957	-23.9751	-19.4314	6.7176	-19.5990	-27.3294	-23.7328
5120.2463	-13.4199	-6.3168	-8.2018	-7.9978	-1.3337	-3.0717	0.3071	-8.4179	-6.2394	-15.2400	-12.4748	-9.5156	3.2952	-14.3454	-13.5380	-12.2070
5128.2467	-16.2155	-7.0480	-11.5318	-8.0720	-1.4178	-5.2889	-8.0450	-1.2082	-3.3508	-4.8872	-11.9717	-11.0776	0.1141	-8.7424	-9.0502	-7.1295
5136.2471	-15.6844	-9.6783	-12.1657	-13.1929	-7.3843	-11.9455	-9.1408	-7.8700	-7.4830	-9.4971	-16.0569	-17.8360	2.1504	-10.4471	-13.1169	-12.0959
5144.2475	-15.3243	-10.1566	-13.0610	-16.3043	-8.4570	-9.4891	-1.3810	-8.0911	-10.0506	-13.6394	-17.2700	-22.1105	3.2657	-15.8974	-12.7099	-18.4983
5152.2479	-25.1501	-16.8723	-23.4295	-23.2356	-20.1457	-21.5475	-42.5989	-34.7313	-12.6522	-14.8364	-25.9458	-30.6639	1.2971	-16.3064	-18.3737	-24.3135
5160.2482	-17.4616	-11.4686	-15.8271	-16.1285	-14.1870	-12.6701	-39.2724	-33.6957	-14.2675	-22.8956	-24.2346	-27.1934	3.4891	-15.9278	-21.3408	-22.6073
5168.2486	-3.7149	3.0223	3.1339	3.4506	17.3177	11.2968	35.6323	33.2378	-3.6690	-12.8972	-4.2167	-4.7230	0.8070	-5.7093	4.9912	-1.2771
5176.2490	2.1185	3.5445	-3.4375	2.9209	10.0001	3.6037	-0.8336	37.4813	4.9839	8.5578	6.7535	6.0382	-5.9720	15.2392	19.6713	16.0697
5184.2494	-0.4663	-2.8861	-16.7840	-6.9216	-9.6118	-6.4140	-50.9948	-8.8611	-0.2498	4.7284	-1.2139	-3.5672	-2.7117	11.4218	-2.9415	2.8072
5192.2498	4.6567	5.2664	0.0097	13.2609	14.2713	6.5434	17.9946	13.1109	0.1680	1.5830	2.2347	-2.3751	0.4012	0.2937	0.3162	1.9783
5200.2502	16.9414	13.8367	7.5876	23.7420	24.1091	18.3897	30.6345	19.8282	9.8164	15.8115	16.3175	15.4726	-5.1151	15.9917	23.9146	23.1006
5208.2506	4.8601	4.0706	-13.1212	1.5024	8.8398	11.5537	12.1000	0.3586	9.3115	16.0054	9.4558	13.0219	-5.6236	18.3318	18.4962	19.0860
5216.2509	2.2296	1.9778	-13.1311	1.0299	12.3552	6.5840	31.5464	25.2093	-0.0876	3.4394	-0.1747	-5.3808	-0.8530	6.3029	9.8526	8.7221
5224.2513	6.5017	3.9424	-12.9951	0.9061	6.9322	10.0240	-14.1574	1.5010	-0.8858	1.7486	-0.1689	-5.1801	-2.5953	10.4099	6.6314	7.9813
5232.2517	-7.2198	-4.6190	-25.4100	-9.6265	-2.7492	0.7483	-29.0247	-29.6238	-0.1227	4.2266	-6.3326	-7.5178	-2.7183	2.1433	-3.4609	-1.2065
5240.2521	1.2603	-0.3941	-17.2646	4.3678	9.2289	-0.6815	22.1630	10.4191	-2.4256	5.3326	-3.0032	-13.7656	1.5757	-4.9652	-1.8806	-0.0956
5248.2525	9.1881	4.0056	-18.7312	4.7333	12.5835	6.6850	20.9735	22.5192	3.0614	12.2447	8.0844	-0.7417	-0.6557	9.1105	5.8375	8.0774
5256.2529	0.9862	-0.6863	-27.4809	-3.0163	8.8714	1.6712	-6.9628	11.4308	3.3829	9.5310	5.1475	0.5125	-2.3944	4.4851	3.6954	6.1315
5264.2533	-4.6453	-4.7963	-29.1340	-4.6399	5.2151	-5.2803	-17.3642	4.8568	-2.7868	-0.3042	-4.4920	-11.0677	0.2792	-11.0232	-4.7208	-0.9058
5272.2536	-12.7741	-8.6703	-33.6907	-12.3143	0.8122	-4.1027	10.6103	-0.0534	-2.5444	-0.7251	-7.7289	-11.4718	1.4413	-11.1744	-6.3977	-7.2653
5280.2540	0.5918	7.3779	-13.3393	11.8889	14.5664	27.5997	33.2663	30.2253	3.9818	12.0057	2.4578	-4.0726	-2.5958	4.7410	10.3524	8.0767
5288.2544	12.6352	17.8288	-6.8707	22.7387	12.9545	48.2232	-9.7488	22.9233	17.3293	42.0171	18.1809	11.8649	-10.5684	26.7270	20.4302	26.1202
5296.2548	1.2894	2.6611	-28.0393	-0.0575	-4.5632	17.2879	-20.1949	-4.5590	17.4070	45.1206	16.2627	12.4931	-8.2439	21.2689	7.9345	14.3334
5304.2552	-6.4266	-0.9619	-24.5827	3.7771	4.0869	5.9863	13.7546	10.9649	5.2925	18.5820	0.5670	-4.5708	-3.3078	6.2706	5.3045	6.5308
5312.2556	-14.1342	-3.4314	-30.7399	-3.7756	7.6014	8.9850	20.5703	7.8286	6.2531	24.0116	-4.9181	-10.7975	-6.5750	7.1334	11.6219	9.0404
5320.2559	-11.9781	-11.3459	-45.7029	-22.6480	-2.4014	-7.6278	10.5512	6.0385	5.0847	29.8428	-0.4774	-14.4298	-3.6742	-3.5403	2.9937	-1.8815
5328.2563	-0.7082	-6.4183	-36.8130	-14.9427	1.0775	-4.9312	-20.3120	6.1155	0.6284	15.6454	3.9160	-12.3048	-0.4997	-15.4112	-5.3276	-8.6377
5336.2567	7.5146	0.3282	-27.2069	-5.0675	12.8714	2.6348	-11.3198	-6.6116	7.8280	24.0141	14.2554	2.3246	-4.1391	-5.3698	5.7325	0.7329
5344.2571	22.5117	7.6193	-19.3854	6.8378	22.4726	3.4464	24.0391	11.9673	15.4324	39.7876	29.4105	15.4024	-7.2298	14.5468	26.4654	17.2589
5352.2575	24.9446	6.0563	-28.6930	3.2522	8.1525	2.5582	-6.5864	6.3300	15.4281	40.5836	31.3336	17.5944	-7.0981	16.0913	25.7558	18.5925
5360.2579	18.4132	-2.3166	-41.9979	-6.6285	-8.1119	-7.0689	-14.6863	-2.7725	6.0928	23.3780	20.3151	5.7186	-0.0231	-4.1873	9.6038	4.9161
5368.2583	22.3089	0.0192	-38.2148	3.3256	0.3232	-10.1278	4.0350	16.0850	0.6015	7.9777	17.7351	2.7863	3.0670	-7.6869	11.5386	6.6524
5376.2586	21.0829	0.2468	-47.5483	1.5642	2.0984	-6.4027	-14.1929	4.4358	5.5165	16.8678	21.4408	8.5870	-0.3377	-1.8303	13.5323	10.9780
5384.2590	17.8696	0.9146	-48.4488	2.1365	0.2727	2.7884	0.9199	6.4879	7.3825	25.3385	20.4543	5.4723	0.2146	-1.7057	8.4691	7.9361
5392.2594	16.3924	-0.2862	-46.2594	1.9181	-1.1312	-2.7729	15.9545	10.3033	6.6024	26.0407	17.8362	2.6861	-0.0206	5.0270	12.2671	10.2939
5400.2598	8.0691	-9.1381	-62.3309	-14.2162	-6.8130	-16.3122	5.9727	-1.3225	3.5136	22.5903	11.0809	-4.6863	0.1926	-2.4829	10.0480	5.6882
5408.2602	7.2192	-5.5954	-56.7958	-8.6657	2.9478	-5.5284	11.0896	9.9876	1.7259	16.0882	9.6381	-7.2305	1.0503	-10.5463	6.3468	1.0883
5416.2606	10.6649	-3.3348	-50.4163	-4.0797	4.5718	-6.6515	-6.6815	-5.3183	3.6549	20.4196	13.1203	-4.4755	-0.7303	-7.2954	5.1510	-0.3628
5424.2609	6.5931	-6.0015	-54.4322	-9.0863	-5.4734	-5.2453	-12.6896	-14.4076	5.1523	29.8406	11.9709	-8.6621	-1.6875	-10.2399	4.1808	-4.5662
5432.2613	7.7405	-2.1289	-47.2906	-5.6465	-1.8343	8.3109	6.6122	-7.6265	9.5745	36.4566	17.6313	-2.0125	-2.3436	-11.5129	7.3056	-4.7854
5440.2617	8.3473	-4.9538	-43.8464	-9.2661	7.4946	-6.7820	2.2710	-19.0783	6.5115	27.8139	17.0983	-3.0959	-0.5930	-21.9720	0.1571	-12.3872
5448.2621	9.0892	-1.5781	-31.4135	-4.6014	17.2674	-6.7791	6.2437	5.9050	5.2828	25.4894	16.5645	-5.8680	-2.2651	-14.3953	3.6743	-10.5501
5456.2625	14.3561	1.4153	-22.2646	-6.2308	13.8225	-6.1454	11.0116	13.1785	12.1961	40.4253	25.1146	5.2548	-6.2704	11.1731	14.0368	0.2693
5464.2629	5.3643	-6.2872	-20.7611	-13.8107	-0.6351	-19.7772	-14.1207	-9.7796	3.5578	20.8156	10.5301	-3.5341	-1.4599	-5.0281	-1.3339	-7.8614
5472.2633	5.6883	0.7847	2.5039	3.3864	-9.6078	0.0410	-26.9414	-11.0983	-0.5195	0.7587	4.4977	0.9919	1.9831	-11.3514	-7.3352	-7.6995
5480.2636	16.6183	4.4034	18.5248	11.5645	-21.2149	-3.2170	-11.4609	-26.9804	4.6856	4.4378	16.6634	20.8795	3.5478	3.5262	-3.7334	-4.5265
5488.2640	11.4124	-0.9185	24.0767	12.8585	-22.5656	-22.2279	-11.8114	-22.8064	-1.6289	-12.2872	10.4032	16.9065	8.0778	-14.2186	-12.6184	-12.0765
5496.2644	10.5243	4.1502	34.3444	19.4499	-10.2701	-10.2971	-16.4286	-8.9475	0.0041	-10.3813	9.6099	16.2786	5.1566	-14.6986	-9.0122	-6.5224
5504.2648	4.1426	3.7783	38.5270	15.3647	-4.5635	-9.4475	6.9518	-13.0988	2.0010	1.1697	5.0221	8.3849	0.2744	1.0957	-0.2591	-5.8259
5512.2652	-1.3744	4.9483	47.3450	18.8065	-5.1900	-3.7152	3.0815	3.4546	-1.3637	-10.9486	-1.4827	5.8717	-0.3255	-0.6200	4.2109	-4.2726
5520.2656	7.8596	8.1301	48.5972	14.8483	-3.3548	4.7668	1.3962	0.5898	2.1575	-12.8702	6.9537	21.6578	0.9474	0.2823	5.5214	4.4537
5528.2660	1.5510	4.5610	47.5635	7.1971	4.8634	-1.0498	27.8497	-2.6513	-1.5735	-15.0261	-2.3408	9.4087	1.8294	-1.1744	1.5671	0.3416
5536.2663	1.7692	7.8753	54.5716	12.4551	3.4144	4.5201	1.7849	7.1987	-0.2588	-10.0461	-2.0929	8.1775	-1.2975	5.7684	3.5712	4.0985
5544.2667	3.0513	4.9040	45.2400	5.2089	-4.4782	-0.6452	0.1363	-8.4883	2.2797	-9.0491	2.7789	18.5504	0.4113	11.0487	-1.4465	3.3512
5552.2671	-3.9174	4.6852	44.3003	11.6128	1.0715	2.1205	13.5099	-5.3315	-6.5183	-28.8607	-10.4843	5.0415	3.7148	4.0753	-8.8804	-4.6055
5560.2675	8.6120	13.5525	48.7488	21.2343	0.2429	17.4480	-37.0649	-6.5391	0.1092	-10.4343	0.1414	11.1756	-1.0817	15.7495	-6.4649	5.7811
5568.2679	0.2858	1.2695	30.9756	-0.8708	-8.9673	-4.4017	-18.2009	-23.9843	0.5341	-0.1559	-3.2619	5.1359	1.0735	9.9561	-14.3210	-0.9650
5576.2683	-10.9489	-5.6464	30.0001	-2.3930	-5.4854	-17.6321	21.0905	-10.2877	-14.7879	-33.1267	-22.2111	-16.0586	8.4518	-13.6924	-21.4037	-17.1175
5584.2686	2.1756	3.4746	40.1131	9.2162	1.1567	-6.0093	6.9239	5.9986	-9.4106	-34.3393	-7.6547	4.6059	7.0148	-3.9594	-13.7654	-6.1531
5592.2690	-4.8751	-1.8376	34.3291	-3.5328	-4.6904	-11.5285	9.1535	6.1360	-5.2473	-29.5059	-6.5350	13.1395	6.0341	-1.1790	-12.5252	-1.7006
5600.2694	-4.9910	0.5144	38.7900	-2.7182	-5.1641	-0.3945	-19.3272	-5.1271	-9.7109	-30.2386	-13.3805	-2.6626	4.8065	-11.3144	-16.8404	-10.6117
5608.2698	5.5723	11.3763	46.8412	11.2238	14.7783	16.4699	-7.1161	4.8815	-1.0816	-8.7797	-1.1032	3.1774	-1.1710	5.1631	-4.9946	-1.2522
5616.2702	-5.7280	2.8077	36.0987	6.0854	5.3568	-3.6018	13.3288	17.6758	-2.0689	-14.2374	-7.8761	4.7361	-0.6294	12.2696	2.2998	7.9541
5624.2706	-11.3913	-4.8425	28.6480	-2.7232	-23.3412	-11.9472	-33.7208	-18.6542	-10.9413	-29.5082	-20.2383	-6.2807	4.3835	-2.5296	-15.4622	-6.0945
5632.2710	-0.7372	5.8110	45.9513	9.9500	0.3764	9.3323	19.3518	-10.7670	-6.4848	-17.7249	-11.8814	-4.7532	4.2059	-3.6946	-11.7050	-6.3852
5640.2713	9.8372	14.4887	57.2454	22.1285	18.1482	15.8236	22.4772	20.7453	2.0444	-6.3545	2.5866	11.2293	-1.8036	8.4606	10.0347	13.8029
5648.2717	6.0446	7.9167	39.4835	9.3883	-7.0319	6.8737	-68.7184	-20.8762	3.5684	-6.7341	4.5333	19.4264	-3.5573	8.9811	-1.9385	7.6710
5656.2721	-0.8521	5.4598	35.7340	9.8112	-0.2792	10.1716	6.4051	-23.9848	-2.6346	-18.3684	-6.5492	7.6475	2.8208	0.1054	-8.9129	-2.6488
5664.2725	8.1138	17.2820	50.8874	30.9240	21.5984	27.6445	57.9463	25.4836	2.1408	-8.3156	-0.6154	10.6523	-1.1113	15.9306	15.2365	19.4961
5672.2729	14.2630	16.8150	39.9279	24.1008	10.0535	22.8369	9.3267	32.6638	13.3108	17.4833	15.5942	26.8307	-7.0401	32.4697	23.2881	32.8080
5680.2733	3.5052	1.7796	19.2083	1.2218	-5.9646	-0.6040	27.9600	23.5746	1.2858	-3.1344	0.5105	10.3483	2.1302	9.4397	6.6172	15.9923
5688.2736	-6.1954	2.1275	21.1400	2.1562	0.6033	9.2621	23.7506	20.6603	-7.6692	-20.4340	-17.0753	-8.0606	3.2851	3.5010	-2.7338	8.5863
5696.2740	6.0699	14.6201	34.3519	17.4578	18.3065	27.5561	27.3981	24.1744	6.0609	6.7937	0.4459	9.6715	-4.2711	29.0406	10.4003	24.9952
5704.2744	14.1519	14.4108	33.9163	18.4152	17.3042	19.2343	33.2320	18.0283	11.8818	17.6595	12.8348	21.4771	-5.5079	26.0060	21.3134	29.8844
5712.2748	-6.3417	0.0302	12.5944	-2.6374	-3.5806	3.4342	-24.4926	-10.7465	4.7708	6.3894	-1.5842	6.1767	-5.2103	3.5393	7.1123	8.2672
5720.2752	-18.7867	-10.5309	0.7215	-17.5694	-13.5319	-11.7724	-23.2789	-22.5954	-6.3687	-12.3475	-16.5997	-12.1982	0.5819	-12.9797	-10.7246	-13.8031
5728.2756	-10.7489	-2.6554	11.4526	-4.1775	-4.1002	1.4359	-27.1917	-23.3051	-8.1038	-17.8452	-14.3235	-13.0158	1.2856	-14.7412	-13.5536	-17.4364
5736.2760	-5.7993	8.5812	19.7722	12.6043	6.4810	25.1548	-50.6454	-20.2166	6.1536	10.6737	1.2124	3.1514	-6.1264	2.8085	-10.7621	-7.8979
5744.2763	-11.7478	1.5466	17.5581	5.4005	4.1576	6.9730	5.6718	-14.4741	6.6972	16.3135	-2.1131	1.1733	-3.4271	6.4258	-9.7964	-5.6278
5752.2767	-16.2561	-7.5474	10.2471	-9.4296	-6.6885	-10.8996	10.6085	-39.2183	-3.9819	-2.7880	-15.2031	-13.5497	0.3897	-4.9339	-11.4802	-16.5724
5760.2771	-9.2254	-3.9734	9.3645	-6.8564	-8.6214	-4.4020	-16.0220	-35.2471	-2.4465	-2.8860	-6.1586	-5.9862	0.7674	-4.7503	-16.4948	-21.6543
5768.2775	-8.3276	-0.6478	13.1390	-1.2771	1.2260	-0.1593	12.6241	12.8707	-0.1037	-0.6736	-2.0188	-0.6945	1.7843	2.5726	-15.2380	-12.8498
5776.2779	-18.3079	-3.7770	2.3003	-9.8067	-1.0722	5.4031	2.0884	12.6010	-0.4032	2.0163	-10.6057	-8.7930	-1.6307	4.1073	-10.1784	-8.4313
5784.2783	-27.9936	-9.2342	-4.8542	-14.5709	-14.0794	2.9526	-7.6799	-4.5233	-3.4421	-4.4463	-18.1781	-13.8952	0.0675	-5.1992	-17.2002	-17.7637
5792.2787	-26.8387	-9.9107	0.5189	-8.7338	-13.0070	-6.4599	6.6900	0.4993	-9.3000	-21.4688	-23.5621	-15.1990	4.5326	-7.9706	-21.1411	-16.6208
5800.2790	-17.4035	-7.0683	-3.2803	-6.8757	-11.0394	-6.0070	-18.0323	-15.3850	-4.8347	-17.3473	-14.8280	-2.4168	2.6974	-1.8097	-16.9084	-6.3818
5808.2794	-22.5948	-7.6683	-4.5801	-7.0397	-15.0231	-0.4795	-22.9688	-18.7884	-2.1666	-11.4573	-14.4739	-1.0881	1.9849	-4.5482	-20.7615	-10.0151
5816.2798	-25.8483	-8.2986	-1.3832	-5.4439	-11.0820	-1.7689	2.6329	0.7041	-7.7132	-12.9182	-24.7114	-18.9520	3.3475	-7.0149	-20.7950	-10.2808
5824.2802	-19.3044	-10.0692	-7.4182	-9.8738	-11.2737	-12.1145	7.0240	7.7519	-6.5851	-9.3086	-18.4404	-14.9395	4.0726	-7.1826	-16.2478	-5.7928
5832.2806	-21.6506	-10.2703	-11.5662	-12.8666	-15.9113	-6.6438	-11.4189	8.3124	-4.9457	-9.7806	-16.1004	-10.0497	2.8224	-7.3601	-16.0158	-7.6495
5840.2810	-19.7506	-5.5614	-10.8842	-6.5398	-9.4783	6.9163	-16.2966	-8.0508	-5.3793	-9.1868	-19.8257	-14.8160	0.9103	-2.6975	-14.5482	-4.7884
5848.2813	-22.1024	-8.1322	-11.0208	-9.6837	0.6850	-3.7190	10.0744	-20.5444	-5.8629	-15.2828	-19.7523	-11.3954	2.0534	-1.9380	-16.6076	-10.1393
5856.2817	-28.5905	-12.1306	-13.2422	-20.8332	-3.0594	-9.3895	-3.9620	-2.0741	-10.0597	-17.8531	-25.1181	-22.8475	1.3144	-2.0569	-19.8398	-19.0306
5864.2821	-17.6423	-7.2675	-12.5921	-15.6341	-11.0920	1.6419	-26.2922	5.3637	-7.7207	-5.0999	-18.6280	-23.6276	0.9152	-2.9687	-18.2265	-13.4152
5872.2825	-6.6816	-3.7227	-5.0368	-7.2895	0.2986	-0.6615	19.3970	-0.4467	-3.2697	-6.1704	-5.8384	-5.7082	3.6456	-6.7255	-11.7591	-9.8984
5880.2829	-2.8020	-1.9103	-1.0489	-7.5599	9.8726	-2.4078	36.2405	12.6253	-2.3700	-1.2787	-3.4422	-7.7792	0.8205	-0.8233	1.2105	-4.2069
5888.2833	-2.0691	-2.4503	-7.0714	-10.5025	-4.7569	2.4286	11.6496	9.8742	0.0975	8.1966	-3.2545	-7.4445	-1.3193	3.6196	6.7592	4.6178
5896.2837	-18.9946	-15.3129	-26.5786	-27.2542	-23.4947	-10.6838	0.7808	-29.1295	-8.4678	-14.7830	-19.1754	-14.8763	4.1076	-12.4331	-9.7822	-12.3873
5904.2840	-39.5435	-26.1590	-40.2701	-36.7010	-32.8801	-23.5420	-21.4413	-34.7512	-16.7607	-21.2471	-37.0567	-39.5378	6.5257	-32.0945	-30.8699	-33.6241
5912.2844	-28.0854	-18.8552	-29.2583	-24.3558	-28.7503	-16.8959	-23.6635	-4.5204	-9.7357	-2.1354	-23.9517	-31.5824	5.3356	-26.8786	-28.5741	-23.3287
5920.2848	-7.0712	-11.4628	-26.4288	-21.2118	-17.3326	-13.5030	-9.2375	-11.1167	-7.2605	-4.9384	-10.6933	-15.5684	5.6888	-11.3274	-17.5282	-10.8634
5928.2852	-6.4365	-9.7304	-27.9950	-16.0932	-6.2862	-12.5555	3.5484	-12.9944	-6.5824	-7.4592	-8.8702	-13.3428	4.4533	-11.3912	-11.6222	-10.2976
5936.2856	3.9085	-1.3020	-12.5532	0.0111	6.4113	-4.6489	20.0107	8.5173	-0.0236	1.8514	3.1671	-1.2557	1.1365	-8.2209	6.1125	3.4536
5944.2860	11.0889	-0.0277	-15.5034	-3.3161	3.5264	-5.8267	0.0638	-0.0831	1.4038	6.0543	6.9418	1.8945	-1.4829	2.7997	14.0579	11.1804
5952.2864	4.4862	-3.9063	-24.4714	-10.7872	-2.8002	-8.5714	-8.3142	5.7401	1.3801	6.7550	5.3307	0.9862	-1.0524	4.4523	7.3984	6.4566
5960.2867	18.6328	4.1125	-11.9472	-1.4999	12.8933	-2.4258	16.0914	26.3523	3.8930	7.2694	15.3531	10.5633	-1.4547	11.2813	18.9258	17.4896
5968.2871	22.5037	5.8157	-13.7988	-0.2721	16.4898	-1.5871	12.8791	16.0617	5.2949	10.7356	17.3985	11.5934	-4.0935	17.7188	27.2697	22.2356
5976.2875	9.6259	-2.4672	-29.0621	-10.5805	3.5829	-6.9191	-0.2020	11.6916	-0.7159	0.9795	6.7713	-0.4213	-1.3540	2.0197	16.9562	8.6329
5984.2879	17.4658	2.0042	-23.7354	-2.1677	12.4477	-4.4530	-4.4921	16.1019	-4.8866	-6.3601	5.5406	-5.9915	0.3467	-0.6926	13.9392	9.1927
5992.2883	25.8923	10.0740	-17.2882	10.5655	16.2794	5.3952	-9.9419	2.8719	4.3300	14.2925	17.0497	5.2392	-4.8264	25.6003	19.5247	16.6692
6000.2887	15.7299	5.0199	-28.0393	2.1820	-0.1796	7.6610	-14.9682	-9.5074	5.1138	19.9471	13.0518	1.1189	-5.8975	27.0575	18.1552	8.6019
6008.2890	9.1210	3.4376	-25.6480	6.8100	9.3409	6.2742	12.1064	9.7531	1.0726	10.9528	4.8487	-7.4202	-3.3726	8.4787	17.9657	9.3546
6016.2894	19.1749	6.2611	-22.7884	10.8312	18.9107	3.2647	35.7326	24.6920	7.3795	16.3020	18.5466	10.6077	-2.8090	8.5464	26.7730	21.4933
6024.2898	15.5966	-4.3770	-42.9140	-13.5215	-1.2485	-11.7812	-4.0033	1.5749	2.3727	10.3261	15.5015	4.2311	-0.3252	-3.3719	16.0947	6.4455
6032.2902	4.5450	-6.6204	-39.7275	-10.7898	4.0426	-13.6034	2.0797	8.6819	-3.1136	4.5270	4.3810	-12.2141	1.1611	-14.7242	4.3521	-6.7913
6040.2906	12.8497	3.7122	-28.3286	4.2059	14.6132	4.0706	4.6160	11.1427	4.9069	12.3065	15.3403	4.7616	-3.6610	4.3850	17.6145	6.5520
6048.2910	7.2239	-0.1304	-43.3798	-8.1072	0.7844	8.0242	-52.6565	-21.4140	3.9516	12.3979	10.9081	1.3372	-4.5423	4.0329	3.3442	-2.3198
6056.2914	-2.5327	-4.5901	-41.3622	-8.5539	9.8836	-0.1456	8.0572	5.6840	-0.2257	11.8618	1.9061	-13.5239	1.0117	-9.0349	-9.5323	-11.5943
6064.2917	3.0856	-3.8124	-41.0330	-6.0737	8.9959	-5.4359	19.0696	-4.4649	5.1096	16.6262	9.9094	0.2092	-2.7825	1.0209	12.7159	2.0648
6072.2921	1.1851	-7.7545	-58.5880	-11.1805	-10.9626	-8.0333	-65.3626	-64.8951	6.4924	18.2217	11.9801	4.6569	-4.2318	-3.8324	-2.2902	-10.7209
6080.2925	-2.7567	-8.2216	-53.7491	-6.8900	2.4186	-8.2362	10.0722	-12.7702	-0.7113	9.9253	6.6510	-10.9981	4.6706	-19.7346	-19.2297	-27.2888
6088.2929	-3.7794	-5.3743	-46.9227	-6.4075	7.9279	-0.8781	41.9926	39.3458	0.4211	11.2983	7.1265	-11.1538	0.6399	-9.0050	5.9828	-12.8192
6096.2933	9.3081	1.3938	-43.2906	-0.0024	0.9080	10.2203	-10.2770	12.4469	11.9394	31.9740	23.4178	9.5701	-4.9736	1.8425	13.9391	1.7780
6104.2937	19.6400	5.6406	-33.6688	7.1445	14.8243	10.7119	14.6294	3.9680	14.5268	35.1450	31.9623	16.7091	-2.8551	-5.8023	12.0566	1.1952
6112.2940	10.2712	4.0950	-38.4073	3.1991	15.6132	13.8474	-17.4313	-1.0004	15.5937	37.6640	28.4914	12.8091	-8.1023	-5.2294	15.3099	-2.0378
6120.2944	13.4552	3.6164	-43.8981	2.9606	10.2998	13.5748	-7.4278	6.2510	17.5810	46.0588	31.4734	13.7956	-6.7908	-4.5225	15.5419	2.7918
6128.2948	13.9174	-0.6265	-44.6036	4.0276	10.8771	-3.0386	30.2200	17.6438	7.1057	25.0586	20.6582	1.0436	-2.1534	-14.4457	24.0359	4.5397
6136.2952	12.4337	-0.9028	-47.5244	3.9672	-6.2431	-2.8805	-50.0375	-12.3857	5.3804	22.9767	17.5856	-1.3902	-4.7847	-7.2319	13.8857	-1.8037
6144.2956	13.4473	-6.2893	-52.4238	-12.4944	-23.9525	-7.5302	-47.8483	-34.4157	5.1466	30.0426	17.4178	-2.0360	1.6683	-7.6773	-11.3403	-12.8105
6152.2960	1.9994	-14.1204	-49.2900	-23.6878	-20.4015	-19.0629	-2.7451	-32.2667	-7.1276	7.4456	-1.8097	-23.1953	7.0542	-27.6001	-15.6738	-24.7274
6160.2964	21.2475	5.6724	-19.3635	5.1148	-0.2822	12.1044	-10.0463	-16.0756	6.5893	29.3139	19.3053	-0.8010	-0.9159	-8.4792	3.8365	-3.8777
6168.2967	34.7418	13.9515	-0.7383	12.6321	8.3633	19.1867	32.6294	2.6466	20.5442	53.3102	38.4735	24.9451	-4.6523	16.0332	22.7876	19.7314
6176.2971	10.6992	-2.1700	-3.7215	-2.4605	-2.9346	-14.1438	32.4253	4.7498	-0.1150	4.6488	8.3564	1.0517	2.1539	-5.0723	11.4745	0.1665
6184.2975	8.5547	3.6057	14.2798	14.4847	1.8132	-6.0296	10.2894	20.3845	-1.4689	-14.9331	7.7330	12.1603	2.7792	-7.8375	8.3292	2.5651
6192.2979	9.8819	9.5627	25.4569	21.3665	10.9915	4.0684	22.7595	23.3012	12.8627	11.1882	18.1450	30.8061	-5.4748	15.3210	27.4240	26.5764
6200.2983	-6.2441	-1.2137	15.5978	7.0667	-2.4764	-11.8753	-9.2121	-4.4148	0.0231	-5.1630	-5.0580	3.0157	-2.7744	5.0693	7.9745	7.3050
6208.2987	-12.9399	-1.2070	24.4659	9.0508	-5.4187	-5.4837	-17.7512	-0.9893	-7.4817	-27.9819	-14.5169	-0.9118	3.2589	-6.6278	-13.7471	-6.5565
6216.2991	-4.9492	7.9734	42.2885	18.1025	0.8333	8.1106	-22.4427	3.5652	3.6948	-9.4320	-1.6853	17.7442	-3.1357	18.1692	-1.1166	10.0013
6224.2994	-0.7861	7.9043	41.2178	15.2259	-7.6854	6.2142	-54.9058	-32.9240	4.5439	-2.2547	0.0603	16.8497	-3.6079	23.9356	-11.3042	3.0442
6232.2998	-9.2880	3.7113	39.4914	10.7545	4.3533	6.4694	5.3254	-30.1749	-1.9362	-18.5686	-10.0915	7.4758	3.1984	-1.1383	-20.9814	-8.6651
6240.3002	-2.8808	9.5699	49.3029	18.3728	21.9429	14.6188	54.1746	16.3149	0.7248	-5.5078	-7.1240	1.4385	-0.7181	0.7232	5.2804	9.0388
6248.3006	-2.1871	4.9545	40.0430	11.4317	-2.7583	4.0279	-8.4587	8.6860	1.8610	2.1680	-4.2659	2.2448	-3.1309	1.8796	7.1520	10.5484
6256.3010	-10.6400	-1.9988	32.4918	6.0324	-8.4720	-7.8096	-9.0188	-0.6262	-6.4644	-30.3896	-11.9398	6.3390	4.8252	-14.0737	-10.9648	-3.0423
6264.3014	3.8073	12.7172	48.0150	25.6148	17.5766	14.7771	48.4864	39.8675	0.2829	-24.6641	-0.7023	21.8145	2.6380	14.0018	6.6897	20.5983
6272.3017	-3.7696	5.9355	31.6348	9.2656	1.1899	7.6093	21.1163	26.1767	5.3983	-6.5504	-1.7622	21.8259	-2.1661	29.5094	10.2822	26.9557
6280.3021	-22.3278	-11.9707	13.8060	-14.3313	-14.1220	-22.9573	-12.6046	-6.0768	-14.8957	-41.8135	-27.9034	-10.4512	7.0361	-8.9868	-22.2786	-9.3568
6288.3025	-15.0932	-1.5781	31.9406	1.8524	0.7851	-2.7310	-4.8835	1.5645	-13.5997	-42.0680	-23.0813	-8.2650	6.3363	-10.6351	-22.1749	-11.7238
6296.3029	-18.1361	-2.2539	28.5177	-3.9533	-10.1730	4.1073	-8.9940	-15.3535	-1.7938	-16.3812	-13.2473	5.3833	1.1051	2.0406	-15.1833	-7.4542
6304.3033	-16.9168	-7.3774	27.2020	-8.0463	-20.0253	-11.6215	-5.3796	-10.9967	-14.2681	-34.4571	-23.7641	-13.2636	8.0807	-10.8714	-26.5384	-20.6806
6312.3037	1.8564	7.5554	47.1284	16.8346	-9.3634	4.9843	-29.5599	7.1581	-9.8429	-29.0975	-11.9766	-2.3188	3.7354	6.6378	-12.5182	-2.4866
6320.3041	6.5362	11.0466	46.2242	19.5862	-3.8144	8.6623	-47.6134	-7.7486	1.1491	-8.2429	-0.6863	13.0653	-2.2024	20.5207	-4.4824	11.6151
6328.3044	2.2278	7.4361	44.5427	17.3577	6.1539	3.7516	21.4168	10.7401	-3.8967	-18.1094	-8.8669	4.3882	3.2890	5.8422	-3.6599	11.9503
6336.3048	0.2361	6.1741	41.3934	14.6044	10.0006	3.3807	48.3306	18.5761	-2.4376	-23.7837	-6.0633	12.6096	2.4793	4.4480	10.0671	15.6783
6344.3052	-5.9758	-3.3312	25.1118	-6.1316	-1.2121	-17.4722	-4.6335	-1.4294	-5.2563	-26.7366	-6.2074	8.6594	1.2457	3.7534	-0.4268	-2.3266
6352.3056	-12.4566	-8.3646	18.4764	-14.5998	-12.5263	-21.4220	-14.1635	6.7926	-12.3848	-33.2729	-16.5797	-7.5210	4.0505	-3.2172	-10.0009	-11.9517
6360.3060	-15.5319	-7.3978	16.0045	-9.9580	-14.1291	-10.2690	5.5232	5.0495	-16.4165	-44.1597	-25.1995	-12.8448	6.5877	-8.6040	-9.2622	-9.6877
6368.3064	-14.3818	-3.4663	18.4554	-0.3892	-4.4906	-5.2554	12.5899	17.5432	-14.7119	-41.2721	-24.6732	-11.7206	5.8184	-2.6116	-9.0424	-2.3968
6376.3067	-0.9987	4.5356	23.2126	11.1071	-0.9111	4.4840	22.6359	42.9401	-1.3315	-9.8168	-7.2793	4.3767	0.3980	14.9015	11.0337	24.3274
6384.3071	6.3937	4.0161	18.8672	7.5552	-1.3289	-0.7930	16.5438	27.0096	-3.5481	-12.1267	-5.2640	2.4202	1.4487	12.1535	11.4964	21.5931
6392.3075	1.7457	0.0099	13.5466	-1.1696	-1.1022	-10.4350	-18.0823	7.2313	-10.3676	-25.7007	-13.2951	-7.2456	2.0633	10.2782	-1.1557	8.4169
6400.3079	3.6458	-0.9589	5.6679	-7.3015	-4.0131	-8.5716	-22.9027	-2.2965	-5.6161	-15.2726	-7.9833	-0.7433	0.8705	11.8666	0.5670	12.8409
6408.3083	-2.1210	-4.1601	7.6457	-11.2301	8.6701	-13.7346	19.2885	3.6363	-13.0808	-32.5893	-15.9195	-11.2658	5.2423	-5.3686	-4.6628	-1.3116
6416.3087	-4.3854	-3.7854	17.5895	-9.2149	17.2492	-19.7501	29.4861	13.9304	-13.4852	-34.6420	-16.4512	-13.0206	1.8803	-2.8703	7.6289	-0.8600
6424.3091	0.6030	-5.1993	8.5854	-13.9985	2.5310	-18.7735	14.1180	0.1867	-9.5630	-19.0586	-10.7059	-11.8048	0.2557	-3.9308	14.1971	2.3197
6432.3094	-3.6151	-4.2866	6.3274	-10.5039	-0.7383	-5.9962	15.7701	4.9247	-16.4643	-31.8466	-19.9992	-23.7010	4.9988	-15.4505	-0.5416	-9.3470
6440.3098	8.7798	7.6826	20.5679	11.0086	8.8870	8.5903	17.2863	14.6041	-4.9946	-17.4911	-4.2241	0.2559	0.2282	8.5053	13.6556	13.0526
6448.3102	-1.6086	0.5271	26.9487	-4.6277	-5.2587	3.4667	-2.5963	-13.3801	-8.2166	-25.8259	-10.3196	-1.2046	5.3338	-9.0255	-13.6853	-9.5304
6456.3106	-5.8509	0.2177	32.8380	-2.0399	5.5352	-3.4793	-7.8287	-12.3058	-12.7607	-40.4371	-13.3368	-5.1395	4.2700	-12.8905	-13.0318	-20.7546
6464.3110	-0.5704	-0.0710	31.0823	-2.3742	6.0186	-18.3422	-34.7268	-16.2897	-6.1684	-21.2391	-4.0141	0.7866	-1.6155	4.1928	-3.7376	-11.4487
6472.3114	-9.0346	-6.5685	20.2024	-12.2551	2.3584	-17.9981	3.0173	-24.0659	-11.3069	-30.0045	-14.3124	-8.7189	5.2049	-15.8031	-17.2045	-20.9373
6480.3118	-16.6538	-7.2080	24.6833	-6.4983	8.9245	-15.3240	36.9525	-11.3351	-18.4173	-45.6108	-26.9806	-20.8667	9.0454	-27.2621	-21.4459	-24.8828
6488.3121	-9.9301	-3.0105	27.8645	2.2573	-4.3036	-11.3490	3.3692	-9.5310	-9.2516	-18.5806	-17.9200	-13.4685	3.9372	-8.7501	-14.1757	-8.7838
6496.3125	-10.9253	-6.7921	24.9670	-6.9421	-21.9598	-14.3819	-4.1903	-8.1305	-10.8724	-21.4077	-19.2612	-12.2948	6.7081	-8.3289	-19.1012	-10.6526
6504.3129	-7.0129	-8.0833	29.1138	-14.0374	-9.2420	-26.0369	15.1558	11.9709	-16.4874	-38.5626	-19.7233	-12.9911	8.6380	-11.5272	-13.6966	-11.2804
6512.3133	-7.6990	-5.6736	27.1514	-17.5921	5.7761	-18.5490	-2.6614	11.7267	-12.8986	-30.4261	-17.3970	-13.4261	2.8396	-10.0122	-6.4998	-7.5122
6520.3137	-4.5078	2.0297	32.1935	-9.5589	5.5817	5.7096	-7.2099	2.7832	-10.3733	-25.6715	-15.1816	-11.3305	1.0008	2.0123	-7.6557	-9.4522
6528.3141	8.2001	10.0849	40.5984	9.2675	2.9062	14.3573	28.6438	14.9294	-3.5755	-14.9833	-1.7944	4.8224	1.8821	19.8332	1.5072	1.7953
6536.3144	-2.8246	1.8007	23.3450	2.7430	-6.6765	3.8301	9.5788	-3.2064	-4.0109	-12.5143	-8.2626	-0.9465	2.1295	5.5152	-4.2865	-1.3943
6544.3148	-7.0389	-1.3771	13.4005	-2.6752	-7.6373	0.5307	-30.6665	-20.7679	-5.6075	-10.4200	-11.8956	-9.2743	1.5595	-4.5227	-16.6677	-10.1876
6552.3152	0.1267	4.1667	17.5784	6.2972	2.5320	7.1444	-0.9245	4.1489	-0.0036	-0.6125	-2.6682	0.1901	0.6476	4.9747	-7.7866	1.5548
6560.3156	-8.2777	-3.8667	4.9471	-9.1936	-4.5473	0.0344	6.4776	-13.9342	-8.4066	-18.1158	-18.3348	-11.5651	4.1359	-3.7455	-11.5698	-0.4053
6568.3160	-10.6238	-9.5482	-1.5080	-22.0575	-14.0838	-11.1255	-20.1167	-33.0653	-12.1931	-22.6149	-23.9137	-17.1578	5.5893	-5.3955	-21.3685	-5.5115
6576.3164	-3.7880	-2.8656	6.7243	-12.7746	-7.0076	-0.8798	-0.6240	3.5820	-4.8951	-5.2443	-11.2307	-9.3226	2.7489	3.8815	-10.9443	1.5066
6584.3168	4.1465	2.7847	11.9662	-5.2969	1.1809	9.4203	16.9382	9.7984	-3.7522	-3.5778	-4.6691	-7.4771	1.6333	2.6711	-0.5192	0.7742
6592.3171	2.8554	-0.7277	10.3857	-5.9846	-4.2985	-3.4759	8.3491	5.8190	-2.0860	-6.3956	1.4949	2.1088	1.8834	-2.7046	0.9271	-4.3560
6600.3175	-6.4911	-8.2977	2.1608	-16.7265	-16.3514	-14.6656	-5.6376	11.0929	-6.8415	-14.9600	-4.1566	-4.7462	4.0978	-12.7461	-7.0840	-16.9960
6608.3179	-3.5357	-6.0529	1.9220	-17.6310	-11.6102	-9.3891	-15.3102	-7.8417	-6.0412	-11.7240	-2.5170	-5.7472	2.3028	-8.7314	-8.3351	-21.1609
6616.3183	1.9783	0.7449	6.8723	-4.6692	-0.1933	1.0683	1.7414	-6.2585	1.4918	-2.6230	6.5842	8.4700	-0.3390	2.4590	0.3651	-9.1132
6624.3187	-0.1974	4.7205	8.4380	2.1022	7.4594	16.6873	16.7224	3.3195	-2.2266	-4.6150	-4.8257	-5.3903	0.4446	3.6624	-2.7220	-2.4899
6632.3191	-6.6580	6.8475	11.0490	3.4557	13.8113	24.4911	0.6858	4.0209	6.2923	17.2927	-5.3120	-3.3768	-6.8604	18.2794	2.7048	12.5537
6640.3194	-13.8777	0.7896	7.2633	-4.2504	-3.0431	14.6629	-16.0835	9.1440	8.3998	18.7794	-5.5214	3.0987	-7.4826	17.7020	5.5670	16.7598
6648.3198	-14.3659	-3.7002	8.6978	-5.6125	-16.1069	7.3632	-3.4876	-7.1598	-6.0812	-5.3185	-20.9831	-18.2733	0.5937	-3.5706	-4.8711	0.3291
6656.3202	-8.2146	-1.4651	13.5719	0.0215	-5.4228	-0.1310	0.1778	-26.3255	0.0007	3.2628	-8.5678	-6.6152	-3.5679	0.5361	6.5871	-1.2578
6664.3206	-9.0668	-6.6626	2.6074	-12.6371	-4.6558	-15.4519	-23.4782	-28.5656	-1.4767	-7.5524	-0.7656	0.8349	-3.0285	-4.1432	1.2272	-18.6061
6672.3210	-21.6133	-10.5135	-2.3375	-12.3961	-1.3739	-15.6103	-5.7801	-9.2274	-10.0168	-21.6002	-14.7955	-16.9640	2.7020	-20.1182	-18.5862	-33.4856
6680.3214	-17.8677	-3.5754	5.3371	4.1163	7.8322	-2.2367	28.1253	8.2923	0.1249	-3.5411	-7.8748	-3.7044	-0.3465	-11.1572	-3.1394	-7.9596
6688.3218	-0.7030	-1.2732	7.5846	1.0191	3.4619	-5.1321	13.9367	-19.7972	-2.2891	-14.1665	-0.9635	4.9750	1.8257	-12.2407	2.3537	-5.5180
6696.3221	-1.2891	-8.2271	0.1887	-10.7806	-10.6140	-22.3122	-11.2832	-31.4059	-6.7865	-20.7520	-2.6284	1.0896	4.5725	-19.3746	-6.0469	-15.7022
6704.3225	-11.8080	-12.9657	-10.2098	-19.6317	-23.1676	-19.5499	-16.0588	-4.9545	-5.3055	-12.9709	-8.5502	-2.9963	3.9185	-19.0999	-5.5614	-6.9669
6712.3229	-17.8257	-9.2863	-5.1054	-13.7196	-7.1877	-2.6867	4.2024	1.6442	-12.4772	-26.0701	-23.4076	-20.5425	5.2248	-27.6651	-10.6384	-10.0917
6720.3233	-16.5248	-6.6908	-2.0242	-5.2627	5.4164	-9.2834	0.9002	0.8171	-7.1097	-17.2161	-16.2656	-13.1451	0.3739	-14.7932	-2.9854	-5.6840
6728.3237	-18.9939	-13.6087	-17.8068	-23.0708	-13.9250	-22.5195	-29.3685	-8.2919	-4.0012	-9.5306	-12.1380	-5.9159	-1.5564	2.6450	-3.3549	-5.1412
6736.3241	-22.3919	-13.9676	-18.5242	-26.1468	-12.8551	-13.5076	-3.8388	-11.6630	-13.6025	-22.1093	-26.9115	-26.1903	3.8273	-3.6970	-17.6445	-16.3716
6744.3245	-7.3289	-1.6949	-3.1709	-2.4476	-1.7512	4.1430	17.0022	10.2221	-8.5473	-10.6431	-16.9761	-19.5499	3.0592	2.6715	-8.0123	-1.4825
6752.3248	4.8152	3.3627	0.2580	2.3301	-10.3586	12.2766	-1.0338	1.5598	1.7560	3.1145	2.3791	4.8869	0.3713	9.5785	2.6943	6.5094
6760.3252	3.7783	-0.6744	-5.5576	-5.2041	-14.7021	7.1627	10.9649	-12.7725	1.6143	0.6218	6.0547	8.0584	2.6878	-1.7635	-0.2998	-6.0904
6768.3256	2.1625	-0.6405	-3.9728	-4.3435	-10.6388	5.8555	9.4037	7.1796	-1.9071	-1.7111	2.6048	-1.7292	3.3383	-6.0044	-4.2025	-10.8128
6776.3260	3.4255	2.0084	4.6275	-1.2585	0.2318	4.9371	-0.8448	10.6207	-0.4595	2.6602	4.0160	-2.9364	-0.3082	-2.5045	0.4746	-8.3238
6784.3264	10.4736	1.9077	3.2402	-0.2862	7.2672	-8.2419	9.9844	6.5583	4.2457	9.8266	11.9680	7.3736	-3.2706	6.8699	16.4113	5.7827
6792.3268	9.9746	2.6723	-2.7240	2.2134	3.5745	-3.8379	-3.2738	15.4862	3.0629	4.9730	7.7166	8.0588	-2.3082	11.9991	14.1063	16.5224
6800.3271	5.8625	3.2771	-4.8141	5.4435	0.5303	7.2939	-10.0209	10.0327	0.9148	-1.0266	0.2644	4.6678	0.5137	2.9771	3.4027	17.6843
6808.3275	5.2749	1.0940	-9.2790	5.0110	-3.8749	0.0328	-2.1297	9.2375	2.5744	1.9240	0.4936	8.4972	0.6239	9.2196	6.7426	25.3794
6816.3279	4.7127	1.4949	-13.3850	4.0561	-8.3415	1.3270	-15.2270	19.4119	2.8527	4.2026	1.5145	8.4461	0.2975	20.2210	1.8771	23.8561
6824.3283	6.8938	-1.5275	-21.0973	-3.6589	-12.1655	-0.2569	-18.3752	5.0923	-1.5261	-1.6893	1.9896	1.9623	4.3464	1.1070	-8.3843	6.2767
6832.3287	6.5587	-3.1873	-18.6868	-6.7374	-1.6643	-4.6899	8.3915	-9.9591	-5.2876	-9.9605	1.3663	-4.1033	5.4734	-14.7079	-6.0617	-9.5219
6840.3291	14.4077	9.7922	-0.6831	10.9338	20.9709	19.5853	36.8396	12.8249	5.6166	10.1827	17.4150	7.7661	-1.9580	-2.0484	14.0386	-3.3831
6848.3295	13.9121	13.8689	-0.4921	18.0351	19.0386	32.8312	36.8052	29.7070	20.2625	41.7016	29.1786	22.3544	-10.5172	9.9807	37.5918	19.2492
6856.3298	1.6883	5.5106	-11.0467	8.0811	7.1281	18.1188	17.6938	14.1958	19.2271	45.7133	17.8669	13.9798	-12.2313	15.2063	34.8153	23.7466
6864.3302	13.1948	5.0395	-17.9373	1.9383	1.8008	11.2070	4.1910	10.6520	9.7832	33.1901	15.2654	3.1434	-4.9358	16.1464	14.4126	12.9889
6872.3306	17.9269	3.0595	-25.7408	1.2425	-5.7745	7.9858	0.0769	9.1680	-0.8171	8.9567	6.8790	-3.9892	4.2268	2.0681	-2.2636	8.9326
6880.3310	11.1043	2.7262	-21.6943	9.4897	-4.0718	7.9563	-6.9135	-10.1482	-0.0540	2.7081	1.7834	0.9616	4.9180	-3.2953	-9.1100	11.7642
6888.3314	8.5438	0.6994	-28.4521	-0.3354	-9.2387	7.2463	-29.8287	-14.8399	9.7809	23.6189	13.6370	13.4181	0.0574	4.9503	-7.7884	10.1939
6896.3318	-10.9947	-13.4883	-47.2093	-24.9889	-16.7834	-12.4677	-41.2258	-22.5603	0.4380	12.9282	-2.1690	-10.1471	0.1087	-10.5340	-14.4021	-12.8326
6904.3322	-16.9924	-14.9100	-41.1015	-18.9089	-3.8138	-20.2132	-32.9446	-33.2544	-8.6930	-2.2739	-12.7539	-29.7746	0.9126	-28.9976	-17.7557	-32.1503
6912.3325	-11.4781	-7.8623	-33.6131	-8.9613	4.7855	-7.3745	-17.6845	-6.0577	-0.3513	7.8994	-0.5112	-13.3905	-2.3644	-18.4765	-4.3286	-18.8398
6920.3329	-12.3230	-8.5433	-39.7633	-11.7019	0.8274	-3.5168	15.4104	21.5296	-2.8763	-1.2245	-7.5903	-12.3811	0.4204	-7.9137	3.1471	0.1836
6928.3333	-0.7374	-4.1858	-37.9235	-2.7403	-2.4123	0.8297	21.8252	19.1373	-5.0414	-2.9684	-8.3262	-13.4045	4.0483	-2.8942	0.8395	11.0136
6936.3337	2.1748	-1.5765	-33.9857	-1.6325	3.8715	1.7328	0.5679	6.3958	2.7402	11.9953	1.8174	-2.6797	-0.4181	4.1245	1.6860	12.4423
6944.3341	1.2619	-1.2764	-30.8654	-2.9787	16.5803	-2.3457	5.0860	1.9920	4.3160	12.5870	7.7305	-0.7478	-4.2300	2.3407	9.9925	1.7201
6952.3345	11.9803	7.8733	-26.0864	12.5582	20.0555	14.9594	8.4421	21.8811	12.0383	25.3500	24.0609	12.6393	-7.5397	7.7279	24.4555	7.1317
6960.3348	14.7104	10.8335	-29.8464	16.1150	20.0996	23.8840	2.1744	17.1019	17.2312	36.1128	27.6451	19.0114	-9.3454	16.0267	26.1458	17.8075
6968.3352	9.5579	1.8788	-44.2211	0.1961	6.3971	9.4599	-16.4477	-22.1785	8.9641	25.8985	16.0622	4.5062	-5.1225	8.7733	8.7057	1.9192
6976.3356	8.3860	-0.9283	-50.7510	-4.0922	-10.5297	8.3119	-40.8154	-12.2204	6.8352	24.8110	16.6390	2.4080	-1.4396	3.3364	-5.7181	-7.8082
6984.3360	10.8857	1.5762	-42.9915	1.9626	5.5698	6.2501	-9.9060	13.6648	8.4325	29.3826	17.6232	2.4340	-0.8879	2.7987	-3.4248	2.7107
6992.3364	1.5728	-6.7204	-48.0056	-10.7661	16.0312	-13.2743	17.7103	-6.1295	6.3520	30.2006	9.2688	-8.5973	-2.6384	-5.9283	2.7503	-0.7467
7000.3368	-5.2145	-11.4216	-54.6697	-19.2676	13.8734	-20.1154	1.6469	-0.1849	3.3445	23.3419	6.3025	-13.3275	-3.2211	-14.2374	2.2520	-9.2498
7008.3372	3.6595	-1.5967	-42.6245	-3.6698	28.6245	-5.8835	13.4218	29.1143	4.8069	15.9516	12.6496	-2.5880	-4.0852	-3.7601	11.7276	2.5230
7016.3375	0.7674	-2.8159	-46.8597	-6.7540	16.0544	-1.2277	14.1297	11.0563	7.2438	18.6885	10.0170	2.2536	-6.0677	7.5742	20.7728	11.7394
