Time	Fz	Fpz	C3	C4	T5	T4	O1	O2	F7	F8	F3	F4	T3	T6	P3	P4
0.0000	115.9375	-8.4160	-8.2192	-10.3386	-28.0646	0.3878	-15.6231	14.2433	-0.3927	11.1085	43.6516	61.1467	-69.5650	11.2363	0.2442	40.1360
8.0001	11.5455	-7.3194	-7.3337	-25.7747	-10.8306	-14.1186	-18.6197	17.0757	7.8692	6.0973	0.6158	9.7393	-8.5464	12.5763	-29.9213	4.3735
16.0001	13.9987	-6.4709	-6.4816	-33.2274	-8.3355	-11.7433	-15.3489	18.0205	2.8626	5.6614	-2.4486	4.1136	-6.0330	12.5201	-28.1791	-6.4751
24.0002	6.0319	-5.9409	-5.9604	-32.9395	0.4283	-10.8180	-14.2925	18.3413	-8.8158	4.6868	-6.4456	-2.2564	-5.8041	12.7861	-26.6892	-0.0796
32.0002	5.5639	-5.3654	-5.3945	-30.5392	-23.7316	-9.9884	-12.0953	18.0727	-5.1590	4.4626	-2.4069	0.3132	-4.0031	11.9792	-25.2194	-4.0071
40.0003	9.0314	-4.6068	-4.6234	-19.4993	-27.8391	-8.4174	-9.6187	18.5787	-0.4261	4.3142	1.1222	3.8659	-1.5941	11.7120	-24.0443	-7.5023
48.0003	12.7102	-4.4090	-4.4125	-24.8586	-20.1898	-5.8194	-6.5464	19.4277	2.9004	4.0859	-2.4715	2.3059	-1.2856	11.5827	-23.4455	-0.2952
56.0004	23.0179	-4.0776	-4.0605	-27.1367	-28.8755	-3.8078	-3.5241	20.4945	-2.0618	4.7158	-2.3394	11.6221	0.9327	11.3505	-22.7815	-5.7622
64.0004	22.1061	-3.7239	-3.6927	-16.4206	-15.2656	-3.2002	-3.2506	21.6751	-7.1086	4.4358	-8.7303	15.6786	0.6965	11.1328	-21.3842	2.4576
72.0005	20.3979	-3.4537	-3.4425	-28.1861	-37.8201	-1.3662	-0.0925	22.5922	-3.2929	3.9773	-5.1940	8.0327	1.1211	10.8842	-19.3851	6.7464
80.0005	20.2376	-2.5828	-2.5901	-34.4192	-69.2246	0.2074	3.2007	22.9240	-13.9175	3.6284	4.6324	3.5665	3.2674	10.2722	-17.9186	-10.0064
88.0006	27.0882	-2.0798	-2.0692	-37.2596	-54.6030	2.7289	5.7595	23.8631	-18.1329	3.5444	8.3303	-3.4667	4.2792	9.7324	-15.8025	-14.4594
96.0006	37.9879	-1.1526	-1.1225	-45.7903	-48.1556	5.8010	9.8704	23.8478	-1.4282	3.6327	24.5553	-2.6699	8.5426	10.0292	-12.2366	-20.2982
104.0007	34.0384	0.0029	0.0489	-28.4757	-28.8455	5.9512	9.8586	21.5269	0.7045	2.8664	33.8083	8.7846	10.5032	9.7608	-10.4594	-20.6922
112.0008	31.1438	0.0436	0.0955	-27.0735	-24.6791	6.7127	10.7630	20.3893	-10.7524	2.5605	36.4482	14.8306	10.2744	7.7160	-10.7188	-10.0107
120.0008	24.3431	0.4536	0.4812	-41.1550	-49.5630	7.9177	13.8050	19.4627	-13.3535	1.8144	33.0575	15.3633	12.2771	5.1027	-10.3235	-9.7659
128.0009	18.3437	1.1176	1.1459	-35.0853	-38.9333	8.6009	14.7982	17.3319	-8.4555	0.8791	22.7249	16.3525	13.5593	3.8067	-8.6866	-6.0245
136.0009	16.6645	1.9779	2.0032	-36.5843	-39.8286	10.1914	17.1904	15.2669	-8.8568	0.1548	30.1510	12.8640	15.6229	2.1580	-6.7091	-12.9443
144.0010	5.1672	2.7369	2.7370	-31.9902	-47.0616	10.2392	17.7600	12.7167	-12.1027	-1.1855	26.7216	2.3034	15.9253	-0.0483	-5.2681	-20.0373
152.0010	4.8776	2.4752	2.4885	-21.0028	-31.5747	10.0381	16.9910	10.7774	-9.6964	-1.1393	16.7971	5.5713	15.6655	0.0815	-3.5843	-2.6789
160.0011	1.8105	2.9982	3.0102	-29.3312	-32.0267	10.5884	18.1672	8.9544	-12.2740	-1.5552	14.2341	16.4314	17.1564	-0.8873	-1.9560	-0.2528
168.0011	-9.3927	3.6219	3.6123	-37.1114	-31.5582	10.1641	17.7736	6.7517	-17.0979	-2.7780	2.5780	14.0818	16.2846	-3.7263	-1.0137	-9.5636
176.0012	-11.8329	3.5055	3.4786	-43.5048	-38.4886	9.3606	16.9984	5.1584	-12.9726	-2.8718	4.5584	7.1027	16.3935	-3.7692	0.0378	-13.0470
184.0012	-13.0438	3.4119	3.3748	-39.7956	-39.9581	8.9782	16.4968	3.4115	-8.9958	-2.9870	9.3523	-4.6119	16.5263	-2.8161	0.5323	-15.8092
192.0013	-10.6727	3.1091	3.0953	-20.1248	-16.9909	8.7189	15.1060	1.5246	-10.9094	-2.7880	12.6140	-5.3547	15.6935	-3.5617	0.4314	-6.0344
200.0013	-18.9403	3.5353	3.5171	-15.2955	-13.3307	7.8910	14.4296	-0.6855	-10.2876	-3.4626	15.8698	4.9326	16.5497	-5.0407	-0.1000	-2.7608
208.0014	-21.6602	3.7367	3.7199	-8.4026	-2.9562	7.7077	13.7209	-2.3974	-5.4772	-3.9797	6.5592	-0.0955	15.2791	-5.6118	-0.8947	-10.9042
216.0015	-12.9716	3.1647	3.1706	16.4370	4.3789	6.9631	11.7946	-3.2226	-4.7808	-3.0775	7.1517	-5.0154	13.5021	-5.3574	-0.7524	-10.4863
224.0015	-19.0765	2.7710	2.7530	24.6357	-13.3846	4.9561	9.6170	-3.7065	-0.1630	-3.1413	0.6859	-10.7996	11.7774	-5.0340	0.2675	-5.0641
232.0016	-18.0252	2.5417	2.5274	18.2996	8.3072	4.7366	8.2211	-3.7494	7.6772	-3.1870	-2.5955	-18.2175	10.1103	-3.6621	1.1758	-3.4457
240.0016	-16.8574	3.0285	3.0304	20.3771	26.4429	5.0302	8.0288	-4.4667	4.0244	-3.3049	16.5812	-10.3272	10.7115	-2.6330	0.2045	-7.8673
248.0017	-13.1678	2.8604	2.8643	22.7821	12.2036	5.4473	8.6115	-4.1684	3.7273	-2.9699	21.5588	-8.0954	9.0384	-2.1441	-0.4804	-8.4386
256.0017	2.5781	2.3440	2.3840	27.4114	34.3585	5.9493	7.6091	-3.7956	10.6046	-1.7725	20.3070	-9.2043	7.1685	-1.1884	1.1377	-9.5328
264.0018	2.4042	2.3544	2.4020	35.3551	40.4660	4.6605	5.7574	-4.8751	11.8917	-1.5744	18.6306	-0.1672	6.9255	-0.9054	1.4272	-8.8703
272.0018	4.1644	1.5496	1.5835	29.8570	10.5218	3.6600	5.1423	-4.4792	12.1309	-0.7926	17.7278	5.8280	5.0788	-0.1975	1.6283	1.3884
280.0019	6.9269	1.3201	1.3580	22.4624	19.5732	3.1148	3.9404	-4.8589	14.4610	-0.4752	18.1595	6.6578	4.4624	-0.0010	2.0423	-0.9665
288.0019	6.9747	1.1330	1.1756	20.8605	25.2841	3.1637	3.9644	-5.3149	19.4063	-0.5190	10.5363	7.3380	4.4673	-1.2744	0.1780	-2.6525
296.0020	13.0071	0.6069	0.6523	17.5977	11.3504	3.9659	5.1713	-4.4381	16.4250	0.1396	18.4463	5.8889	4.0936	-1.8048	-0.1104	3.1206
304.0020	10.2069	0.8957	0.9428	25.4658	26.0837	3.4664	4.0667	-5.3488	10.7164	-0.1970	20.6973	0.5951	4.4705	-1.5941	0.2029	-2.0113
312.0021	16.1177	0.2633	0.3228	32.2890	24.7922	3.0054	3.2932	-4.8903	20.0046	0.5440	16.1331	3.4155	3.4946	-0.7574	-1.4934	1.4050
320.0022	18.6903	-0.2893	-0.2375	28.5281	11.2191	2.9636	3.3659	-3.6118	24.5338	0.9733	21.5041	-1.6844	2.2171	0.5589	-2.4131	4.9788
328.0022	13.0519	-0.4028	-0.3659	34.3517	14.8953	2.8561	3.1020	-3.6121	19.4839	0.4259	7.6773	-21.3440	1.8316	1.5980	-2.7964	2.7026
336.0023	15.0308	-0.8399	-0.8019	38.5551	3.2156	2.2968	2.6154	-3.0276	18.0558	0.9240	-3.0659	-16.6870	0.8626	1.4732	-2.8347	8.0063
344.0023	10.6386	-0.7451	-0.7106	36.6746	11.2232	0.9970	0.6420	-3.3852	16.3957	0.7052	-3.7695	-10.8230	-0.0758	0.9666	-2.3768	8.2131
352.0024	12.0403	-1.2901	-1.2467	38.3117	29.3883	0.4832	-0.6374	-3.7768	14.7734	1.0153	-3.3516	-15.4776	0.0359	1.6415	-3.6166	13.6436
360.0024	4.5353	-1.3312	-1.3046	29.5182	11.9797	-0.5791	-1.1470	-4.6886	9.1896	0.7417	3.9351	-2.3452	-0.6029	0.4741	-6.2427	14.4596
368.0025	-8.8923	-0.8245	-0.8226	21.3850	15.6807	-1.9624	-2.9734	-6.5635	8.7250	-0.5629	-5.1103	-3.7275	-2.7156	-1.7637	-7.6121	0.0677
376.0025	-6.8574	-1.4553	-1.4490	22.2846	29.9700	-3.0485	-5.2292	-7.1828	16.7131	-0.2452	-13.8840	-10.3146	-4.5513	-1.8404	-7.9037	0.6780
384.0026	-14.7067	-1.8094	-1.8222	15.5995	21.0379	-5.0898	-7.3890	-8.4029	16.9399	-0.3795	-16.5845	-2.4551	-5.8487	-0.7538	-9.7573	4.5121
392.0026	-17.5737	-2.4490	-2.4723	11.9919	22.6362	-6.2450	-8.9158	-9.2054	15.9721	-0.2840	-22.1525	-9.4954	-6.8194	1.3991	-13.0432	2.0676
400.0027	-17.4749	-3.3692	-3.3995	11.0860	12.2552	-6.5908	-9.2477	-8.5137	12.2978	0.1262	-22.0069	-15.2588	-8.4098	1.9274	-16.0868	9.4425
408.0027	-17.5312	-4.5306	-4.5645	-7.6189	13.9263	-8.4116	-11.8920	-7.5345	3.6085	0.8893	-29.6223	-6.7683	-10.9396	2.4414	-19.3962	14.9596
416.0028	-101.0693	2.0569	1.9023	32.3224	58.4503	-10.7658	-14.7547	-47.2620	27.6397	-9.6023	-26.7918	-33.3759	-9.4398	-26.6647	10.1777	8.5877
424.0029	-77.4187	-0.9543	-1.0813	36.9921	56.4108	-15.5974	-23.7011	-42.2128	27.3874	-5.8348	-25.8314	-25.8974	-20.1458	-19.4561	9.4829	21.8550
432.0029	-67.4896	-1.4023	-1.5196	36.9173	46.3044	-16.6953	-24.7128	-41.6252	28.8556	-4.4611	-15.2337	-18.5355	-18.5396	-15.5994	7.7940	13.2646
440.0030	-60.1598	-3.3159	-3.4377	24.4510	23.8655	-19.2150	-27.5264	-39.1993	42.6862	-2.6322	-18.1173	-8.3070	-21.0005	-12.4913	3.3411	25.0850
448.0030	-60.4396	-4.5279	-4.6493	21.3793	39.2717	-22.3168	-33.2152	-36.1615	34.6577	-1.8808	-32.2101	-7.9384	-27.6139	-9.2623	0.9126	27.5179
456.0031	-47.3726	-4.7032	-4.7963	19.7324	54.5369	-20.8703	-31.7866	-32.0074	33.9780	-0.8375	-21.3115	-9.9569	-24.9384	-5.7329	-0.6095	24.5821
464.0031	-37.3737	-5.2401	-5.3329	13.9322	30.1797	-20.3946	-30.5295	-26.0367	37.2197	0.4188	-0.2603	-10.0307	-23.9234	-2.6400	-2.0146	27.4175
472.0032	-36.5958	-5.0630	-5.1610	15.6829	15.1406	-19.9723	-29.4597	-22.1387	16.9870	0.6124	-6.6505	-13.8913	-23.2828	-0.8206	-3.5392	16.1997
480.0032	-26.3224	-5.8286	-5.9178	8.9812	7.2395	-19.1956	-28.0784	-17.3329	8.5214	1.8970	-14.4446	-18.4685	-21.1529	1.9367	-4.4649	20.3773
488.0033	-25.3633	-5.9604	-6.0513	1.6897	5.3186	-19.4682	-28.5911	-14.0895	17.6182	2.0515	-5.2684	-15.2310	-22.2991	1.5186	-5.0199	22.5450
496.0033	-28.9539	-4.8297	-4.9101	7.5574	33.3966	-19.2526	-29.1336	-14.1288	23.4640	1.0873	-3.5809	-14.6213	-21.8054	0.5409	-3.8725	9.4241
504.0034	-41.9129	-4.4085	-4.5171	5.3294	33.7241	-20.3311	-29.6168	-15.7769	16.7122	0.0608	-12.4086	-24.3070	-19.0097	0.4101	-4.5163	1.8175
512.0034	-53.6079	-4.5022	-4.6388	6.2871	3.0030	-20.6907	-28.1671	-18.5142	13.8650	-0.7655	-19.1397	-24.6991	-17.8221	-3.2600	-10.8391	-6.9423
520.0035	-46.5370	-5.3975	-5.5138	21.1901	0.5121	-21.5829	-29.6449	-18.8652	24.6824	0.1953	-20.9897	-16.6812	-19.9803	-3.6002	-13.9744	-1.1650
528.0036	-51.4694	-5.9367	-6.0599	20.5745	11.5356	-23.3133	-32.4231	-19.4604	24.8436	0.1724	-21.2471	-17.6734	-21.8494	-2.4364	-14.5560	8.4954
536.0036	-54.1683	-5.9600	-6.0837	11.0973	26.1345	-22.2317	-31.3333	-20.0143	22.5680	-0.3621	-16.1376	-25.6597	-21.5008	-3.2427	-17.3060	6.1160
544.0037	-49.2583	-6.4939	-6.6119	14.3697	32.8063	-22.8820	-32.7082	-18.5891	20.0322	0.3075	-12.8642	-33.6750	-21.9360	-1.2087	-18.3868	3.3310
552.0037	-47.8606	-6.8053	-6.9298	15.8717	12.6365	-23.9581	-33.3333	-17.8449	13.7773	0.8877	-14.4125	-29.7698	-21.7367	-0.1361	-20.9621	-5.6512
560.0038	-39.2641	-7.2865	-7.3941	13.6788	5.2287	-23.7671	-33.1155	-15.4233	17.6777	1.8484	-12.3531	-17.7338	-22.7980	0.9622	-23.4838	-4.7788
568.0038	-37.4594	-7.9021	-8.0076	16.8633	1.9925	-24.7724	-34.5185	-13.2332	15.8379	2.5244	-13.0503	-13.7041	-23.7934	3.3290	-23.5991	7.9734
576.0039	-30.8924	-8.2983	-8.3910	16.1486	-3.5577	-23.8764	-32.7328	-12.5702	16.0272	3.2915	-6.1067	-8.2534	-20.8948	3.6470	-24.6277	17.6733
584.0039	-21.9617	-8.3963	-8.4593	6.4507	22.3823	-22.8582	-32.2684	-10.1294	17.8669	3.9022	-2.8593	-0.4559	-19.8401	4.2168	-25.4201	18.8536
592.0040	-15.3664	-8.0288	-8.0794	-2.6601	25.3803	-21.3102	-30.3191	-7.2014	11.4041	4.1390	-10.5139	-0.0949	-18.6820	5.1899	-26.4633	3.2596
600.0040	-4.4162	-8.0985	-8.1429	1.6413	1.7201	-20.3783	-28.3577	-5.1392	20.2751	5.1200	-3.7433	-0.2541	-16.8124	7.3853	-25.3004	0.8433
608.0041	-10.8948	-8.2606	-8.3182	5.8997	-2.6485	-22.2246	-30.4936	-5.1542	18.4709	5.0366	-8.8633	4.0158	-17.4449	8.5302	-24.4104	9.9733
616.0041	-5.7101	-8.4267	-8.4713	-3.3097	-11.5029	-20.1674	-27.0035	-3.7743	8.6036	5.4279	-17.3816	11.4772	-15.0772	7.7668	-27.9888	8.9320
624.0042	9.8338	-8.7599	-8.7732	-9.0776	-5.5095	-17.8689	-24.5268	0.8266	21.9462	6.5174	-7.2408	15.4130	-14.4785	10.0372	-28.9119	15.0392
632.0043	13.3111	-8.0434	-8.0503	-19.4204	-5.3138	-15.8059	-22.2361	5.1055	18.5561	6.2672	-3.7787	17.1737	-15.3985	11.2432	-28.2838	6.7205
640.0043	35.8572	-7.1015	-7.0801	-34.8061	-36.6385	-10.0889	-13.9317	12.0902	2.0856	7.4326	5.9013	23.5186	-11.5307	13.6560	-26.3885	-9.4988
648.0044	59.2954	-6.4826	-6.4164	-35.6692	-33.5126	-6.2727	-9.6369	20.6394	-2.0579	8.9663	13.8566	31.2669	-9.1510	20.0086	-20.9419	-4.6436
656.0044	72.3865	-5.0353	-4.9344	-41.3795	-31.5856	-0.1765	-1.6513	28.0873	-10.1058	8.9000	17.3679	35.8296	-5.2515	21.5464	-17.8738	-4.1714
664.0045	82.2305	-3.4033	-3.2924	-47.7682	-56.6257	6.9837	8.8524	35.8217	-18.1884	8.4085	19.5866	26.1969	0.2104	21.6545	-12.9946	-3.4720
672.0045	79.9333	-1.4995	-1.3935	-45.4908	-62.6103	10.9592	14.4456	39.1892	-29.0965	7.0454	3.7904	15.2492	3.0844	21.1529	-6.0114	-9.7227
680.0046	76.6798	1.3493	1.4607	-52.4231	-66.3030	16.5795	22.9269	38.0394	-35.8433	4.9694	11.2653	18.8116	9.3242	15.8261	-2.3181	-32.7556
688.0046	68.2248	3.1473	3.2589	-47.6784	-50.5051	19.5754	27.0993	36.1640	-27.8360	3.0473	24.7467	15.2186	13.3887	12.2707	1.4866	-30.5145
696.0047	65.3146	3.7770	3.8979	-36.2694	-39.5752	21.4338	29.3191	34.7665	-29.0568	2.2042	19.1396	12.3607	14.4586	9.0733	4.4095	-20.3005
704.0047	65.4009	5.0009	5.1158	-45.0071	-65.9784	24.7906	35.1941	34.4678	-34.2858	1.5317	26.5862	18.2936	18.4520	5.9568	7.7396	-22.0626
712.0048	49.2687	6.1165	6.1980	-52.7974	-60.6408	25.2526	36.4164	31.5989	-31.5386	-0.3199	21.6508	8.2399	20.9749	5.8624	12.8026	-15.0074
720.0048	31.6868	7.0870	7.1506	-50.8458	-33.5516	25.6387	36.7448	25.7108	-35.6308	-2.4986	9.8953	-4.6289	22.5093	2.0022	14.8707	-14.8287
728.0049	13.5524	7.7901	7.8317	-48.4587	-18.5215	24.4567	35.1370	19.8397	-36.2885	-4.3374	6.4365	-6.3709	21.8804	-2.2769	15.9039	-14.4722
736.0050	3.1890	7.5313	7.5504	-47.3879	-15.2042	21.9160	31.6547	14.5369	-24.4626	-4.9498	3.2695	-8.0588	19.5854	-2.8751	17.5895	-7.3236
744.0050	2.9495	7.6410	7.6533	-40.3640	-35.6896	21.2944	31.6652	10.6985	-20.5349	-4.8624	10.8873	-2.3672	20.1779	-4.6209	18.1798	-11.4136
752.0051	1.5373	7.5514	7.5708	-25.8482	-43.4843	19.7327	29.8698	7.8106	-25.2338	-4.5915	8.9422	14.7469	19.0371	-5.2359	17.5498	-8.2250
760.0051	3.0122	6.8032	6.8263	-30.2978	-37.1093	18.0706	26.9709	5.3345	-22.7280	-4.0487	8.4914	22.3151	15.9137	-4.8963	17.4641	-1.4466
768.0052	-0.4310	6.7273	6.7346	-43.5993	-25.6146	16.6495	24.3021	3.7802	-21.2735	-4.3184	15.5866	13.1441	13.8869	-5.1071	19.1293	-9.4043
776.0052	1.1053	6.6577	6.6689	-36.9261	-15.6748	15.5748	22.3788	2.8525	-23.6950	-4.0736	16.1472	9.1320	13.5672	-3.8937	19.5473	-16.1351
784.0053	4.3283	6.5702	6.5820	-25.3714	-31.9817	14.8979	21.9885	2.3924	-18.7400	-3.5939	22.8819	11.8892	13.8937	-4.0484	19.6859	-18.6350
792.0053	-0.1128	6.5986	6.6089	-12.2742	-20.2899	13.2775	19.2312	1.8392	-15.3265	-3.8790	22.0557	9.4370	12.1687	-4.3818	20.5437	-17.2523
800.0054	3.9057	5.9400	5.9722	5.3738	3.2509	12.8786	17.6481	1.2812	-16.5185	-3.3475	23.4461	4.3182	11.6434	-3.0072	20.2465	-2.9793
808.0054	3.1448	5.4468	5.4735	14.4060	-2.5834	11.7118	16.0806	0.7209	-15.1552	-3.0476	26.2760	1.2814	10.6700	-3.6307	21.7642	8.2832
816.0055	0.3685	5.7531	5.7832	18.0747	12.2231	10.3077	13.4885	-0.1979	-13.1710	-3.3625	17.6317	5.3311	8.8145	-5.6215	23.2262	0.3086
824.0055	4.4943	5.8877	5.9278	20.0753	17.2933	11.1304	14.6297	-0.7969	-8.5047	-3.2433	20.9423	2.6879	10.6472	-5.2816	22.0725	-6.8841
832.0056	5.6173	5.1985	5.2370	23.2022	16.9389	10.5014	13.7186	-1.4651	-5.5966	-2.8261	17.7338	-2.1352	10.0596	-3.5694	21.5776	2.3629
840.0057	9.0046	4.5457	4.6054	27.9221	35.9659	9.4808	11.2675	-2.2399	-3.4041	-2.2879	11.4998	7.5733	7.2389	-4.0616	20.8018	12.2065
848.0057	5.4414	4.3694	4.4101	24.3182	19.5093	8.6717	10.7939	-2.7233	3.3266	-2.4230	13.7277	4.3660	6.6157	-4.7160	20.0960	9.5619
856.0058	0.4914	4.3477	4.3642	21.3736	12.0207	6.7972	8.5066	-4.0005	4.0854	-2.6444	3.3988	-5.5554	5.5765	-3.9761	21.0193	-3.9538
864.0058	3.4862	4.0263	4.0513	24.7908	16.7243	5.8475	7.1903	-5.1670	5.1377	-2.1320	2.0550	-1.4375	6.0914	-4.4028	20.6612	-4.5863
872.0059	1.9797	3.0470	3.0649	27.9288	7.5720	4.7830	6.2295	-5.8273	6.4060	-1.6630	5.3630	-2.4895	5.8670	-4.2047	18.5809	11.1971
880.0059	-1.6113	2.8408	2.8769	35.4748	49.8133	3.4183	2.4636	-7.6796	-0.4540	-2.0343	-2.1523	-2.2002	1.9960	-4.8134	16.6826	9.4985
888.0060	-7.1943	2.8485	2.8802	32.5987	69.5310	1.5817	-0.8743	-9.1405	4.7708	-2.5337	-7.1199	-3.2819	-0.6571	-6.9023	16.2744	0.7523
896.0060	-11.8260	2.0105	1.9981	20.7765	32.1322	-0.7243	-2.5554	-9.7642	10.2933	-2.1847	-9.5997	-14.8696	-1.1484	-6.3308	16.1306	-2.3471
904.0061	-10.7137	1.8620	1.8579	27.2286	34.2238	-1.0903	-3.0774	-10.9152	1.4800	-1.8911	-1.4537	-10.0271	-0.9702	-5.3687	14.2173	-2.6555
912.0061	-11.3286	1.1707	1.1717	30.3428	34.1029	-2.4636	-4.7946	-11.4157	6.5050	-1.3657	6.9043	3.3957	-1.7079	-4.5630	12.7898	16.2295
920.0062	-15.5745	-0.0719	-0.0997	24.9823	17.5289	-5.7644	-8.8139	-11.7549	15.9378	-0.8257	0.8092	-2.5857	-4.4743	-3.9325	11.9758	22.4606
928.0062	-17.7710	-0.2954	-0.3231	30.8170	28.6750	-7.1770	-11.2483	-12.0286	12.1105	-0.8723	-4.7192	-7.5862	-6.1268	-4.1218	9.8226	12.7375
936.0063	-17.0105	-0.6960	-0.7217	27.6805	24.7072	-8.3193	-12.5307	-12.2536	10.2459	-0.3682	-5.4545	3.2960	-6.5969	-2.8374	7.8841	14.1937
944.0064	-17.2529	-0.8916	-0.9205	30.6442	19.7407	-9.7393	-14.4581	-12.9329	11.9504	-0.1625	-1.7655	5.8120	-8.1863	-3.3891	6.3110	5.5938
952.0064	-14.0539	-1.2061	-1.2229	42.8483	24.3796	-10.1322	-15.2517	-11.9280	14.3908	0.2535	6.0156	5.4671	-8.3396	-3.4647	4.5767	7.7734
960.0065	-17.1653	-2.0701	-2.1057	31.3671	8.6858	-11.5606	-16.4069	-11.0176	16.6896	0.6687	0.5619	7.8055	-8.9974	-1.5744	2.5656	17.5460
968.0065	-20.4224	-2.1648	-2.2059	29.8136	18.8632	-11.7155	-17.4270	-10.4625	20.3624	0.1375	-8.6131	-3.2072	-12.0781	-2.3682	0.8641	9.1308
976.0066	-10.4873	-2.2871	-2.2994	38.4395	35.4754	-10.3049	-16.2643	-8.4981	23.9991	0.8106	0.7394	-4.1645	-10.5453	-0.9949	1.7893	18.7311
984.0066	-16.1315	-2.5095	-2.5552	21.4924	0.3663	-11.2303	-15.5519	-7.7788	17.7140	0.9837	-5.3735	0.8327	-8.1745	0.6083	2.2961	24.1781
992.0067	-19.3811	-2.3194	-2.3791	13.9765	-14.5969	-10.9141	-14.8567	-6.6753	14.7677	0.5162	-23.3109	-1.8383	-10.3169	-0.7859	0.8843	10.1592
1000.0067	-8.8346	-2.2309	-2.2505	18.0672	19.5936	-9.6298	-14.7243	-5.5632	17.5616	1.0293	-14.8961	3.1403	-10.4434	0.2848	1.1090	11.8981
1008.0068	-16.5475	-2.4593	-2.5022	1.7320	24.1062	-10.6124	-15.8508	-5.9181	10.5397	0.6347	-12.2377	-5.0333	-9.9693	1.1025	0.3567	12.1566
1016.0068	-17.4562	-2.7619	-2.8237	-12.5446	1.8517	-10.1874	-14.3691	-4.5965	6.4322	0.7358	-8.7150	-9.9255	-9.3419	0.9929	-1.7339	8.5885
1024.0069	-8.5907	-2.6257	-2.6699	-7.6644	-8.3778	-9.5632	-13.0785	-3.1181	8.4824	1.5633	5.8156	1.8324	-7.1828	1.4044	-1.5750	8.2258
1032.0069	-5.1143	-2.7199	-2.7637	-4.8681	-19.5272	-9.4465	-12.7221	-1.2028	5.2129	1.9384	-0.6956	-0.1063	-7.3675	1.4209	-1.5144	3.4675
1040.0070	-4.7644	-2.5853	-2.6246	-12.3845	-13.7122	-8.5139	-11.5652	0.3302	2.0963	1.8189	-5.9436	1.9666	-6.9929	2.7234	-2.6231	3.0035
1048.0071	-11.9437	-1.9040	-1.9422	-13.3505	7.7621	-8.6291	-12.1520	0.3327	0.7112	0.9107	-9.9411	5.2176	-6.8181	2.8737	-2.6214	0.3440
1056.0071	-4.8156	-1.6693	-1.6955	-9.6304	-3.1337	-7.1201	-10.0170	2.8782	-1.2917	1.3116	-11.2445	8.0576	-6.3695	2.9550	-1.6777	-1.5804
1064.0072	3.3188	-1.2812	-1.2921	-12.8306	-20.9148	-4.7184	-6.0498	4.5466	-1.0817	1.7634	-4.1684	21.2433	-4.1759	4.1941	-2.0906	-0.5417
1072.0072	3.1601	-1.0961	-1.1013	-15.3681	-8.4172	-2.9349	-4.3600	5.0837	0.5751	1.1910	-11.8919	12.4168	-5.2177	3.5342	-2.7026	-1.8166
1080.0073	9.4293	-0.9005	-0.8945	-14.0871	-4.3868	-0.3832	-1.4652	7.0358	-0.0799	1.2162	-4.2892	1.5461	-4.4298	3.3188	-0.4691	3.7213
1088.0073	9.9586	-0.2687	-0.2645	-7.1849	-19.9189	0.7267	0.7107	7.5942	-2.5629	1.0904	7.4196	4.6344	-2.4529	4.3429	1.5809	6.4143
1096.0074	12.3229	0.1144	0.1243	-3.9405	-19.7910	2.2298	2.4612	8.5254	-1.8908	0.8469	3.3132	-0.3054	-2.7496	4.7521	1.9989	1.3294
1104.0074	8.3443	0.9116	0.9180	-16.0917	-9.7978	3.6878	4.5241	8.5218	-0.6033	-0.0515	1.9555	-1.7380	-0.7157	3.4273	2.5386	-5.3267
1112.0075	5.2654	1.2367	1.2391	-19.3622	-9.2538	3.8693	4.7697	8.5480	-4.4475	-0.5159	-9.3403	-1.8419	-1.1732	1.2894	2.7744	-12.6294
1120.0075	15.2845	1.4331	1.4568	-12.1041	-9.2351	5.6708	6.4795	10.5575	-7.6937	-0.0313	-5.8484	-3.0528	-1.8992	1.1751	4.7756	-14.0556
1128.0076	13.7268	1.9713	1.9823	-16.3039	-23.4520	6.2082	7.9766	10.7789	-7.6663	-0.2652	3.1075	-3.2786	0.2563	1.5726	7.3025	-14.5891
1136.0076	20.2587	1.6983	1.7088	-18.1770	-47.6560	7.2961	10.2079	12.3203	-11.7950	0.4330	1.0064	-3.9000	1.4918	1.8039	7.9847	-11.8437
1144.0077	28.8597	2.2146	2.2568	-17.1217	-34.5542	10.5692	14.4241	13.4732	-12.7591	0.5900	10.5834	2.5539	5.2010	1.3577	8.8848	-3.5622
1152.0078	25.8098	2.6758	2.7225	-24.4119	-14.2362	11.0198	14.7409	12.1694	-6.2513	-0.1089	-3.4136	2.6857	6.2621	-0.9812	9.0009	-10.9201
1160.0078	29.4644	2.6890	2.7387	-21.3051	-20.1132	11.3103	14.7845	12.6267	-8.6325	0.0126	-18.4954	-2.1385	4.2160	-2.2052	9.2978	-23.4016
1168.0079	27.1726	3.3941	3.4546	-8.5343	-8.2999	12.7030	16.3355	12.2180	-12.9399	-0.5673	-6.1364	0.1056	5.5445	-1.6850	11.8718	-10.0173
1176.0079	30.1428	3.2830	3.3537	-7.1185	-4.0354	13.2177	17.0177	11.7281	-7.1209	-0.2836	-3.3857	5.5337	6.7980	-1.3384	14.0027	5.3913
1184.0080	32.9113	3.4804	3.5420	-11.5387	-29.7893	13.7890	18.7390	11.1629	-5.9373	-0.0917	-2.1747	6.7874	7.9896	-2.6339	15.0727	-2.5531
1192.0080	29.9128	3.8137	3.8711	-11.2199	-29.1064	13.8379	18.6845	9.4530	-7.8547	-0.5088	4.6720	7.6477	7.5241	-3.9415	16.5879	-2.3728
1200.0081	33.9351	4.0753	4.1542	-7.8207	-13.5158	14.1462	18.3085	8.7529	-4.7441	-0.3039	15.0346	20.9175	7.0249	-3.4371	19.0150	7.3557
1208.0081	21.2123	4.7328	4.7916	-4.7001	-5.4916	13.3724	17.7750	5.4494	-5.8464	-1.5223	11.4995	15.5215	9.1597	-4.1318	20.5706	7.3077
1216.0082	11.5122	3.6972	3.7300	-10.4103	7.0346	11.1004	14.4579	2.1831	-10.7608	-1.8494	-3.2280	-4.4874	7.8359	-4.9062	19.6276	13.0284
1224.0082	1.0044	3.8898	3.8995	-18.9965	-2.7773	9.6375	13.2486	-1.7346	-12.5225	-2.5540	6.8643	2.8500	7.4648	-6.4182	17.8733	7.9155
1232.0083	-27.0984	4.6657	4.6229	-11.9714	-11.7403	5.7583	9.4018	-10.9519	-9.1372	-4.8416	2.2686	2.0131	6.7775	-11.3185	15.5464	-10.2467
1240.0083	-24.1600	2.4519	2.4171	1.6484	13.2901	0.9429	1.2551	-15.0091	2.6936	-3.5648	-16.0133	-6.7239	0.7490	-12.1083	13.4729	-2.2053
1248.0084	-0.6626	0.8440	0.8537	3.3875	23.4971	0.2267	-1.1361	-11.0000	13.1787	-0.8145	-7.3365	6.1000	-1.7915	-6.4727	13.7702	16.1051
1256.0085	5.2930	0.7380	0.7476	-5.6549	9.3699	0.3096	-0.6621	-8.8642	1.8950	0.0125	-0.1070	11.4236	-1.1435	-2.6756	13.8468	12.2703
1264.0085	-11.2065	1.5970	1.5732	-13.3849	1.4763	-1.1494	-1.2087	-13.3707	-15.2397	-1.3543	1.9428	12.0802	1.6647	-5.6520	11.4188	-9.8544
1272.0086	-36.9156	2.0908	2.0251	-4.8807	2.2490	-4.5098	-4.1382	-21.9468	-8.1512	-3.4003	-2.8940	9.0263	3.9444	-11.8706	7.7630	-21.9702
1280.0086	-44.5155	-0.7072	-0.7933	9.0118	12.7974	-10.5378	-13.0973	-26.5068	8.9365	-2.6061	-18.8761	-6.6289	-2.7984	-13.2227	3.5184	-0.5618
1288.0087	-34.6203	-3.3651	-3.4484	5.4984	9.8566	-13.7592	-18.3612	-23.6298	14.9618	-0.3361	-20.1126	-9.8129	-8.1897	-8.4612	1.0978	24.5829
1296.0087	-20.0864	-3.6698	-3.7405	-3.9249	-5.2038	-12.7786	-16.8161	-18.5132	10.1955	1.2131	-10.0094	-5.1095	-6.5456	-3.5496	2.5121	26.3685
1304.0088	-17.2676	-3.2484	-3.3142	-6.1653	-3.9707	-12.4682	-16.2637	-16.9214	4.9235	1.4016	-3.4797	-2.1826	-4.6268	-2.3477	3.3671	19.7418
1312.0088	-23.2240	-2.8698	-2.9470	-8.6696	-10.6710	-13.2820	-16.3312	-17.8024	5.5605	1.0052	-8.4569	4.1439	-2.3727	-2.9502	2.0412	11.9358
1320.0089	-34.5171	-2.9373	-3.0430	-13.2593	-13.9182	-15.9479	-19.3796	-19.0173	2.5303	0.4629	-18.2550	0.7555	-3.0116	-3.0495	0.7872	2.7543
1328.0089	-48.1797	-3.0535	-3.1790	-11.0574	5.1413	-18.4089	-23.2049	-20.4640	4.9126	-0.5420	-17.5656	-7.7048	-5.3557	-3.7698	-1.8561	-0.6085
1336.0090	-31.1552	-3.6233	-3.7077	5.5831	7.8739	-17.2128	-22.0758	-18.4081	14.2132	0.9244	-8.6224	-1.7842	-4.6196	-3.5236	-3.2915	4.6779
1344.0090	-17.3770	-3.9179	-3.9753	16.7971	4.8264	-17.0282	-21.8111	-15.9316	13.7775	2.3957	3.8611	5.5930	-2.4494	-1.5329	-2.6656	7.5167
1352.0091	-26.2440	-3.7999	-3.8794	12.1310	7.0591	-18.2900	-22.7914	-16.2823	14.0520	1.8275	9.5335	-2.4825	-0.1148	-0.6948	-4.8486	0.4285
1360.0092	-21.3578	-4.5139	-4.5841	15.8583	16.8589	-18.1106	-23.2201	-14.9535	13.4152	2.2957	1.8319	-15.2061	-1.0996	-0.5572	-7.0887	-1.1462
1368.0092	-20.9727	-4.7872	-4.8471	20.9323	41.8617	-17.9818	-24.1699	-13.3618	13.3104	2.2544	2.5431	-24.5906	-2.0102	0.8241	-7.1741	7.4901
1376.0093	-18.7210	-4.4575	-4.5229	19.8998	30.1391	-17.1003	-22.1322	-11.6869	20.6980	2.3573	20.2758	-28.2958	1.4769	2.6939	-7.0371	5.9020
1384.0093	-5.6847	-4.1712	-4.2163	25.1851	18.2171	-15.2528	-19.5241	-8.8626	16.9134	3.2284	25.3042	-27.0277	3.2290	3.6598	-6.2669	-4.4099
1392.0094	4.9461	-3.9072	-3.9191	19.6743	43.4717	-12.7121	-16.9325	-6.9023	18.0485	3.6117	25.1536	-25.3693	5.6260	5.0861	-6.1791	-5.1692
1400.0094	14.4836	-3.8333	-3.8371	11.9292	25.0778	-10.8657	-13.5835	-4.0967	27.0371	4.3397	35.8906	-19.9489	8.7506	6.3506	-5.9453	-3.3765
1408.0095	9.8165	-3.3512	-3.3660	16.8648	4.0580	-10.4995	-12.4458	-1.2732	19.0547	3.9179	29.1218	-15.0740	7.9292	5.8378	-5.2143	-2.1486
1416.0095	12.5400	-2.5502	-2.5423	14.9126	23.5000	-7.8451	-9.2889	0.6700	13.5455	3.5015	25.9618	-10.5532	10.2148	6.3980	-5.2643	-2.9405
1424.0096	20.8389	-1.4321	-1.4123	12.0104	14.1908	-5.0476	-5.0537	2.3287	17.0479	3.5016	35.5657	-8.4857	13.8752	6.7341	-2.8415	-16.3999
1432.0096	17.2029	-0.8163	-0.8130	11.8363	0.4711	-4.1584	-3.3598	3.4072	16.7649	2.8915	29.0929	-16.0640	14.7453	5.3994	1.3066	-15.5843
1440.0097	20.5086	-0.9962	-0.9841	9.3906	4.4202	-2.6071	-1.1716	4.7646	12.6044	3.1315	25.5563	-18.4030	17.1504	4.8928	3.1488	0.3028
1448.0097	19.1287	-0.1650	-0.1515	10.8468	0.7925	-1.5789	0.5892	4.8644	6.5417	2.6421	18.7726	-14.6472	18.6217	4.2246	3.9567	-9.5863
1456.0098	14.0193	1.2059	1.2124	4.6606	3.8613	-1.1330	1.3628	3.8783	8.4183	1.5770	12.8431	-10.4383	19.4531	3.6338	5.4251	-32.0099
1464.0099	6.7121	1.9928	1.9860	-4.0493	9.5025	-1.3688	1.1950	2.5354	12.2052	0.6242	18.9559	-9.7700	20.1104	2.4893	5.7517	-43.6083
1472.0099	-2.2291	1.9748	1.9518	-2.4828	13.9371	-2.1038	-0.1521	1.1781	12.3958	-0.2646	9.9055	-19.5375	17.4847	-0.0481	5.2289	-46.0222
1480.0100	3.1337	1.4761	1.4598	3.2278	5.3227	-2.2966	-0.6945	1.7921	15.7317	0.3805	6.8007	-17.6459	15.4180	-0.6526	6.7202	-37.7173
1488.0100	5.1870	1.3238	1.3043	8.2587	-14.9429	-2.6550	-0.5282	2.3975	16.4349	0.8910	13.8917	-10.4957	15.5729	0.7679	7.7970	-29.2392
1496.0101	7.5359	1.2746	1.2675	7.9488	-1.0866	-1.3781	0.5991	2.2860	10.9458	0.8553	17.3780	-14.3115	15.7465	1.5760	6.5880	-26.8994
1504.0101	10.8071	1.3846	1.4002	10.7442	24.2471	-0.2328	0.8898	1.9826	6.9735	0.7338	18.4998	-14.5216	14.6782	0.6318	6.3504	-25.9794
1512.0102	7.3711	0.8791	0.8868	16.4929	21.7654	-1.3765	-0.5985	0.8451	8.5662	0.7267	3.8248	-18.3716	13.2243	0.5054	6.0381	-20.1540
1520.0102	6.5198	0.0041	0.0050	14.9987	12.3142	-2.4561	-1.9486	0.0843	6.8303	1.1376	-2.3724	-17.5766	10.9219	1.0247	3.8862	-13.0837
1528.0103	6.2775	-0.0290	-0.0227	18.9157	5.7178	-2.8967	-3.0233	-0.1587	10.9730	1.1001	2.6223	-4.7429	6.5523	-0.3121	2.7071	-12.2331
1536.0103	19.0583	-0.2512	-0.2175	23.8201	6.0176	-1.6086	-1.7614	0.5935	22.2105	2.0491	8.7695	2.5079	6.4041	0.6514	3.7724	-5.7819
1544.0104	19.9045	-0.1860	-0.1491	13.7774	9.3133	-0.6072	-0.2969	0.4605	12.3849	2.1353	16.5120	6.8180	8.0994	2.2721	4.1844	1.7752
1552.0104	5.3861	-0.2246	-0.2188	3.0508	5.0335	-1.7049	-1.6814	-0.9946	4.1085	1.0097	10.2925	3.3075	4.8827	1.4237	2.4644	2.4720
1560.0105	7.9973	-0.8676	-0.8623	3.3612	2.9130	-2.1642	-2.8981	-0.6114	14.3317	1.3477	16.4091	-1.0608	1.6851	1.5183	1.7399	7.5641
1568.0106	0.4470	-0.5443	-0.5514	1.0643	3.5399	-2.6804	-3.7565	-0.8520	12.8944	0.6478	23.8637	1.4571	-0.1726	1.3516	2.0382	9.9009
1576.0106	-7.7780	-0.5938	-0.6182	-6.0495	6.9343	-2.9983	-4.1118	-1.7694	6.1303	-0.0675	10.9380	-6.9499	-0.9028	1.1623	0.4472	6.2170
1584.0107	-6.4401	-0.9534	-0.9798	-7.4050	0.0944	-2.7432	-3.7787	-1.1512	6.5889	0.0715	2.0481	-11.1554	-2.2397	0.9782	-0.9782	4.6633
1592.0107	-11.9708	-0.8646	-0.9093	-6.7417	-20.1796	-3.9852	-5.0531	-1.2093	12.1617	-0.2387	-9.2110	-4.8501	-5.4022	0.9646	-0.1129	3.8715
1600.0108	-9.2964	-1.3576	-1.3897	5.6125	-8.7001	-5.3580	-7.2476	-1.9969	14.4266	0.3350	-13.7463	-3.4051	-5.5754	2.7512	-1.3707	6.2406
1608.0108	-11.8863	-1.6559	-1.6635	22.6809	15.9922	-5.4371	-8.3664	-2.2943	7.0379	0.1083	-11.3720	3.7889	-7.8218	1.3604	-6.1965	15.1860
1616.0109	-16.3570	-1.9875	-2.0017	18.5115	11.0311	-5.2729	-8.4589	-1.6703	3.2508	-0.2632	-14.8627	4.8581	-11.5031	-0.2676	-8.3559	21.1468
1624.0109	-17.2617	-2.4859	-2.5182	15.3390	5.0855	-6.0588	-9.4067	-1.2369	-3.0256	-0.0649	-13.8398	-13.2319	-11.5539	1.3049	-9.1183	14.8985
1632.0110	-22.3433	-2.8859	-2.9311	15.9927	-1.2833	-6.9293	-10.5509	-1.1418	-4.7728	-0.2679	-16.1543	-16.5019	-13.9504	1.6860	-11.5866	16.3828
1640.0110	-20.3238	-3.2162	-3.2546	10.8750	-3.7173	-7.6735	-11.8231	-0.5187	4.3065	0.1600	-18.9612	-0.0204	-16.6734	2.6494	-11.2559	26.9879
1648.0111	-22.3775	-3.0969	-3.1338	13.4195	6.3084	-8.9821	-13.9850	-0.9737	1.3490	0.0898	-24.5962	3.3833	-17.7888	3.2234	-11.2743	20.2129
1656.0111	-19.1709	-3.6848	-3.7280	4.9719	-8.8143	-9.3628	-14.1192	-1.1865	-0.2621	0.6298	-27.8835	1.7887	-18.6735	3.0801	-14.0592	11.0864
1664.0112	-9.2820	-4.0524	-4.0757	5.1577	-9.3786	-9.1876	-14.0181	-0.8308	5.5313	1.6039	-22.3664	10.2641	-18.4672	4.4316	-15.5687	8.9942
1672.0112	-8.1456	-3.9150	-3.9155	19.3079	18.2961	-9.4084	-15.3866	-1.4284	6.2316	1.4981	-23.6118	12.0432	-19.3095	5.1698	-17.2767	5.6839
1680.0113	-12.0625	-4.7304	-4.7507	6.2285	10.7796	-10.4337	-16.3177	-1.6707	4.5442	1.6652	-23.7685	6.3741	-19.6811	6.2474	-19.4219	12.0546
1688.0114	-19.2325	-4.8787	-4.9144	-2.5084	1.4983	-11.1556	-16.9133	-1.8396	3.3215	1.2652	-28.1169	12.9694	-21.5573	5.8735	-21.1423	16.0283
1696.0114	-15.0466	-4.3600	-4.3751	-2.7050	6.2961	-10.4654	-16.2395	-2.3230	8.7358	1.2921	-23.5693	30.2082	-21.9817	4.7009	-22.1775	7.8597
1704.0115	-17.2719	-4.2929	-4.3237	-12.2413	-7.0666	-11.4123	-16.3144	-3.3933	3.1430	1.4428	-16.8491	32.1139	-18.8658	5.3206	-23.5030	-2.9196
1712.0115	-20.8055	-4.7248	-4.7581	-4.7653	-7.7614	-12.0305	-17.3816	-3.8309	-2.5968	1.2472	-34.1287	27.8013	-21.6491	4.0612	-26.7253	-6.6343
1720.0116	-11.1831	-1.3782	-1.4379	-8.6588	-31.5954	-9.5716	-10.7175	-8.5126	8.8636	1.1195	-11.1470	6.5659	0.8328	-4.1402	3.4852	-12.9916
1728.0116	-5.7604	-1.4593	-1.4912	-0.9328	1.7868	-8.7995	-10.4637	-9.2996	3.4912	1.4749	-10.2733	3.2148	3.8306	-1.7267	3.2268	-7.5823
1736.0117	-18.9399	-1.1127	-1.1591	11.3504	9.4674	-10.1635	-12.1706	-12.5328	8.5083	0.2548	-6.6700	0.4978	3.1364	-3.9683	1.2167	-9.4381
1744.0117	-25.6847	-2.3460	-2.4216	7.8682	-5.9343	-13.8943	-16.4970	-14.9690	20.3678	0.6723	-12.9140	-0.0249	1.2219	-4.8093	1.3757	3.8860
1752.0118	-32.3504	-3.1222	-3.2095	4.7568	9.0684	-17.0729	-20.6667	-17.2940	19.9958	0.8678	-16.5024	-0.4422	1.7280	-3.2172	-0.6535	8.2869
1760.0118	-37.8713	-3.5356	-3.6335	9.7618	4.6220	-18.2496	-21.9444	-19.2462	12.7233	0.6429	-20.5093	-6.0546	0.6589	-4.1276	-5.7456	-2.2633
1768.0119	-35.3091	-4.7726	-4.8781	13.0407	-6.9764	-20.5460	-24.9077	-20.8038	14.1363	1.5807	-20.1557	-11.4679	-1.3836	-3.8896	-8.8877	-5.2770
1776.0119	-34.0703	-6.1627	-6.2737	10.5523	-6.2111	-22.6085	-27.7909	-21.4124	18.3911	2.4290	-17.1428	-16.9631	-2.8147	-2.9085	-12.1300	2.3756
1784.0120	-22.3924	-7.5192	-7.6180	8.0776	-11.1488	-22.8602	-28.5171	-18.4642	19.9764	4.0214	-11.3838	-19.6638	-4.0129	-0.1470	-13.4340	15.1474
1792.0121	-20.6583	-7.5846	-7.6738	11.2482	15.7447	-23.8942	-31.1205	-16.5789	15.1220	4.2634	-5.9038	-25.8810	-4.8659	3.4428	-13.4512	10.9228
1800.0121	-18.4882	-7.6312	-7.7148	6.7573	17.3737	-23.0339	-30.1354	-14.3267	6.9668	4.3227	-11.4425	-28.5093	-5.3348	4.1661	-16.9851	-0.0258
1808.0122	-5.0227	-7.6357	-7.7030	1.5825	-17.1429	-21.0009	-26.5803	-9.6533	8.3285	5.4574	-11.1048	-11.8302	-5.1965	4.6002	-18.0680	-3.8115
1816.0122	-3.5004	-6.7282	-6.7893	1.4701	-14.3174	-19.9617	-25.4763	-6.8777	12.2899	5.1223	-8.9565	-7.5531	-5.1648	5.6986	-15.6157	-9.6177
1824.0123	2.3619	-6.8827	-6.9458	-11.5029	-18.1266	-18.1051	-23.0295	-3.7496	8.6856	5.4802	-7.2410	-19.1487	-3.8881	8.0239	-14.2145	-6.2162
1832.0123	4.6766	-6.6451	-6.7077	-18.1531	-20.7405	-16.6757	-21.0027	-1.0736	3.6315	5.5077	-4.5531	-21.9599	-2.5947	9.6524	-13.4453	-4.8155
1840.0124	6.5683	-5.8981	-5.9417	-11.1318	-6.9340	-14.3420	-18.4416	0.7282	0.3911	4.9602	-9.7468	-23.4080	-2.0561	8.9330	-13.6134	-9.4719
1848.0124	15.5012	-5.8350	-5.8595	-11.6606	-16.9708	-12.0352	-14.8836	2.7349	-0.7231	5.5113	-4.7948	-16.9512	0.2713	8.0778	-14.7101	-7.7845
1856.0125	13.7718	-5.1874	-5.2070	-12.4774	-20.2611	-11.1707	-13.5378	3.0297	-2.0203	5.0426	0.2981	-6.0059	0.2867	5.9646	-15.4421	-12.7302
1864.0125	17.1816	-4.7967	-4.8110	-11.5358	-31.5581	-9.5538	-11.3497	4.3956	-7.2233	5.0354	1.9737	-3.1382	-0.1558	5.5811	-13.8655	-12.4591
1872.0126	13.5525	-4.6777	-4.7032	-15.7210	-40.7354	-9.2575	-10.0927	4.7776	-8.0378	4.8639	8.1560	-1.2981	2.1869	7.0263	-13.4621	-2.9651
1880.0126	7.3708	-4.5131	-4.5373	-18.8679	-21.2749	-8.1232	-9.1533	4.0971	-4.6190	3.8471	3.0203	-7.4254	1.2540	5.6145	-16.2323	-2.2403
1888.0127	12.4670	-4.5503	-4.5672	-14.4553	-27.4707	-6.2279	-6.9537	5.1127	-6.7613	3.9317	2.8970	-15.5493	0.3322	4.5083	-15.3915	0.0182
1896.0128	4.9655	-4.0729	-4.1019	-12.5920	-30.3035	-6.8158	-7.4384	4.3740	-9.2363	3.2887	5.5087	-11.6001	0.3544	3.9443	-13.8668	2.9736
1904.0128	0.1953	-3.5402	-3.5663	-20.6138	-13.3442	-6.4945	-7.8102	3.9687	-9.8299	2.4643	-2.9096	-5.7189	-2.0239	3.2432	-14.1553	-2.7696
1912.0129	-0.9877	-3.0310	-3.0586	-16.5655	-21.6528	-6.6851	-7.5347	3.7779	-5.1598	2.3204	-6.7215	2.9877	-1.1931	4.1604	-12.7708	-4.6655
1920.0129	-4.1102	-2.7354	-2.7645	-9.4917	-36.9795	-6.8763	-6.8646	2.4136	4.9800	2.0568	-4.6149	16.4550	-0.6687	3.0370	-14.4044	-3.9430
1928.0130	-2.2332	-2.4963	-2.5200	-17.3381	-38.0723	-5.3177	-5.1676	2.3050	1.1834	1.7691	-5.8835	17.3578	-2.3716	0.9598	-15.4926	-12.5239
1936.0130	-4.9296	-2.1740	-2.2006	-16.4877	-26.4225	-5.8439	-6.0642	1.7027	-4.5256	1.4999	-14.4716	13.4180	-1.3091	1.1256	-12.9791	-15.3282
1944.0131	-4.5011	-2.5699	-2.5966	-13.9354	-29.7309	-6.5145	-7.0040	2.0541	2.7205	1.7720	-14.7532	16.2736	-2.4979	1.4244	-12.7699	-5.9539
1952.0131	-8.8504	-2.5188	-2.5596	-21.6640	-30.8138	-6.5117	-7.1379	2.2457	0.7584	1.3368	-9.0276	10.3858	-3.7200	1.9752	-12.9395	-6.6552
1960.0132	-10.9110	-2.2933	-2.3270	-23.7214	-6.5259	-6.4858	-7.4545	0.7308	-5.6005	1.0241	-5.6864	7.6987	-1.6130	2.4004	-14.3324	-12.3062
1968.0132	-4.9144	-2.7409	-2.7631	-25.6401	-12.4469	-5.6284	-6.5958	1.5208	-4.4540	1.5497	3.6422	11.9234	-3.2810	1.8748	-16.0148	-7.3390
1976.0133	-7.7121	-2.5371	-2.5686	-27.5568	-9.0909	-5.6666	-7.0392	2.0881	-3.4267	1.1928	2.7670	5.7762	-4.4192	3.2152	-13.2912	-3.5559
1984.0133	-5.0775	-2.1213	-2.1299	-19.2631	16.6861	-5.7514	-7.6474	1.3964	-0.2635	1.2501	2.7214	12.8029	-2.2541	4.0346	-12.7387	-5.2941
1992.0134	-4.0817	-2.2839	-2.2897	-10.1707	-4.5749	-5.7109	-6.9938	2.1257	-0.7572	1.5218	6.3366	22.9423	-3.2114	2.2534	-14.3716	-0.7289
2000.0135	-4.3331	-2.3689	-2.3793	-6.1985	-6.5339	-4.8150	-5.7994	3.1108	-4.7269	1.4157	-0.8774	11.2103	-2.6873	2.8936	-12.4854	7.5942
2008.0135	1.0434	-1.8921	-1.8764	4.0675	19.6438	-3.1440	-4.3453	3.5466	-0.8588	1.3278	1.5034	6.9227	-0.4792	3.8426	-11.7272	7.0326
2016.0136	-0.6095	-1.4522	-1.4277	17.9121	19.9785	-2.7940	-4.0800	3.5443	4.9309	0.8777	0.8841	12.9516	-1.9780	2.6478	-12.6172	5.2883
2024.0136	4.3138	-1.0583	-1.0139	22.5771	36.4185	-1.7179	-3.5280	3.6727	4.5324	0.8864	0.2403	14.0317	-2.2995	3.3798	-11.2209	2.3305
2032.0137	7.3724	-0.3860	-0.3305	24.2028	48.8518	-0.4373	-2.3007	3.7370	1.0158	0.6461	8.2809	10.0380	-1.0542	3.8889	-10.4542	-8.8188
2040.0137	9.4562	-0.6253	-0.5730	19.8068	39.8297	0.7148	-0.4394	4.0377	3.5024	0.7004	6.0123	2.9306	-0.5641	3.4094	-11.7636	-9.3319
2048.0138	16.0084	-0.8569	-0.7914	13.8486	44.4061	2.0338	1.0779	4.1503	10.3211	1.0792	10.9828	3.2060	0.0284	3.4630	-12.2533	-5.6297
2056.0138	12.2052	-0.5992	-0.5371	18.9005	45.0636	1.5238	0.3083	3.0234	10.9995	0.6770	15.1608	4.9767	-0.8761	2.0486	-12.1299	-7.9770
2064.0139	14.1574	-0.9507	-0.8893	16.7156	37.9389	1.4444	0.3630	2.6038	9.6696	0.9834	12.7604	4.7798	-1.1694	0.6525	-12.5375	-7.6547
2072.0139	15.8905	-0.7383	-0.6769	13.7163	34.1245	1.4873	0.6622	2.2421	12.9480	1.0519	15.6159	6.7514	-0.3227	0.3291	-12.4338	-15.5798
2080.0140	13.7918	-0.5948	-0.5430	12.4947	28.1952	0.8537	0.3945	1.4464	16.2288	0.9622	11.8214	6.1662	1.0406	0.7219	-12.0821	-20.7237
2088.0140	11.9037	-0.8952	-0.8569	-2.0565	21.4772	0.7050	0.9949	0.9236	15.2412	1.0422	9.5467	3.9807	3.2577	0.4923	-12.7848	-19.3508
2096.0141	4.4341	-0.8284	-0.8058	0.7085	18.0375	-0.3065	-0.0516	-0.1373	14.1548	0.4919	5.4605	-0.0390	2.8102	-0.8251	-13.3589	-22.1580
2104.0142	6.1373	-1.4042	-1.3833	10.2389	12.6742	-1.5700	-1.6473	-0.4213	14.8681	1.0871	4.2608	-2.9228	2.5583	0.2849	-12.6642	-14.8419
2112.0142	0.3254	-1.8040	-1.8094	-0.2693	1.8714	-3.2504	-2.9551	-1.1593	14.1313	1.1360	9.6849	-7.6504	4.2022	1.3901	-13.3594	-13.6310
2120.0143	-3.7938	-1.8247	-1.8322	-0.1398	18.0113	-3.5707	-3.8481	-1.9261	15.3992	0.6242	6.1564	-16.0898	3.7184	0.4535	-15.4455	-20.2083
2128.0143	6.3768	-2.3436	-2.3186	9.3639	42.0396	-2.4989	-3.7405	-0.9531	19.3486	1.3168	6.0356	-20.1519	2.9959	0.6630	-15.7396	-12.0447
2136.0144	2.4413	-2.8271	-2.8215	12.4310	21.6268	-3.9578	-4.8706	-0.9623	23.5631	1.4863	3.0841	-21.4460	2.5061	1.1735	-15.7783	-4.4239
2144.0144	-1.0136	-2.8572	-2.8632	9.6683	11.9524	-4.6166	-5.4170	-1.0928	25.2616	1.3272	0.7628	-19.2620	1.5251	1.3678	-16.3160	-5.5550
2152.0145	-3.4995	-2.3282	-2.3310	3.6237	35.5105	-3.8448	-5.2182	-0.6237	20.2556	0.6782	4.2909	-25.6822	1.7363	1.7613	-15.8123	-11.3511
2160.0145	-4.8322	-2.5684	-2.5818	6.7232	28.2004	-3.7250	-4.7664	-0.1522	16.2530	0.6594	0.6219	-37.6385	2.2602	2.3491	-15.8090	-9.4171
2168.0146	2.6556	-3.1498	-3.1613	1.5961	4.5398	-3.0482	-3.3126	0.5919	17.1856	1.5540	3.5402	-33.2634	1.9621	2.9192	-16.3294	-4.0852
2176.0146	-1.0800	-2.8549	-2.8718	-4.6492	12.3432	-3.6291	-4.2344	-0.2778	18.3825	1.1453	-1.2148	-31.4974	1.5410	3.5359	-16.6041	-12.1041
2184.0147	0.2974	-3.3200	-3.3155	12.9568	36.2949	-3.8427	-5.3549	-0.6078	16.8117	1.3865	-6.4767	-33.0511	1.3619	4.6811	-17.4860	2.5998
2192.0147	3.4115	-4.0917	-4.0804	17.2083	23.9792	-3.3189	-4.4990	0.2664	10.8299	2.0351	3.0147	-27.4482	0.5173	4.1590	-18.1353	25.2909
2200.0148	-0.1683	-4.2526	-4.2787	1.9749	-20.7312	-4.0768	-3.6316	-0.0062	5.6963	2.1779	1.5628	-29.5719	1.6832	3.6424	-18.2508	16.1301
2208.0149	0.8281	-4.6360	-4.6668	-4.9783	-26.0816	-3.7291	-2.8212	0.3753	-0.0031	2.4500	-0.2592	-33.4408	2.7280	4.0815	-18.7639	20.4770
2216.0149	-2.5162	-4.7294	-4.7489	-8.2112	8.9338	-3.2052	-3.8221	1.1582	-0.0648	1.8647	-2.9699	-36.5088	-0.2520	4.0163	-17.9205	35.5752
2224.0150	0.4983	-4.5431	-4.5429	-4.7342	31.0361	-3.6213	-5.0106	0.6280	7.7710	2.0930	-0.9111	-26.0569	0.3584	6.3427	-16.8492	40.1113
2232.0150	-2.0484	-4.7293	-4.7251	-9.1259	18.6583	-3.8126	-4.2521	-0.0588	4.6960	2.3125	12.0157	-1.0767	1.4530	6.3850	-20.1690	54.7298
2240.0151	-10.7024	-4.6817	-4.7079	-22.1578	-18.9108	-4.0499	-3.4361	0.0805	6.5013	1.6287	3.6892	6.3033	-1.8086	3.1215	-22.6889	48.3073
2248.0151	33.7523	2.8568	2.9144	-2.6451	-1.3103	5.1559	13.8066	0.1809	10.1955	2.8192	57.5004	20.7635	44.7950	-1.4255	14.6039	-0.5665
2256.0152	28.4824	2.8204	2.8655	-8.2563	-16.4909	4.2070	13.0120	-0.6615	2.2630	2.6840	56.0371	32.4674	43.0831	-2.2728	14.4766	2.8043
2264.0152	27.2335	3.3177	3.3663	-14.3704	-12.9089	4.2945	13.0286	-1.1900	-3.1272	2.3907	47.2588	41.8757	42.5335	-2.7772	14.4161	-7.4856
2272.0153	28.5839	3.3781	3.4356	-5.3629	-11.3552	5.3146	13.9415	-0.4860	7.9918	2.1697	45.1635	41.1816	40.7476	-3.2368	14.4968	-0.8473
2280.0153	28.1364	3.5014	3.5604	-12.6317	2.0703	5.9603	14.0524	-0.1483	4.7944	1.9108	45.3710	37.4507	39.8094	-2.6437	16.4046	3.5292
2288.0154	22.3721	3.9621	4.0094	-16.4374	15.3202	4.9229	12.1713	-1.5020	5.9025	1.2188	43.1190	30.6534	38.9248	-2.6778	17.5216	-9.5812
2296.0154	22.9237	3.5546	3.6016	-6.3439	12.8673	5.0774	11.7930	-1.5353	8.7413	1.1512	41.5485	19.4892	35.8531	-4.0578	16.2177	-9.7779
2304.0155	21.1992	3.5200	3.5625	-3.6356	5.5223	5.2341	11.9676	-1.2021	-1.3051	1.0039	29.5489	16.8872	34.2122	-4.4633	16.0714	-11.6849
2312.0156	19.7177	3.2024	3.2391	6.2874	-13.9167	4.2184	10.8943	-1.4974	4.5356	1.1624	26.2194	23.7925	31.2639	-4.4530	15.3732	-6.1414
2320.0156	19.6742	2.5674	2.6059	4.3801	-13.5403	4.3390	10.1478	-1.4988	8.4211	1.2372	32.6975	26.3115	26.5305	-4.6369	15.4906	12.5379
2328.0157	8.7362	2.7671	2.7897	0.5035	4.1697	3.0939	7.8097	-2.7503	3.9425	0.2797	19.5860	21.1407	24.2470	-3.5007	16.7898	14.5260
2336.0157	7.6954	2.3696	2.3967	16.9835	6.5106	2.1586	6.1083	-3.0862	8.5988	0.3110	12.6885	18.7215	21.4896	-3.1572	14.5573	15.8179
2344.0158	11.3271	2.0481	2.0879	16.2438	9.9272	3.3313	6.6568	-1.9630	10.1334	0.3535	9.3078	19.5484	17.4326	-5.1878	14.0067	21.9158
2352.0158	14.1220	2.0315	2.0749	12.5549	10.1137	3.1282	5.8949	-1.4465	19.1413	0.5444	2.1642	25.1046	15.1836	-4.7226	16.5111	25.2281
2360.0159	21.0798	1.6226	1.6802	22.1409	7.8986	2.3628	4.4695	-1.1813	25.7190	1.4378	14.7192	33.0936	13.6144	-1.8940	16.4475	31.4730
2368.0159	17.4730	1.3910	1.4381	20.7106	2.1592	1.7628	3.3886	-1.2397	19.3255	1.2540	11.7003	30.7093	10.4574	-1.4627	15.4015	30.3833
2376.0160	14.9597	1.3708	1.4010	14.0635	-20.2385	1.3403	3.1905	-1.0979	19.9404	1.0782	2.3783	32.3416	7.4615	-1.9001	14.3343	20.2602
2384.0160	10.7497	2.0279	2.0498	3.3670	-17.5649	1.5530	3.1553	-1.6576	17.7344	0.3253	-1.2754	33.8185	5.5178	-1.5926	13.7506	3.5013
2392.0161	9.7410	2.0550	2.0840	-0.4241	9.9584	1.7259	1.9585	-2.3849	15.4827	-0.1285	-18.9663	25.3869	2.8193	-1.6003	14.1459	-2.5876
2400.0161	18.2400	1.2659	1.3223	7.7092	18.1520	2.0586	1.5517	-1.7173	17.5583	0.7889	-15.0741	33.4050	0.8601	-2.2897	13.5985	14.5434
2408.0162	15.0381	1.0739	1.1268	6.6139	14.0496	1.6185	1.1480	-1.5887	17.0571	0.7616	-10.3487	41.3021	0.1763	-2.5961	13.5902	27.5503
2416.0163	13.4473	0.9871	1.0297	9.4344	7.2227	1.1858	0.6868	-1.7664	23.1039	0.6145	-10.6413	33.5164	-0.6393	-2.6084	12.8879	22.0454
2424.0163	15.2715	1.1349	1.1839	23.1286	-1.6787	1.5564	1.1440	-1.4307	22.7007	0.5994	3.9910	32.9716	-1.8221	-3.7106	9.8702	12.1076
2432.0164	23.1288	0.8146	0.8853	28.4679	-1.4642	1.8250	0.9791	-0.3961	17.7804	1.3887	2.8533	42.8276	-3.5633	-3.0165	8.9950	14.1018
2440.0164	32.0745	0.5654	0.6490	17.2548	1.1085	1.6016	0.1495	0.2540	23.7496	2.3013	11.3792	53.3064	-4.5062	-1.5673	11.0095	16.3490
2448.0165	22.2942	0.8517	0.8960	0.8000	-7.3835	-0.0255	-1.5571	-0.8419	31.1199	1.5299	20.1577	42.5376	-4.7435	-1.4742	12.6334	5.9942
2456.0165	22.7082	0.3197	0.3539	0.4814	-6.4156	-0.5158	-2.2866	-1.1614	30.8787	1.7072	13.0923	24.8798	-4.6143	-0.6951	12.0779	1.6799
2464.0166	20.6569	0.6127	0.6624	3.2637	15.2065	0.4700	-1.7475	-1.4177	18.8094	1.1959	16.8701	26.9752	-5.0154	-2.4243	9.9686	0.5496
2472.0166	9.9558	0.9953	1.0326	0.8763	20.0704	0.0424	-2.4682	-2.1094	9.3916	0.1529	5.6623	28.8032	-7.0024	-4.4553	9.4112	-1.3860
2480.0167	10.8164	0.7743	0.8100	4.1939	7.9975	-0.6466	-3.0603	-2.5212	11.8924	0.4449	-3.8734	34.0295	-7.9396	-4.8094	9.4899	-1.0878
2488.0167	3.5938	1.1836	1.2081	-0.8354	3.0805	-1.5572	-3.9789	-3.8472	20.5689	-0.2423	-1.1928	45.0457	-9.3939	-6.6924	8.4837	-6.1947
2496.0168	9.7559	0.8744	0.9058	-0.3276	-4.6639	-1.5141	-4.1215	-3.5825	27.8338	0.3396	1.6463	47.9426	-10.9567	-6.0393	8.4907	-6.3277
2504.0168	20.7173	0.8952	0.9498	11.7027	-9.6775	0.2335	-2.0262	-2.7854	19.6386	1.1124	16.1673	48.1665	-10.1161	-4.9056	8.6225	-6.3201
2512.0169	19.2658	0.7011	0.7534	10.1583	-2.2991	0.2589	-2.3688	-2.6180	17.8323	1.0025	16.3628	42.6170	-10.7973	-4.0124	8.5990	-1.2633
2520.0170	23.7551	-0.1864	-0.1215	12.3002	11.6912	-0.6481	-4.2805	-2.3288	25.9225	1.7629	14.2066	43.5138	-12.0149	-1.7777	8.0234	12.5887
2528.0170	18.6086	0.0812	0.1509	17.2385	17.8762	-1.1013	-5.0944	-3.2580	24.9687	1.2107	15.1958	53.4977	-13.7477	-3.8830	5.1100	7.9575
2536.0171	18.2761	-0.1594	-0.1003	8.0620	8.9218	-1.6060	-5.8749	-2.3602	25.9798	1.2810	12.3685	51.8554	-16.1213	-4.2173	4.7391	2.9770
2544.0171	13.8718	-0.2135	-0.1766	2.9921	-0.8336	-1.6530	-5.5383	-1.5389	4.8954	1.1550	12.3070	38.7264	-15.2445	-1.5836	6.0416	4.4227
2552.0172	-2.4021	0.0293	0.0329	4.4977	-8.8204	-1.7736	-5.0384	-2.1316	-17.7466	-0.2470	-13.1223	23.2518	-15.7837	-1.6640	4.1321	0.3234
2560.0172	-8.7596	-0.1470	-0.1520	9.9884	-0.8307	-1.7925	-5.3780	-1.2512	-4.0083	-0.9311	-27.7809	13.5835	-17.5593	-0.2617	3.3910	10.6794
2568.0173	-33.8682	0.6275	0.5793	7.0761	6.2206	-2.4597	-5.9314	-2.6573	-19.8836	-3.2400	-35.2793	1.0827	-18.2784	0.2957	2.8157	14.5220
2576.0173	-64.3558	0.6871	0.5627	-10.9825	-13.8152	-4.2265	-7.2355	-4.7876	-62.5004	-5.5063	-71.4976	-23.2293	-21.3921	-0.3092	-0.1428	2.8151
2584.0174	-92.5348	1.1751	0.9899	-13.6472	-8.0059	-5.3294	-8.6897	-5.8811	-71.7493	-8.2224	-92.4784	-57.0680	-24.2355	-0.7223	-1.4216	-3.8008
2592.0174	-123.6746	1.9863	1.7381	-8.3778	-2.3923	-6.9646	-10.9145	-7.5767	-68.8711	-11.3714	-114.7912	-89.1783	-28.1234	-2.6496	-2.0886	-13.0950
2600.0175	-128.1938	1.0258	0.7546	-5.7051	-19.7680	-9.6693	-14.5756	-7.4970	-68.3381	-11.1053	-135.8203	-94.9775	-33.3909	-0.8452	-3.9440	-15.1277
2608.0175	-116.6582	0.1611	-0.0678	10.3069	11.1433	-9.9918	-16.8027	-5.8929	-68.5767	-9.8732	-125.6166	-90.0120	-35.7416	2.6880	-6.3322	-3.5440
2616.0176	-93.6496	-0.8297	-1.0046	16.6174	28.3537	-8.3372	-16.2765	-2.1379	-73.0536	-7.8358	-110.0386	-85.4077	-37.1642	4.2943	-7.7442	3.7275
2624.0177	-90.4342	-0.6082	-0.7891	6.3332	9.3125	-7.9651	-15.2723	0.1913	-74.8243	-7.5182	-97.2422	-79.6979	-36.9308	4.4659	-7.2702	-2.4560
2632.0177	-103.0536	0.0497	-0.1609	-2.5091	10.9775	-7.6809	-14.2305	-0.6831	-74.0431	-8.9778	-98.5611	-95.3945	-34.8630	3.1028	-8.4027	-13.9641
2640.0178	-84.7823	-1.1876	-1.3882	-7.7830	-18.1929	-6.7185	-12.2267	0.9785	-64.3467	-7.0277	-86.6212	-101.1620	-33.1784	3.1737	-9.8917	-14.0259
2648.0178	-77.6734	-0.7659	-0.9527	-2.8497	-29.2142	-6.0424	-10.6973	1.7436	-51.5487	-6.4755	-58.6956	-87.2144	-30.3161	3.3194	-8.5031	-9.8919
2656.0179	-69.3132	-0.1463	-0.2919	5.9165	8.8226	-4.3570	-9.1769	0.6986	-46.3083	-6.2925	-48.7053	-81.1781	-25.7198	4.3093	-7.9597	-10.0116
2664.0179	-48.8978	-0.6021	-0.7083	7.2754	-1.2793	-2.2388	-5.7007	0.9988	-43.8586	-4.4431	-29.7357	-67.8843	-20.9959	5.1463	-9.9397	-8.7504
2672.0180	-48.8797	-0.0554	-0.1608	5.0509	-16.2691	-0.7105	-2.5930	1.2097	-40.4345	-4.6847	-17.7107	-59.0141	-17.9466	2.8164	-10.0374	-6.7776
2680.0180	-36.1191	0.0503	-0.0276	7.6896	-2.4627	0.0579	-1.7617	2.5496	-25.4606	-3.7036	-6.2180	-54.7760	-13.8292	3.3583	-6.4136	-1.2915
2688.0181	-32.5039	0.5645	0.4898	13.8937	-13.6784	-0.5390	-1.3418	2.8938	-10.3995	-3.1710	19.3955	-41.5554	-8.5913	4.3451	-3.2907	4.7840
2696.0181	-42.7263	1.1165	1.0227	9.2398	-21.7543	-1.2140	-1.0295	2.0286	-18.3121	-3.8891	14.8115	-34.9293	-5.6840	2.7279	-2.4161	5.9136
2704.0182	-45.5197	1.3185	1.2258	5.5588	-12.6147	-1.5933	-1.1837	1.7122	-23.0236	-4.0586	6.9224	-30.9417	-3.1719	1.4080	-2.4651	3.7531
2712.0182	-55.7922	1.7005	1.5953	14.0553	-5.2708	-1.6368	-0.9335	0.8440	-7.5760	-5.2504	2.5453	-38.7203	-2.2263	-0.5189	-3.0214	8.3503
2720.0183	-53.5652	0.7404	0.6335	13.1882	-0.2703	-1.9204	-1.5479	0.6388	-4.7130	-4.7624	-6.6104	-51.2433	-2.2800	-0.1101	-2.7754	20.8527
2728.0184	-46.6792	0.0680	-0.0335	3.4344	-0.0451	-2.4552	-2.4438	-0.0272	-12.3065	-3.8017	-1.2940	-51.0300	-2.0765	-0.0946	-2.9998	18.8042
2736.0184	-17.3939	-0.8812	-0.9305	-0.7641	2.1526	-0.1505	-0.5319	0.8315	-6.2299	-1.4681	-1.1335	-46.7170	-2.8508	-0.1404	-3.0881	11.0475
2744.0185	24.2827	-2.1717	-2.1484	-4.4395	-6.3271	2.6077	2.7834	2.8832	-1.0554	2.3746	9.2097	-28.6765	0.4317	3.2452	-2.5471	12.3229
2752.0185	26.1306	-1.9535	-1.9253	-10.0118	-13.7567	3.4675	4.5815	2.1565	3.2133	2.3903	15.2499	-19.8212	2.1567	2.3589	-4.7635	6.6672
2760.0186	27.8285	-2.0165	-1.9708	-7.1343	10.4915	4.4375	4.3938	2.1547	7.0508	2.0257	6.2610	-25.3986	-1.0123	0.2975	-5.8446	4.5340
2768.0186	19.7277	-1.2212	-1.1776	-2.3932	18.6868	4.0730	4.0282	1.7966	0.2337	1.2614	17.9834	-15.1517	0.0182	0.2263	-4.7736	9.4337
2776.0187	4.7769	-0.4180	-0.4133	-14.6916	-3.6579	3.5894	4.8976	1.4029	12.7803	-0.1406	20.7265	-11.1087	0.9286	-0.9967	-4.8494	6.9665
2784.0187	15.8541	-0.6483	-0.6297	-24.1272	0.2979	3.9611	5.0394	2.5856	26.9362	0.7418	19.6302	-9.7969	1.3845	0.6445	-3.7948	1.3845
2792.0188	2.4629	0.6139	0.6195	-16.8954	6.1894	3.1139	4.6004	1.1625	8.9977	-0.4843	27.1309	-3.1984	4.2471	0.5755	-3.5852	-7.4462
2800.0188	-6.3207	0.9856	0.9675	-13.0825	-12.3474	2.3356	4.3466	1.3991	3.9447	-1.1548	22.4469	-5.4116	3.9157	-1.4130	-2.5649	-10.2056
2808.0189	3.7546	0.9622	0.9629	-4.8905	-13.7241	1.8484	3.7113	2.5494	15.3928	-0.0878	30.4340	5.0214	5.6225	-0.6752	1.1582	-3.7349
2816.0189	0.2879	1.5545	1.5610	4.7905	-12.8658	1.9548	4.6267	1.3661	16.5875	-0.4198	38.8745	16.8000	8.9802	-1.3995	1.2853	1.7469
2824.0190	4.3312	0.9209	0.9203	-4.4797	-31.5885	2.6299	6.1190	1.9266	18.8246	0.1215	39.5729	12.4635	9.4264	-2.1143	1.0141	8.0127
2832.0191	0.0993	1.2542	1.2382	-11.6386	-34.3317	2.4979	6.2687	1.2636	17.8866	-0.3211	40.8103	7.6371	10.4315	-2.3068	2.5880	4.0012
2840.0191	8.8191	1.2367	1.2496	-5.3315	-17.2967	3.0500	6.0496	0.8250	17.6015	0.1744	29.0796	11.4280	9.5537	-2.4457	2.0956	-5.1091
2848.0192	25.1078	0.7887	0.8371	-2.9440	-12.4803	3.3087	5.8435	1.8097	18.6551	1.7465	23.9195	24.3298	9.7236	-1.2625	2.9509	-6.0809
2856.0192	9.6821	1.6086	1.6279	-0.2497	-21.0152	2.3537	5.7806	0.1896	16.7284	0.4135	11.3786	24.8736	11.6142	-1.4363	3.7024	-8.1546
2864.0193	8.7747	1.0884	1.1125	7.8658	-11.7838	2.4687	5.2148	0.0719	27.7689	0.2099	-5.5066	17.3924	8.6267	-1.5814	2.0505	-1.0352
2872.0193	3.3794	1.5198	1.5450	5.1079	6.2522	2.6144	4.4339	-0.1812	36.4621	-0.6494	3.3684	20.5592	6.0591	-2.9478	3.1839	4.7637
2880.0194	-18.2186	2.9026	2.8837	-10.4738	2.4059	1.4151	3.4498	-2.3901	31.4531	-2.8093	2.7638	22.8655	5.1924	-4.6908	4.9126	-7.6497
2888.0194	-17.5965	2.5242	2.5011	-23.6620	-1.7116	0.6654	2.2333	-2.6808	24.7347	-2.4677	1.8966	29.5548	2.8249	-3.6061	3.9046	-9.8466
2896.0195	-20.4570	2.9057	2.8853	-24.6302	3.3017	1.1956	2.7500	-3.1516	21.6068	-2.8717	12.3693	36.8176	2.5349	-3.5792	4.6270	-2.8430
2904.0195	-14.2489	2.8154	2.8108	-13.5635	4.7750	1.3180	2.7943	-2.9726	27.0164	-2.3286	4.1960	39.5376	2.9908	-2.3379	5.4779	-1.2494
2912.0196	-2.3004	1.9377	1.9581	-8.5943	8.7499	0.7896	1.5378	-1.8074	22.7747	-0.8740	1.7734	44.7260	2.2239	-1.0748	4.0515	-0.2010
2920.0196	7.4596	1.4897	1.5171	-13.5638	1.0573	1.1288	1.8480	-0.8727	13.3045	0.1410	3.2615	40.4833	2.5160	-1.3965	5.4685	-4.6301
2928.0197	41.6986	-0.2786	-0.2080	-14.6997	-16.2316	1.8566	2.8657	0.7974	16.9220	3.7646	1.7296	40.9988	5.2557	1.6164	6.2433	-6.1961
2936.0198	48.8499	-0.8265	-0.7387	-15.5792	-7.9181	2.4441	3.4397	0.3189	15.0588	4.4386	5.8452	39.3920	6.5047	0.8733	3.6548	-7.4227
2944.0198	46.2724	-0.6631	-0.5688	-10.0540	23.1777	3.5702	3.4165	0.5841	11.2501	3.5976	-8.2545	18.8279	4.7567	-0.8702	4.6917	-9.2101
2952.0199	67.4709	-1.9929	-1.8638	-7.4926	29.3216	4.4392	3.7727	2.7416	5.2710	5.8204	-13.1964	13.0372	5.5962	1.9986	5.6789	-0.0859
2960.0199	56.7757	-1.9031	-1.8101	-27.7029	10.7216	3.7180	3.6567	1.9988	-3.0352	5.0727	-8.7385	10.5945	4.9171	0.1752	4.8129	-5.7236
2968.0200	46.5678	-1.1910	-1.1282	-38.5737	14.6078	2.6689	1.7481	1.5337	5.6174	3.7718	-18.1851	-2.1873	1.8664	-1.0789	7.5183	-23.2070
2976.0200	46.1989	-1.0413	-0.9832	-36.4405	11.3156	2.9492	2.2265	1.7351	2.2885	3.7032	-12.3283	-7.1621	2.4793	0.2818	8.3105	-23.1409
2984.0201	29.6255	-0.7466	-0.7282	-45.6312	-6.5113	3.4639	3.8076	0.7337	-11.1133	2.1977	-12.7385	-16.5681	1.7134	-0.9996	7.1628	-17.7125
2992.0201	23.5262	-0.3589	-0.3383	-39.8733	16.3405	2.8648	2.3436	-0.8938	-6.4553	1.4482	-18.4210	-16.9860	1.0192	-0.3886	7.5414	-17.4664
3000.0202	3.4617	0.4593	0.4610	-22.6432	20.9339	0.7245	-0.1210	-3.8428	0.4435	-0.3204	-13.3643	-6.9015	-0.6298	-2.1200	4.6992	-17.5652
3008.0202	-13.5098	0.1215	0.0754	-25.4120	-16.2399	-1.9291	-2.7585	-4.2704	8.6449	-1.2799	-19.0931	-3.1221	-6.6971	-3.7339	2.3603	-13.3775
3016.0203	-15.4861	0.0428	-0.0076	-26.1429	-13.6576	-3.3253	-4.6845	-4.2302	-1.4643	-1.0552	-14.1883	0.9615	-6.9046	-1.4073	2.6925	-12.4952
3024.0203	-25.8821	0.6943	0.6463	-9.4401	5.1583	-3.0820	-4.6179	-5.1256	-21.4099	-2.1919	-14.1739	-2.4517	-6.1715	-2.1612	0.5367	-13.8635
3032.0204	-23.9834	-0.0709	-0.1142	-2.0923	-0.6149	-3.1924	-4.9848	-4.1916	-7.3662	-1.8965	-22.7025	-2.7012	-9.0192	-2.7934	-1.5304	-2.6049
3040.0205	-46.9274	-0.1162	-0.2132	-9.3519	-6.2562	-6.6490	-8.9087	-7.0843	-2.9382	-3.4392	-32.0986	-11.6432	-11.2014	-4.0058	-2.4154	-3.0991
3048.0205	-68.2562	-0.5729	-0.7193	-15.3733	-5.0947	-9.8106	-13.7043	-9.6096	-19.1690	-4.9425	-60.6559	-31.6362	-18.0842	-5.5355	-4.5840	-13.0288
3056.0206	-59.4112	-1.6410	-1.7643	-13.9732	0.0404	-10.1443	-15.3361	-9.1884	-15.1930	-3.9065	-63.3108	-22.4625	-23.1730	-3.7102	-7.7115	-5.6307
3064.0206	-63.6803	-1.9309	-2.0532	-2.8195	-1.5286	-11.0807	-16.7706	-10.3316	-12.0756	-4.1191	-66.5990	-16.3788	-26.3402	-3.2207	-11.3397	-2.9133
3072.0207	-36.3009	-3.4031	-3.4779	4.4620	-5.8771	-10.3839	-17.3428	-7.4321	-16.9062	-1.4244	-68.2624	-12.6729	-30.5663	0.0784	-13.3156	-7.2430
3080.0207	-22.6899	-3.4931	-3.5372	3.9783	-4.1257	-9.6523	-16.6545	-5.8342	-16.8904	-0.1449	-33.2601	3.5434	-29.4186	3.1178	-15.4029	-8.6073
3088.0208	-33.2515	-3.8093	-3.8762	5.6672	-9.2425	-10.7336	-17.8801	-5.8463	-14.4332	-0.8880	-36.5147	-5.1548	-31.5514	2.3852	-18.6933	-7.1123
3096.0208	-6.7146	-5.0198	-5.0466	-2.0435	-13.0218	-9.1167	-16.6307	-1.7135	-14.4598	1.6192	-25.9757	-2.6407	-32.1420	4.1894	-18.8445	-5.3743
3104.0209	-11.3689	-3.7963	-3.8300	-3.2773	-15.9554	-8.3989	-14.6860	-1.4226	-19.2387	0.9049	1.1083	1.0278	-27.2356	3.2083	-18.6497	-16.5511
3112.0209	3.1364	-4.8984	-4.9097	11.6002	-22.9631	-8.2099	-14.6401	0.7629	-24.3991	2.5321	-15.4880	-7.3342	-27.1487	3.7265	-19.3675	-15.5090
3120.0210	35.0478	-6.0000	-5.9482	9.6465	-21.3816	-6.0511	-12.2260	4.6409	-39.4721	5.7570	0.1126	10.1353	-23.5735	6.5576	-18.4632	-3.2662
3128.0210	23.5161	-5.1177	-5.0887	4.2360	-25.4671	-5.1616	-9.8205	4.4774	-45.8901	4.4829	2.9098	3.6515	-19.2291	4.9946	-18.4059	-5.9391
3136.0211	44.2589	-5.7055	-5.6479	8.8303	-30.5519	-3.2884	-7.4929	7.4903	-39.5449	6.2004	-4.6568	-5.1639	-16.8437	6.9685	-16.6045	-7.9048
3144.0212	36.9456	-4.1243	-4.0647	8.2071	-22.3866	-2.5606	-5.6821	7.0863	-51.1606	5.2830	13.6199	12.4344	-11.5500	7.1904	-14.2594	-7.6987
3152.0212	11.7641	-3.1244	-3.0941	16.0386	-13.5079	-2.9952	-5.6840	5.5004	-55.6108	2.8233	1.7319	11.6052	-11.6268	5.2655	-15.6067	0.8502
3160.0213	4.6688	-2.1105	-2.0765	23.0430	2.4629	-1.7352	-4.2285	6.1801	-51.9664	1.6399	13.0057	13.7942	-10.5925	5.8426	-15.5179	5.4134
3168.0213	-39.5015	0.6396	0.5984	17.0832	5.5919	-2.7015	-3.9858	2.3857	-50.3777	-3.1007	5.0151	5.3475	-9.1055	1.4082	-14.8598	-11.0955
3176.0214	-35.2138	-0.0638	-0.1088	17.8436	-8.8782	-3.0104	-4.1986	2.6576	-35.6186	-2.6057	-17.6170	-0.8035	-10.8243	0.8023	-15.2501	-12.3552
3184.0214	-35.2031	0.8651	0.8375	22.1230	7.9988	-2.7863	-4.0326	2.6781	-42.3316	-2.7283	2.3948	15.9525	-8.0078	2.6355	-13.2202	-8.5758
3192.0215	-47.5924	1.3041	1.2624	24.3667	27.3503	-3.8486	-5.7512	1.0836	-53.1815	-3.8704	-20.5864	8.8769	-8.2146	2.1856	-11.7517	-10.2620
3200.0215	-7.1789	-1.0721	-1.0509	31.2092	14.8261	-3.1220	-5.1594	3.9409	-47.5428	0.5111	-17.9748	15.2384	-6.3657	5.8319	-12.8272	-2.0112
3208.0216	-20.2519	-0.0227	-0.0189	33.5215	4.6235	-3.5684	-4.0412	2.3302	-52.2974	-0.6064	-2.9856	27.3987	-1.8560	4.2505	-14.8811	-6.6862
3216.0216	-8.2234	-1.0022	-0.9878	29.1900	1.0524	-3.2365	-3.9262	3.3532	-46.5405	0.5264	-27.2024	16.1967	-2.5694	2.8284	-14.8251	-12.8013
3224.0217	23.6477	-2.2409	-2.1743	27.9729	6.9941	-1.6165	-2.4329	6.4246	-51.3203	3.6385	-7.4882	15.3428	1.4506	4.8802	-13.1222	-8.8363
3232.0217	6.3514	-1.6493	-1.6107	23.0135	17.4788	-0.7971	-1.0404	5.8839	-62.5446	1.7822	-22.8714	-0.4129	2.7507	2.3527	-12.0101	-1.2527
3240.0218	40.3411	-3.2005	-3.1212	12.2545	17.9528	1.3562	0.6850	9.6778	-38.0226	4.7237	-32.7915	-13.2158	3.2568	5.3371	-7.0825	6.1602
3248.0219	34.2760	-1.9355	-1.8719	7.6939	27.7000	1.1800	1.4108	8.9900	-24.7110	3.9098	-6.6520	-17.5271	10.0648	7.4984	-4.1872	-1.3536
3256.0219	-33.7466	2.6821	2.6088	-19.3897	-5.4229	-2.4782	-2.5183	-7.8592	50.8752	-4.0204	-0.0523	5.6213	-2.6616	-6.1932	8.3028	-17.0185
3264.0220	-15.6280	1.8858	1.8437	-11.4782	-5.4687	-2.0161	-2.4369	-6.9466	53.0779	-2.2489	13.6311	5.7296	-2.1395	-4.5851	7.5907	-18.4177
3272.0220	1.8175	0.7993	0.7832	-3.2782	-20.1698	-1.6443	-2.2055	-6.1164	46.8069	-0.3648	8.5010	7.3722	-3.4088	-3.5966	6.3949	-19.9786
3280.0221	26.6369	-0.0559	-0.0214	8.0703	-22.4139	-0.4752	-1.5433	-4.3084	39.5737	2.0060	14.4337	18.6193	-3.9586	-2.7016	7.5174	-15.4925
3288.0221	35.5439	-0.3570	-0.2995	8.3908	-10.8830	0.4233	-0.6203	-3.9041	41.4770	2.7601	14.0733	21.1437	-1.9804	-2.3360	7.7470	-10.0650
3296.0222	36.3109	-0.7797	-0.7343	-8.2429	-22.5572	0.7742	0.4341	-3.5628	45.4582	2.9690	9.1537	18.3176	-1.3860	-1.6619	6.8114	-8.8057
3304.0222	32.7373	-0.9065	-0.8836	-9.8009	-44.5368	-0.2262	-0.2130	-3.5786	44.8674	2.9561	11.4070	14.8538	-2.1167	-1.1953	7.2978	-10.4980
3312.0223	31.4659	-1.3127	-1.2856	-1.3581	-26.8263	-0.8758	-1.8000	-3.7414	41.7212	2.9335	4.2639	4.3117	-2.8595	-1.3345	6.6609	-7.5362
3320.0223	30.7329	-1.4879	-1.4483	-5.2235	-1.4365	-0.3432	-1.7840	-3.8414	38.7768	2.7581	11.2523	3.2302	-2.1919	-2.5018	4.9976	-0.4955
3328.0224	23.9936	-1.1201	-1.0870	-6.1280	5.9777	0.2839	-0.9590	-4.4344	41.8729	1.8272	21.6815	-1.4645	-1.8286	-4.8901	3.2844	-1.6230
3336.0224	15.5497	-1.1066	-1.0981	-6.3321	-3.0939	0.4182	-0.7121	-4.6370	38.2160	0.9179	22.4402	-18.1747	-3.7960	-6.9318	1.7959	-6.9241
3344.0225	1.4940	-0.8271	-0.8612	-11.7168	-27.4518	-0.5319	-1.1147	-5.0105	26.7438	-0.1005	21.1320	-25.7313	-5.3349	-6.7048	2.6229	-7.2821
3352.0226	-8.1736	-0.4576	-0.5011	-11.2869	-15.6490	-1.4449	-2.5525	-5.7674	35.8556	-0.9870	17.3040	-20.6210	-6.6728	-4.6752	3.0497	0.5563
3360.0226	-16.4755	-0.1289	-0.1667	-13.8187	16.4719	-1.7451	-3.9030	-6.9028	46.1035	-2.0401	15.8548	-15.5691	-8.3687	-4.7661	0.8702	3.4509
3368.0227	-25.6840	0.2895	0.2305	-19.6442	8.5774	-1.8989	-3.4915	-7.3545	38.8921	-2.9214	5.2598	-18.7399	-8.3036	-5.3466	-0.3293	-5.7637
3376.0227	-28.0519	0.3877	0.3209	-19.0316	-2.9096	-2.0030	-3.0824	-6.7355	39.3807	-3.0462	-1.6822	-16.3391	-8.3118	-3.9660	-1.0571	-6.7060
3384.0228	-22.8523	0.4829	0.4418	-15.6571	12.4688	-1.6359	-3.4805	-5.8350	43.8628	-2.7318	6.3999	-2.1404	-9.8145	-2.8121	-1.7266	-2.3581
3392.0228	-13.4392	0.6915	0.6714	-9.2378	10.9008	-1.7773	-3.9629	-4.5435	48.3810	-1.8605	22.0656	12.1060	-9.7871	-1.2957	0.2106	-2.6251
3400.0229	-19.3450	0.8053	0.7586	-7.5842	-19.9247	-3.9603	-5.1817	-4.5260	55.5356	-1.7572	33.7093	21.0023	-7.8571	-0.7337	1.0519	-0.8163
3408.0229	-21.8612	0.5282	0.4707	-17.3220	-22.6369	-4.6290	-5.5370	-4.3584	52.6108	-1.7444	21.4801	17.9494	-6.6980	-1.8538	-0.5403	-6.8348
3416.0230	-15.8635	0.2916	0.2525	-21.7905	3.7128	-3.2299	-4.9565	-2.8540	45.1357	-1.6150	11.4276	4.1549	-7.1407	-3.0754	-1.3832	-13.9498
3424.0230	-21.2575	0.2566	0.2028	-17.1931	-1.5657	-3.7496	-5.5337	-2.1652	41.6193	-1.9482	12.7565	-3.0573	-7.7384	-3.1919	-0.2256	-7.3381
3432.0231	-15.4641	0.2053	0.1537	-14.9216	-11.8495	-4.5602	-6.1788	-1.6914	47.1909	-1.1315	13.9325	2.9495	-6.2405	-0.9662	2.8968	-4.8120
3440.0231	-8.3943	0.3590	0.3216	-13.4852	-5.2001	-3.7369	-5.1260	-1.3586	52.3495	-0.7444	20.0059	0.1991	-3.7665	-0.9081	2.9401	-12.5447
3448.0232	-1.6263	-0.3678	-0.3995	-9.6896	-11.5745	-2.7054	-3.4811	-1.1196	44.5337	-0.0955	6.2015	-15.2386	-2.2442	-1.8784	0.6382	-17.4189
3456.0233	13.5844	-1.6236	-1.6281	-7.1187	-3.7188	-2.3265	-3.6481	-1.2228	43.8279	1.4922	-15.2580	-21.0468	-2.4238	-0.8639	0.1734	-13.8647
3464.0233	15.2039	-2.2627	-2.2612	-9.9981	2.3636	-2.2438	-4.1696	-1.4822	52.2110	1.6337	-23.1690	-21.8445	-5.2118	-1.5089	-1.5494	-7.3561
3472.0234	13.9325	-2.4999	-2.5164	-15.4240	-15.4603	-2.9705	-4.6866	-1.4833	57.8397	1.6756	-34.3329	-26.7898	-6.7345	-0.2267	-2.2890	-15.6399
3480.0234	11.4217	-2.3563	-2.3789	-15.8355	-4.6299	-3.3800	-5.5802	-2.4677	58.8297	1.3092	-40.8914	-36.9374	-6.9458	1.2955	-2.6986	-26.2161
3488.0235	15.1040	-2.6391	-2.6462	-15.5207	6.4094	-1.1694	-3.5899	-1.6365	52.9548	1.2222	-33.6416	-44.4002	-8.6555	-0.3537	-4.5747	-19.4466
3496.0235	22.2162	-2.6852	-2.6990	-24.7753	-19.5169	-1.3271	-3.2335	-1.1759	65.4965	1.9402	-23.9547	-39.0904	-9.0390	0.6091	-2.8503	-26.2297
3504.0236	15.0259	-2.2179	-2.2595	-35.5342	-29.5894	-3.5266	-5.8038	-2.5094	83.0440	1.3362	-21.8692	-37.0938	-10.8426	1.1528	-2.6993	-45.5929
3512.0236	17.1693	-2.1641	-2.1822	-29.2854	-15.3551	-2.3187	-5.2094	-1.2028	65.3894	1.3503	-12.8277	-29.4328	-12.9111	0.8871	-4.6926	-40.0692
3520.0237	10.1499	-1.4933	-1.5047	-14.5144	-9.1784	-2.2996	-5.0118	-1.6048	38.9080	0.9089	1.7417	-15.5495	-11.4889	3.3371	-4.5949	-27.8342
3528.0237	-6.8507	-1.0577	-1.0927	-7.9428	-11.8059	-3.1097	-5.7133	-2.3278	20.3651	-0.4487	-0.6809	-15.6007	-12.8799	3.5423	-6.7759	-24.1540
3536.0238	-10.5391	-1.2579	-1.2887	-0.0232	-10.2372	-3.1269	-5.8576	-1.1558	6.4580	-0.5603	-6.6896	-10.6348	-14.0813	3.1081	-7.9514	-11.8667
3544.0238	-19.3866	-1.5320	-1.5748	13.3543	-6.5731	-5.0081	-7.8953	-2.1222	-0.8676	-0.7860	-14.5266	-13.8286	-12.8358	4.4715	-8.1836	-0.1125
3552.0239	-18.6239	-2.2289	-2.2655	26.6484	-10.1008	-4.6302	-7.7241	-0.7130	-27.5395	-0.4182	-24.8399	-21.5305	-14.6191	4.2860	-10.3141	7.7171
3560.0240	-16.0332	-1.9312	-1.9388	35.4680	-0.5962	-3.2757	-6.1942	0.4004	-54.2876	-0.1953	-33.6487	-3.3648	-13.9575	4.3219	-10.0021	19.1994
3568.0240	-19.0605	-1.5264	-1.5192	36.9259	33.2496	-2.8863	-6.1027	-1.0065	-60.5639	-0.7188	-50.1235	-3.6681	-11.1766	4.8923	-10.5150	17.1480
3576.0241	-13.0377	-1.7566	-1.7266	45.5493	53.7665	-1.6179	-5.5732	0.1345	-74.1162	-0.4868	-55.1303	-14.9951	-11.8340	3.6634	-12.0767	11.9561
3584.0241	-10.8327	-1.7644	-1.7225	52.4204	43.0880	-1.9971	-5.7994	1.0040	-77.3580	0.0318	-52.7517	6.2579	-12.5102	4.2695	-11.1793	24.9605
3592.0242	-6.9783	-1.9205	-1.8804	41.0035	34.0179	-2.8865	-6.6053	1.2606	-68.5946	0.6625	-54.2212	17.2413	-12.3944	6.6395	-10.4752	23.1305
3600.0242	-13.5952	-1.5547	-1.5344	32.9176	39.0005	-3.3833	-7.2885	0.7334	-78.7488	-0.0443	-58.5116	3.7396	-12.0838	6.2747	-10.6608	6.1013
3608.0243	-12.2557	-1.8496	-1.8219	32.0124	48.3778	-2.7833	-6.6196	0.2951	-86.1814	0.0801	-63.0029	-0.5890	-11.0031	6.2649	-12.2772	7.9242
3616.0243	9.4316	-2.5443	-2.4710	31.9224	62.0639	-0.3244	-4.4551	2.2464	-77.3895	1.6902	-42.8590	-0.5399	-10.2220	6.6529	-13.1745	12.3886
3624.0244	9.9260	-2.2851	-2.2150	37.2253	51.8974	0.3944	-3.1696	2.7966	-65.8802	1.5365	-28.6814	-2.1205	-9.4668	5.6357	-11.3688	18.9838
3632.0244	16.7590	-2.3871	-2.3111	40.0021	25.7450	0.5221	-2.0493	2.9689	-57.6026	2.3567	-30.4813	12.5677	-8.7109	6.5105	-10.4980	22.6936
3640.0245	30.8780	-1.8095	-1.6945	46.8648	30.8889	1.1696	-1.7161	3.0875	-50.7109	3.2530	-15.9983	33.9245	-8.4399	6.2879	-10.4091	7.0549
3648.0245	33.9386	-1.4129	-1.2785	54.0145	41.2986	2.0075	-0.8270	3.5950	-37.9651	3.2412	-3.3339	44.3929	-7.3383	6.4363	-9.7606	15.3460
3656.0246	37.4460	-1.7926	-1.6554	39.3403	43.9881	3.0489	0.8306	4.7579	-37.1339	3.6814	7.9891	45.1797	-4.8174	8.0296	-9.8309	29.0928
3664.0247	22.1918	-1.3039	-1.2117	18.7636	45.6950	1.6007	-0.6539	2.6361	-47.2180	2.2650	4.3483	25.4820	-4.1044	4.6875	-10.0288	4.8153
3672.0247	21.0217	-1.6203	-1.5555	19.8662	19.2757	0.3315	-1.5662	2.5013	-43.9239	2.3807	-9.7221	8.4169	-4.5647	2.5093	-9.0736	-10.0729
3680.0248	32.0011	-1.8532	-1.7701	27.0493	10.0762	0.7777	-0.6609	3.5542	-41.3187	3.4992	-3.2259	14.4312	-2.5613	3.0607	-7.9609	-6.8795
3688.0248	29.4530	-1.5480	-1.4622	18.0742	28.4120	1.3071	-0.0591	2.8472	-42.7429	3.0416	-6.8494	13.2451	-0.3048	1.4451	-7.5741	-8.2100
3696.0249	35.2918	-1.7083	-1.6199	13.4244	15.4291	2.0863	1.5866	4.2592	-38.4767	3.6202	-3.0697	15.1343	1.5720	1.8255	-7.2399	-5.6759
3704.0249	32.7268	-1.2426	-1.1544	20.1652	5.8967	2.0865	2.3211	2.9390	-32.7749	3.3739	14.1991	26.4805	3.0588	1.8135	-7.9710	-3.5203
3712.0250	35.9102	-1.1298	-1.0232	20.5694	24.7269	3.5214	3.6711	2.0838	-22.3907	3.2104	16.6867	26.9899	3.9634	0.4203	-7.8108	2.4614
3720.0250	36.4880	-0.5636	-0.4514	20.0583	29.5287	5.0233	5.9567	3.7446	-20.0309	2.9631	25.3740	28.1428	7.2579	0.1269	-5.3477	11.1712
3728.0251	22.0099	0.2709	0.3512	13.7524	22.8972	4.6355	6.4529	2.4507	-22.7019	1.5898	26.7289	24.5834	9.3394	-0.8912	-4.1198	8.9222
3736.0251	30.1751	0.2580	0.3424	2.7373	29.3003	5.7314	7.3988	2.6081	-18.4120	1.9438	31.3069	11.1304	10.1730	-0.6950	-2.7625	-3.8811
3744.0252	24.2088	0.5635	0.6229	-3.6774	26.8072	5.0837	7.3011	1.9949	-23.1798	1.5131	39.3396	-3.4296	13.8065	-0.7870	-1.1394	-11.1668
3752.0252	14.4522	-0.2587	-0.2461	-15.9253	-7.9622	2.3508	5.7206	0.4152	-22.8209	1.6476	25.8559	-8.5772	15.7248	-1.5875	-0.9604	-5.2024
3760.0253	22.8991	-0.4217	-0.4025	-19.9663	-21.8418	1.6023	5.1745	0.7818	-11.5384	2.6392	26.3711	3.0561	16.3327	-0.7369	0.1720	-10.3960
3768.0254	15.8692	0.5598	0.5878	-16.3473	11.8600	1.4578	4.4360	-0.9262	-8.8807	1.5954	26.5833	7.7484	18.1292	-0.3254	0.6407	-14.8967
3776.0254	17.4506	0.0315	0.0721	-20.1693	31.2501	1.3380	3.9677	-1.1294	-6.9789	1.9435	23.3988	10.6674	19.5107	-0.1232	0.1853	-0.7248
3784.0255	10.0544	0.2281	0.2470	-22.0168	13.7070	0.1821	3.4351	-1.6182	-14.5804	1.5977	24.8880	12.9792	20.3623	-1.7306	0.1058	-4.7265
3792.0255	2.4745	0.2501	0.2348	-26.3236	-10.7440	-0.6032	3.1099	-2.8813	-22.9267	0.9956	8.9536	-1.6132	18.9256	-4.3692	0.3542	-20.1431
3800.0256	20.9468	-0.1527	-0.1396	-19.9985	-14.6054	0.7117	4.3254	-0.6779	-12.8763	2.5077	14.9311	-2.6205	19.3993	-2.9750	3.3701	-16.6793
3808.0256	16.3373	0.2511	0.2649	-1.5517	-7.1101	0.4876	4.6033	-1.7497	-15.4781	2.2149	13.4454	-4.1014	23.3978	-0.1727	5.5557	-3.7791
3816.0257	13.2345	-0.5273	-0.5254	0.7970	-10.8595	0.0431	4.4164	-3.5402	-15.8051	2.2235	-7.2669	-17.1523	23.7172	-0.4878	4.2693	2.6005
3824.0257	13.6239	-0.0936	-0.0836	-1.3385	-5.1958	0.1525	4.1326	-3.3387	-0.7629	1.8825	0.3287	-7.9080	22.0844	-3.1217	3.6918	-4.6664
3832.0258	-7.8297	0.7357	0.7133	-0.7004	-1.1502	-1.8923	1.9695	-5.4936	-15.3211	0.1772	-16.8299	-4.0210	21.6732	-3.4627	4.4584	-5.2651
3840.0258	-15.9860	0.0652	0.0154	1.1914	-15.3868	-3.8057	0.0820	-6.2822	-27.7641	0.1529	-39.7209	-12.8862	20.9145	-2.4382	5.2108	3.3914
3848.0259	-27.0228	0.3790	0.3124	8.7355	-14.1315	-5.3344	-1.8413	-7.3827	-9.0631	-0.8726	-33.5448	-12.4354	19.3228	-4.5168	4.4544	4.4808
3856.0259	-35.8673	-0.0429	-0.1179	8.5809	0.4228	-7.0786	-4.7816	-9.1814	-3.8810	-1.4568	-40.9433	-12.8173	16.0559	-5.8959	2.2323	9.1073
3864.0260	-27.9332	-0.8893	-0.9459	7.1232	10.5952	-7.3821	-6.1658	-8.5169	-2.5442	-0.5463	-38.7073	-10.2661	13.4954	-4.9301	0.3691	13.1814
3872.0261	-24.2328	-1.0220	-1.0697	11.4327	12.3672	-7.8368	-7.1995	-8.1875	11.1545	-0.2289	-30.0775	-5.2268	11.7629	-3.8081	-0.4030	12.9656
3880.0261	-19.2407	-1.3224	-1.3587	14.0822	15.1526	-8.5995	-8.7057	-8.0382	13.6163	0.3987	-28.5309	1.6348	10.2109	-3.2341	0.0342	14.3421
3888.0262	-25.8111	-0.9377	-0.9775	7.4962	29.0175	-8.5490	-8.8185	-8.8052	12.6431	-0.3785	-24.7307	3.6767	10.3089	-3.7246	-1.6316	11.1701
3896.0262	-30.2658	-1.6156	-1.6755	-2.2350	18.2904	-8.6835	-8.6093	-9.3258	13.7750	-0.5736	-31.9701	-6.8681	8.9487	-2.8624	-5.2972	11.4539
3904.0263	-21.3439	-2.4949	-2.5531	2.6719	-9.2272	-8.8624	-8.4887	-7.9590	12.9749	0.6332	-25.6107	-7.8478	7.4203	-2.3294	-6.8108	12.5762
3912.0263	-26.3736	-2.4663	-2.5369	0.6699	-8.8802	-9.9750	-9.9464	-8.5773	17.8812	0.3006	-17.8017	-9.0623	6.5851	-2.0694	-7.6194	9.8797
3920.0264	-29.8771	-3.1875	-3.2614	-6.6890	17.9863	-11.5168	-13.3062	-9.2451	15.7889	0.2413	-24.2159	-18.3915	3.4734	-0.2035	-9.0593	12.6746
3928.0264	-27.7038	-3.3506	-3.4005	1.3111	42.3170	-10.8646	-13.4005	-8.3964	8.6509	0.3454	-19.1190	-15.6760	3.1955	-0.5176	-10.3751	22.7533
3936.0265	-27.6891	-3.8303	-3.8911	-3.1368	19.2810	-10.9807	-12.1955	-8.0084	12.3677	0.7953	-15.6540	-11.6789	5.5418	-0.1976	-11.5059	33.4211
3944.0265	-29.3423	-4.3894	-4.4779	-11.7029	-11.0827	-12.8766	-13.6067	-7.6462	11.1835	1.3153	-16.2539	-13.8732	5.2578	0.5787	-12.2009	27.5641
3952.0266	-30.9463	-4.2763	-4.3632	-15.2029	1.3926	-12.9190	-14.0226	-7.4731	8.4661	1.0377	-20.5122	-17.0972	5.2184	-0.2264	-13.2646	20.1799
3960.0266	-21.4137	-5.0673	-5.1462	-25.9210	-5.4237	-12.8886	-13.7249	-6.7793	18.9244	2.1747	-23.9771	-13.5792	5.9333	1.8776	-14.3789	22.8369
3968.0267	-28.2204	-4.5291	-4.6221	-22.0855	-19.8154	-13.4990	-13.8987	-6.4182	20.5844	1.5944	-20.1115	-7.0696	5.3073	2.5931	-15.2547	17.9467
3976.0268	-8.2586	-1.6816	-1.7494	-37.4613	-7.8630	-8.5327	-11.6640	-0.0221	-3.0120	0.9976	-23.5537	-19.7924	-5.8416	4.1820	-0.2462	-35.3940
3984.0268	-0.6187	-1.8345	-1.8746	-18.8655	-6.1569	-6.7665	-9.4234	0.9172	3.0558	1.5189	-19.4001	-14.3660	-4.6648	4.9304	0.3303	-15.3622
3992.0269	-1.1541	-1.9093	-1.9609	-24.0824	-25.7164	-6.2357	-7.5403	1.3947	0.6714	1.6952	-15.1856	-13.3651	-1.8774	5.1994	1.2340	-6.2549
4000.0269	-2.6844	-1.2981	-1.3453	-14.8605	-26.0079	-4.9904	-5.7005	2.3357	-7.3824	1.1818	-23.5295	-16.3904	-0.7648	4.1848	0.8067	-13.6282
4008.0270	0.7963	-1.0579	-1.0815	-13.8473	-6.9591	-3.4653	-4.2242	3.2735	-12.9041	1.2338	-23.5129	-8.6772	0.3677	5.3748	1.1620	-4.1137
4016.0270	-3.8926	-0.5023	-0.5407	-22.0618	-18.2515	-4.0710	-4.2697	2.5367	-1.6332	0.7331	-23.1568	-1.2643	0.8933	4.6423	1.1425	-14.6086
4024.0271	0.7119	-0.4791	-0.5204	-14.7201	-42.2176	-3.5536	-3.0450	4.2805	7.9370	0.9835	-26.0140	-6.1485	0.4933	2.3484	1.1535	-23.9639
4032.0271	5.7143	-0.5675	-0.5799	-8.6431	-9.5621	-1.6751	-1.3451	5.5722	2.3712	1.2104	-16.6987	-9.7649	3.7584	3.7753	1.8798	-4.2527
4040.0272	8.3015	-0.0960	-0.0806	-6.8889	25.8904	-0.0221	-0.2626	5.0702	5.1599	0.8043	-16.7137	-8.3168	4.6936	3.4494	1.4495	-4.5208
4048.0272	13.9247	0.2055	0.2220	-13.4457	11.9401	0.5645	0.4906	5.9037	8.4441	0.9980	-19.4403	-6.3423	3.3442	0.8987	2.7120	-20.7169
4056.0273	12.1035	0.3676	0.3738	-14.7560	2.8560	0.1325	0.5623	5.9796	5.3911	1.0195	-13.3159	-6.2591	5.2927	0.5706	4.5078	-19.1105
4064.0273	16.8141	0.0385	0.0502	-7.8014	-11.1608	1.3004	2.5468	6.5270	3.5185	1.4806	-8.9377	-8.3247	6.2404	0.2617	4.3712	-9.5926
4072.0274	13.8608	-0.0498	-0.0559	-15.6192	-26.1871	1.6931	3.7258	6.2233	-4.9297	1.3151	-12.8580	-15.2485	6.9125	0.3154	4.7659	-9.0345
4080.0275	9.0833	-0.0002	-0.0097	-17.2627	-7.4843	1.5716	3.2505	4.8822	0.4801	0.7346	-19.8399	-23.1733	7.5678	0.6186	4.4049	-8.1314
4088.0275	15.8679	-0.0971	-0.0847	-12.1382	0.4032	3.0548	4.4451	5.3157	10.0683	0.9465	-10.8257	-21.0547	6.2495	-1.0032	4.2017	-1.9752
4096.0276	9.3962	0.5833	0.5850	-15.2212	-0.8656	2.5605	3.8718	3.8924	-3.3582	0.3219	-8.0738	-15.8786	5.9447	-1.8897	6.0435	-8.4071
4104.0276	6.6235	0.7699	0.7646	-9.9678	-7.4786	1.6601	2.9736	2.8438	-8.3024	0.2186	-18.1134	-14.1568	5.7930	-1.6283	7.1799	-12.8129
4112.0277	4.9596	0.3155	0.2957	-3.1785	-34.0424	2.0098	4.5247	3.7932	-1.0091	0.3477	-15.8301	-18.3926	6.5173	-1.3062	7.2058	4.7380
4120.0277	-2.0326	0.4351	0.4083	-6.7201	-18.2391	2.1696	4.6744	2.7703	-3.3646	-0.3058	-12.4025	-23.2150	8.0053	-0.1526	7.3241	14.8971
4128.0278	1.2380	0.8457	0.8411	-16.3236	16.3171	2.4287	3.4518	1.3543	-7.8711	-0.4634	-13.3181	-17.4046	6.4721	-0.8507	7.7499	2.0930
4136.0278	-0.8746	0.7390	0.7221	-21.2808	2.3547	1.8543	3.0469	0.7047	-8.9158	-0.5164	-20.7708	-16.3033	5.1737	-1.9593	7.6885	-2.4221
4144.0279	0.3001	0.3204	0.2961	-15.4387	-21.1665	1.3524	3.4569	0.6167	-5.7947	0.0230	-27.8201	-13.0436	6.2483	-0.5778	7.8261	6.1175
4152.0279	4.5880	0.6197	0.6100	-3.4703	-30.4310	1.2537	3.6130	0.3153	-3.9374	0.4242	-26.6098	1.8795	6.4146	-0.2819	8.1730	4.1444
4160.0280	7.7198	0.4568	0.4636	7.2604	-23.4823	1.8510	3.9524	-0.2571	-0.8379	0.5660	-25.7951	3.8592	5.5335	-0.1326	6.7594	8.8064
4168.0280	12.0559	0.0359	0.0567	-1.2960	-2.5183	2.7029	4.1599	-0.3646	5.5005	0.8188	-18.6691	2.0594	5.1490	0.9105	6.8535	20.6159
4176.0281	3.7979	0.5408	0.5373	-10.4044	-12.1632	1.4475	3.0562	-1.5955	2.3781	0.1748	-19.4498	3.8919	5.0322	0.0849	7.9549	9.8128
4184.0282	4.3445	0.6000	0.5910	-1.6180	-31.8200	1.0141	2.9545	-2.1335	-4.7401	0.3013	-22.9797	2.9309	4.1356	-0.7716	6.4727	-4.6041
4192.0282	6.9143	0.7614	0.7635	-7.6871	-21.6149	1.0861	2.4250	-1.9425	-6.1632	0.4126	-15.0068	11.2314	3.0464	-0.9719	6.4068	-8.1345
4200.0283	2.0114	0.9752	0.9657	-13.1993	-21.2088	-0.2242	0.8867	-2.3068	-3.0318	0.1413	-14.5298	15.5404	3.0200	-0.8081	7.1140	-11.2058
4208.0283	4.6592	0.5846	0.5804	1.6653	-28.8087	-0.4578	0.6059	-1.8730	-5.8028	0.5775	-11.1988	12.7088	2.3974	-0.3640	5.7655	-8.0071
4216.0284	-0.7188	0.4914	0.4905	4.1823	-13.0636	-1.1353	-0.9440	-2.1921	-12.4207	0.2202	-7.7297	17.2414	0.6698	-1.0120	4.8825	1.0195
4224.0284	-3.8938	0.1396	0.1294	-7.2663	-8.1447	-1.7907	-1.7683	-2.2182	-4.9801	0.0931	-9.7490	15.3559	0.5966	-1.8667	4.0155	4.4914
4232.0285	-4.9697	0.0612	0.0345	-14.3319	-23.3010	-1.7612	-1.1145	-1.5342	-5.2260	0.0441	-12.9156	7.1144	1.0613	-2.0298	3.2614	-3.9575
4240.0285	-7.2818	0.1250	0.0992	-5.1424	-21.6402	-2.7189	-2.5466	-2.0770	-15.8065	0.0446	-23.5003	10.5648	-0.0032	-0.5008	3.6988	-4.6019
4248.0286	-4.3030	-0.4359	-0.4424	5.8071	-3.0463	-3.3446	-4.1297	-2.9498	-7.5924	0.4854	-21.9757	14.4322	-0.7775	0.2125	3.1248	9.7055
4256.0286	-16.0769	-0.8300	-0.8653	-2.5256	-3.9020	-5.1840	-6.1336	-4.5215	0.1876	-0.1875	-21.1791	8.7529	-1.3844	-0.8781	1.4561	15.3443
4264.0287	-22.7308	-1.2110	-1.2700	-4.6411	-18.0636	-7.6160	-8.8119	-5.8966	-0.6200	-0.1837	-22.9048	9.6376	-2.8428	0.2724	0.3917	13.1777
4272.0287	-23.0033	-1.0179	-1.0673	-1.0962	-0.6903	-7.7447	-9.9219	-6.5216	-3.5276	-0.4374	-18.3846	8.7682	-4.6058	0.4118	-1.0169	4.5400
4280.0288	-27.9857	-0.9371	-0.9888	-1.0981	16.3058	-7.3218	-10.0170	-6.4927	-14.3929	-1.1411	-30.6628	-3.7645	-5.6258	-0.3069	-2.8789	-2.8077
4288.0289	-20.0571	-1.5114	-1.5486	17.6662	4.0869	-6.8732	-9.1396	-5.1233	-14.0880	-0.1916	-28.5160	-5.2136	-4.8430	1.0042	-3.4769	7.8159
4296.0289	-18.2182	-1.3125	-1.3329	31.9579	7.8545	-6.8006	-9.0404	-5.3081	-0.9103	-0.1083	-13.3613	6.4986	-4.2130	0.4874	-3.9333	16.5254
4304.0290	-24.4750	-1.6033	-1.6284	32.4599	22.8347	-9.0607	-12.3471	-7.8054	12.0017	-0.3753	-14.4265	11.2092	-5.5599	0.5336	-5.5879	18.6458
4312.0290	-29.0223	-2.8335	-2.8629	46.3847	40.8599	-12.2864	-17.2670	-11.1044	17.1756	-0.1026	-19.4456	0.1495	-7.5778	0.8687	-9.0742	23.1415
4320.0291	-26.0040	-4.2641	-4.2798	56.5895	54.1610	-13.9750	-20.0045	-12.8943	15.0789	0.7640	-29.2112	-4.0894	-8.7709	-0.1951	-13.9929	27.8969
4328.0291	-13.6588	-5.7023	-5.7071	50.8307	36.2206	-15.6025	-22.0417	-11.4390	24.3456	2.6723	-28.3581	8.0179	-10.9244	1.7173	-16.6844	31.9531
4336.0292	-9.0626	-6.2436	-6.2494	47.8665	38.4201	-17.2292	-25.0712	-9.3919	30.5057	3.3459	-24.3304	3.8547	-14.4171	3.9864	-17.5470	22.8539
4344.0292	1.1349	-6.5444	-6.5320	46.3831	46.3372	-16.2553	-24.3897	-6.9182	28.8147	4.1493	-18.5630	-1.1914	-13.9992	5.4143	-18.1227	19.3293
4352.0293	3.7028	-6.6736	-6.6727	33.0770	18.6280	-15.6073	-22.3174	-4.6004	35.6057	4.6199	-1.0830	6.1448	-12.1370	6.4029	-17.7032	28.9714
4360.0293	-3.2764	-6.3247	-6.3404	15.9103	27.9795	-15.7677	-22.8049	-3.8339	26.7032	3.8372	-5.4075	-0.8499	-12.8167	5.6704	-18.2381	16.6099
4368.0294	5.5381	-5.9880	-5.9794	10.2249	51.6401	-14.5933	-22.2320	-2.7216	16.4351	4.1803	-6.6537	-3.9639	-11.8027	6.2438	-19.0386	-3.6999
4376.0294	4.4228	-5.8506	-5.8506	16.7304	28.8797	-14.2304	-20.7888	-1.5380	27.4920	4.0763	3.1160	-2.0781	-11.1877	6.5136	-20.5958	-2.4198
4384.0295	5.2826	-6.2560	-6.2510	28.4979	11.9189	-12.7968	-18.2419	0.5983	27.9795	4.2140	2.5537	-1.2903	-11.1102	6.6038	-23.7311	12.6637
4392.0296	15.3955	-6.0139	-5.9776	25.5626	19.2564	-9.9281	-14.7980	3.8264	19.0467	4.7518	12.1032	9.0956	-9.5488	7.8550	-23.7811	20.8054
4400.0296	18.4666	-5.0972	-5.0558	12.0325	24.1920	-7.7081	-12.3575	6.6241	12.5079	4.3460	17.6550	8.4718	-9.4237	7.3122	-21.1754	10.9405
4408.0297	27.9965	-4.4541	-4.3973	15.1912	18.6604	-5.4790	-9.3197	9.0865	8.8589	4.7458	31.2632	7.6806	-6.7929	8.1522	-18.3781	6.7712
4416.0297	22.0982	-3.7765	-3.7364	15.5323	5.9563	-4.9450	-7.6167	9.5776	13.6476	4.1191	44.5493	7.7736	-4.0903	9.1337	-16.2969	13.5723
4424.0298	12.6728	-3.4638	-3.4500	7.2566	-8.6413	-4.0427	-5.7764	10.0188	5.6645	3.0595	26.0432	-2.3458	-4.6028	6.8453	-16.0738	10.8160
4432.0298	21.6086	-2.7730	-2.7307	10.6762	-5.0834	-1.2042	-1.9698	11.2770	-4.4973	3.3085	21.5219	5.4957	-1.6849	6.6510	-14.6473	8.1619
4440.0299	23.4185	-1.8338	-1.7683	8.5894	23.4515	0.6318	-0.0950	10.6290	2.0338	2.7907	29.6419	13.4112	1.0548	6.8460	-12.7970	10.3397
4448.0299	19.3112	-1.4241	-1.3666	5.8026	17.0327	1.5541	1.4797	9.8694	-0.9199	2.1461	25.5345	12.2167	1.4169	4.0147	-11.7905	9.7090
4456.0300	12.3466	-0.7233	-0.6817	11.1216	-8.2893	1.3657	2.6247	8.9503	-6.9439	1.6149	19.6017	22.5245	3.0033	2.7798	-10.0339	9.8850
4464.0300	8.2120	-0.5277	-0.4876	7.4740	1.8880	1.5907	2.8185	7.5174	-2.0417	1.0221	13.3993	22.2653	3.0546	1.8521	-10.9126	8.3213
4472.0301	8.1345	-0.6322	-0.6014	0.0476	-8.6747	2.7532	4.6564	7.3382	-0.2604	0.7728	15.8029	12.7926	3.0093	-0.5228	-12.2604	3.3849
4480.0301	4.6479	-0.4099	-0.3968	-5.6855	-16.1382	2.5919	4.8825	6.8698	1.9850	0.4307	9.3797	5.7932	3.8320	-0.1984	-9.9611	0.9942
4488.0302	7.5111	-0.6208	-0.5940	-4.7924	10.7856	2.7140	3.9079	5.8154	6.3720	0.4839	-2.5255	-1.4283	3.2223	0.3773	-8.3841	4.2435
4496.0303	4.4189	-0.6270	-0.6097	-0.3703	-3.8010	2.1462	3.6403	4.9018	9.0848	0.3586	2.2437	2.1434	2.5283	-0.5631	-8.4233	7.1137
4504.0303	-4.3016	-0.5317	-0.5442	-2.0761	-24.0023	0.5379	2.4832	4.0422	6.5275	-0.0077	4.2755	1.4650	2.5720	0.6367	-7.9957	6.2163
4512.0304	-5.6480	-0.6936	-0.7053	-2.8168	-14.1130	0.8236	2.5756	3.7307	-6.2718	-0.1018	0.1406	-5.4154	2.8815	1.2745	-8.8648	6.9452
4520.0304	-3.3245	-0.7250	-0.7245	-10.5312	-5.3282	1.5350	3.1491	3.5237	-12.1482	-0.0270	-0.4614	0.9090	2.4514	0.2816	-10.5019	4.2483
4528.0305	3.6905	-1.0070	-0.9926	-13.7589	6.9161	1.6607	2.6093	3.5045	0.2447	0.4722	3.7785	0.1041	1.9319	0.8916	-10.3804	3.1326
4536.0305	6.4385	-1.5546	-1.5530	-2.6510	-19.7585	1.2584	2.8213	3.8868	13.4100	0.9847	8.2119	-9.9443	1.8831	1.8608	-9.8810	9.1400
4544.0306	3.9427	-1.5933	-1.6065	-3.8226	-38.0667	0.6763	2.5601	3.3452	5.6197	0.9770	7.4918	-10.4004	0.9784	2.1724	-10.2427	3.8308
4552.0306	1.8776	-1.1801	-1.1725	-4.8848	15.0026	1.3568	1.6055	1.8603	-10.2737	0.3110	8.4122	-18.1537	1.1885	2.5118	-10.0174	0.5571
4560.0307	1.8398	-1.5004	-1.4842	3.8691	32.6683	1.4302	1.3660	1.1281	-2.2684	0.2849	13.2395	-25.7555	2.4772	2.9910	-11.2163	9.7499
4568.0307	4.0217	-1.7519	-1.7343	6.5006	20.5938	0.6917	0.5887	0.9836	9.1591	0.6260	20.3849	-18.1162	0.9079	2.4638	-13.3980	6.2501
4576.0308	0.2479	-1.4279	-1.4145	2.9877	29.2643	0.4391	-0.4058	0.8376	-0.4122	0.1569	18.8396	-19.1911	-1.0207	1.6870	-11.8875	2.3296
4584.0308	-1.8932	-1.6989	-1.7106	-4.4391	-0.1647	-0.7987	-0.6020	0.8183	-3.9674	0.5727	13.3272	-17.9827	0.7337	3.2668	-10.4953	4.2094
4592.0309	2.1224	-1.5549	-1.5509	1.2780	-4.6072	-1.0841	-0.4402	0.7312	3.8922	1.0383	16.6513	-0.3815	2.1342	4.3425	-12.8025	0.5551
4600.0310	4.6885	-1.2663	-1.2333	5.4904	27.7040	0.5739	0.5156	1.5032	4.0753	0.7114	16.5498	1.9702	1.8218	3.4200	-13.6901	4.6322
4608.0310	-0.8742	-1.6376	-1.6422	-12.0928	1.6414	0.0109	0.8862	1.9427	-4.7034	0.6038	10.5522	-11.2320	2.5925	2.5487	-12.7905	2.6683
4616.0311	-11.4597	-1.5667	-1.6102	-23.5658	-25.3773	-1.7198	-0.0965	1.0940	-15.3488	0.1114	-3.1580	-13.3140	2.4990	1.7786	-13.0353	-8.3647
4624.0311	-14.3239	-1.2962	-1.3367	-26.8246	-15.5773	-1.7242	-0.2356	0.8778	-14.4332	-0.2798	-11.8337	-8.1423	2.4309	1.2597	-13.6729	-11.1266
4632.0312	-14.7121	-0.9289	-0.9634	-24.5653	-5.3202	-1.1390	0.2649	1.0324	-6.2815	-0.6623	-0.0286	-9.3472	3.0245	-0.1003	-14.1626	-13.8318
4640.0312	-9.8788	-0.7847	-0.8033	-21.9012	3.3959	-0.1215	1.0487	1.6100	-10.2557	-0.4588	9.1043	-7.8235	3.1242	-0.2939	-13.1785	-11.3547
4648.0313	-4.0610	-1.0766	-1.1032	-31.9428	-21.9263	-0.3098	1.8180	2.3372	-7.6261	0.4423	9.3399	-2.2052	4.7733	1.8103	-11.3040	-8.7875
4656.0313	-3.1374	-0.9602	-0.9967	-29.8277	-42.6952	-0.4865	2.2749	3.0710	8.7952	0.4819	9.2792	-2.0604	4.5561	2.0110	-11.3402	-14.6223
4664.0314	4.4858	-0.5204	-0.5231	-26.6255	-20.2832	2.1706	4.4610	4.7773	-4.2853	0.4957	12.1768	0.5897	3.7745	1.2512	-10.8989	-14.9872
4672.0314	2.0831	0.2659	0.2593	-33.5000	-18.8400	3.8457	6.8159	5.5761	-27.7038	-0.0344	11.7171	-2.5482	5.8453	1.1723	-8.0822	-17.3612
4680.0315	5.9262	0.9568	0.9548	-28.3862	-23.9964	5.6361	9.0756	7.3455	-18.8470	-0.3030	8.2673	-7.3633	5.9664	1.5474	-5.1935	-21.7484
4688.0315	24.1697	1.5975	1.6429	-27.1978	-11.3784	9.4598	13.2132	10.7581	-17.4735	0.5178	18.0498	3.2106	7.5384	3.2211	-1.8444	-17.9536
4696.0316	28.5847	2.5787	2.6389	-27.2790	-11.8001	12.2299	17.2682	12.7308	-26.1836	0.4213	18.1980	10.3141	11.4346	4.1262	2.7578	-10.0013
4704.0317	38.8477	3.5159	3.6012	-26.8377	-19.1090	16.0488	22.4115	15.2864	-18.3104	0.4566	15.7136	19.7310	13.1502	2.7643	6.9955	-5.4225
4712.0317	42.6175	5.0334	5.1207	-39.9254	-34.3783	19.9449	28.2616	17.5627	-20.3591	-0.1772	26.2281	23.8461	16.3776	1.0300	11.2371	-13.1616
4720.0318	39.7815	6.4626	6.5401	-37.6187	-32.6507	22.7414	32.2436	18.2100	-24.8896	-1.3299	24.4749	5.9630	20.1324	1.9108	16.6919	-19.3375
4728.0318	48.5829	7.4561	7.5652	-21.9673	-25.4994	26.2552	36.4299	18.5432	-24.1618	-1.4716	28.9704	8.3802	21.9552	1.4320	20.6948	-14.7141
4736.0319	34.5204	8.4839	8.5605	-23.3246	-60.9428	26.9909	39.0264	17.3068	-32.2092	-2.9077	25.6531	16.0740	22.2488	-2.8435	23.0610	-11.1502
4744.0319	23.3332	9.1355	9.1787	-33.2978	-62.7818	26.8613	39.0258	15.4182	-33.2879	-4.1999	5.5919	1.1430	21.9224	-3.4606	27.9232	-15.3746
4752.0320	29.7633	9.9236	9.9952	-30.2680	-25.8172	28.3776	39.7203	12.8022	-27.3687	-4.4276	4.7658	-1.3269	23.6082	-3.0544	31.8835	-21.4659
4760.0320	28.2978	9.8546	9.9312	-19.6477	-28.9469	28.2801	39.9167	9.9445	-15.2334	-4.5801	3.1051	5.3925	23.8510	-5.7017	32.2580	-10.9741
4768.0321	23.1318	9.8171	9.8809	-24.2286	-26.7231	26.9290	37.9347	7.6717	-8.5925	-4.9141	3.4430	6.6110	22.2772	-6.8088	34.2868	-7.3729
4776.0321	3.5397	10.7864	10.8174	-25.2121	-14.6214	24.3155	34.3981	3.3853	-21.1048	-6.6345	4.1150	3.8091	21.1825	-8.3696	35.2927	-22.8300
4784.0322	-8.6479	9.8132	9.8227	-11.2527	-23.3309	21.0345	30.5110	-0.8934	-19.8874	-6.9463	-8.4871	2.6016	18.3064	-10.8062	31.2361	-16.2267
4792.0322	-10.1175	8.5823	8.5960	-9.7614	-14.6778	18.6565	26.7059	-3.7288	-11.3159	-6.4709	-7.2970	10.3882	14.4334	-12.4259	27.8898	-4.2742
4800.0323	-18.0948	8.5420	8.5499	-5.2082	6.0677	16.2297	22.2562	-6.0308	-7.2778	-7.0651	-8.3187	10.9125	10.0217	-12.8790	28.2047	-5.4768
4808.0323	-5.8181	7.6697	7.7006	10.0582	14.3055	15.0306	19.5379	-5.4642	13.3113	-5.7583	-11.5461	9.9542	7.1915	-9.9915	29.0777	-0.3968
4816.0324	12.1952	7.3307	7.3881	12.9097	3.3441	16.0255	20.4313	-1.8862	19.0787	-4.1694	-3.5530	15.8809	6.4377	-7.3478	30.2877	-2.4950
4824.0325	16.3924	8.1363	8.2014	15.9914	-1.8779	17.2354	21.5356	0.4348	2.6458	-4.1731	1.4420	17.9449	5.2900	-7.0803	33.5647	-12.1876
4832.0325	6.8678	9.0726	9.1307	20.2742	16.2565	16.2241	20.1266	-2.7919	0.9821	-5.2601	1.2842	18.4621	6.7590	-8.2474	34.8226	-23.0583
4840.0326	-12.6750	8.9935	9.0116	14.2827	19.5796	13.2289	16.8545	-7.7228	11.5301	-6.6998	-15.4768	11.2739	6.0744	-10.8189	31.8915	-31.2463
4848.0326	-19.9632	7.6687	7.6654	14.5915	23.6706	9.7425	11.3559	-10.1962	19.0256	-6.6858	-31.2036	0.8149	-0.1049	-11.8413	30.3308	-26.6168
4856.0327	-21.0288	6.2933	6.2839	23.4586	31.5156	5.4361	4.9423	-12.4292	18.9757	-5.7561	-37.5704	-2.2162	-3.5155	-10.7595	29.4899	-22.1515
4864.0327	-18.4138	4.6861	4.6744	29.9201	19.4987	2.5749	1.4360	-13.4440	24.4603	-4.4819	-40.3113	1.4682	-5.4507	-9.5328	25.7730	-11.7154
4872.0328	-10.8156	3.5119	3.5198	33.6073	22.6464	1.7006	-0.4023	-13.6653	41.1439	-3.4152	-25.2178	11.8707	-8.5446	-9.1579	22.2949	2.3499
4880.0328	-6.1908	2.6313	2.6365	33.0154	14.6385	-0.5773	-3.4172	-14.0740	39.6011	-2.3206	-17.7541	12.2786	-9.6200	-8.1043	20.7124	-3.1130
4888.0329	-4.5547	1.2954	1.2822	30.4793	-2.9542	-3.2255	-6.7223	-13.6645	20.7509	-1.1592	-16.7823	1.5948	-11.3886	-6.3352	18.2387	-8.3126
4896.0329	-10.4733	0.4785	0.4616	29.7241	12.6038	-4.3472	-8.9507	-13.9533	18.3519	-1.3701	-12.6391	-3.5172	-14.2615	-6.3414	13.7706	0.0176
4904.0330	-11.2101	-0.2730	-0.2897	28.9896	18.2009	-5.1273	-10.1835	-13.5360	26.9279	-1.1474	-17.6329	-5.0868	-15.5608	-5.3031	10.8293	7.6743
4912.0330	-10.4532	-1.0067	-1.0266	27.2147	22.7561	-6.0488	-11.6871	-12.4122	29.5690	-0.7152	-17.1873	-11.5393	-16.4224	-3.1168	9.3431	13.6805
4920.0331	-11.1984	-1.8108	-1.8351	25.8553	32.9490	-6.7416	-13.0813	-11.6358	38.8152	-0.6025	-19.4195	-24.4237	-17.7295	-2.2550	6.5280	17.1168
4928.0332	-5.0078	-2.5787	-2.6020	28.8691	23.3458	-7.7611	-14.6501	-10.4882	44.6471	0.2794	-15.9802	-28.7027	-19.6978	-1.7977	5.2975	14.1826
4936.0332	-9.2696	-2.4103	-2.4390	27.1719	26.0377	-9.3526	-17.0201	-10.4641	33.0660	0.1813	-5.2035	-21.2361	-21.1771	-1.9641	4.9823	8.7891
4944.0333	-12.8105	-2.6463	-2.6858	15.7007	23.9837	-10.6127	-18.2774	-10.2207	27.3615	0.2792	-8.9358	-16.5285	-20.8908	-0.7564	2.9258	4.9248
4952.0333	-12.3968	-2.9445	-2.9855	12.7918	18.6229	-11.3442	-19.1561	-9.3481	24.4322	0.6073	-4.7799	-11.8242	-21.7852	-0.0724	1.0158	3.6682
4960.0334	-13.6627	-2.9443	-2.9771	14.2855	27.2891	-11.3441	-19.6015	-8.6272	22.1090	0.4705	4.4635	-5.8955	-22.9527	-1.4421	-0.5337	7.2526
4968.0334	-5.6170	-3.5111	-3.5345	11.2755	21.9703	-11.5245	-19.6405	-7.6374	35.1588	1.3980	9.2620	-2.2074	-22.2265	-0.6484	-1.7099	8.9005
4976.0335	-5.1502	-3.5928	-3.6122	15.1630	20.1371	-12.3064	-20.8280	-7.3323	30.7873	1.6172	11.9523	4.0642	-23.6209	-0.4065	-3.2275	4.6702
4984.0335	-2.9945	-3.7644	-3.7790	14.7132	8.8085	-11.5702	-19.6302	-5.7237	14.8200	1.9304	5.4321	8.9705	-24.2591	-0.5659	-4.7694	5.1801
4992.0336	2.3198	-4.1485	-4.1648	8.9879	-1.1014	-10.8312	-18.0433	-4.3041	23.4619	2.4846	5.9056	3.2426	-22.0922	1.3569	-5.3090	8.0304
5000.0336	-2.9646	-4.2780	-4.2944	10.2739	22.3938	-11.5728	-19.8361	-4.7432	23.4130	2.0055	5.6125	-3.0673	-23.2586	2.0402	-7.1141	8.9790
5008.0337	0.4035	-4.7134	-4.7274	5.2395	14.9548	-11.8864	-20.3815	-3.6637	9.7138	2.6381	5.9467	1.6995	-24.7392	2.6387	-7.7328	9.8226
5016.0337	2.0638	-4.6034	-4.6282	-2.3042	-3.6246	-11.8752	-19.5815	-2.6998	15.3962	2.8878	17.2052	3.8787	-23.4397	3.3937	-6.9540	7.4174
5024.0338	-1.2541	-4.5559	-4.5765	-0.9125	8.8927	-11.7358	-19.3438	-2.4684	22.9151	2.5044	15.2425	5.1022	-22.3228	3.4261	-9.3992	10.4288
5032.0339	1.2409	-4.8450	-4.8516	-0.0770	9.3932	-11.1887	-18.3832	-1.3085	18.4863	2.8701	5.9763	14.6687	-21.6942	3.8559	-12.0530	16.3507
5040.0339	0.8707	-4.4687	-4.4718	1.3026	7.0986	-10.5024	-17.4778	-0.4584	13.1828	2.6409	2.6361	18.4633	-22.1246	3.8321	-12.3602	12.2042
5048.0340	1.5185	-4.3173	-4.3193	8.8367	-1.3126	-10.4530	-17.0051	-0.1706	8.9121	2.7512	1.9226	20.2380	-21.2924	4.3387	-12.5908	9.6732
5056.0340	2.8150	-4.4772	-4.4749	13.5896	-10.4494	-10.5743	-16.4806	-0.2550	6.7791	3.1211	5.9948	27.5896	-19.6115	4.1629	-13.9798	13.7621
5064.0341	3.9161	-4.0418	-4.0204	11.5692	11.4018	-8.9652	-15.2321	0.2573	0.1078	2.7031	15.5110	30.0980	-19.7952	2.4756	-15.3450	10.8434
5072.0341	0.5272	-3.5524	-3.5317	12.0639	20.0331	-8.0286	-14.1004	0.8659	-12.5919	2.1636	20.4236	25.4330	-18.5014	2.5827	-15.0848	9.7841
5080.0342	-7.9830	-3.9048	-3.9100	10.2946	5.1508	-8.8930	-14.0759	0.8145	-15.5426	1.8680	6.7373	18.8930	-16.9576	3.3811	-15.7203	18.6987
5088.0342	-12.9360	-4.1349	-4.1591	-0.7109	-1.5928	-9.0333	-13.9034	1.4404	-16.4685	1.5129	-6.6580	10.9512	-17.4019	2.5101	-16.3832	17.5911
5096.0343	-19.3528	-3.8521	-3.8993	-7.4061	-4.1990	-8.8603	-13.3771	2.3155	-27.1693	0.8741	-13.8104	-5.0162	-16.2714	2.5385	-14.6383	12.9444
5104.0343	-27.0124	-3.9719	-4.0414	-7.6301	-5.2401	-8.9465	-12.6440	2.5739	-33.8103	0.4003	-27.3280	-22.2626	-13.0203	4.6464	-14.6519	18.4342
5112.0344	-37.4979	-3.7337	-3.8182	-7.7417	4.4159	-8.9235	-12.2096	1.9459	-48.8211	-0.5279	-39.3292	-33.1703	-10.8927	4.9369	-16.4123	16.3360
5120.0344	-40.8471	-3.5715	-3.6489	-7.7662	25.5371	-8.1287	-11.8039	1.9145	-74.5281	-0.9715	-50.6513	-39.0426	-10.4367	3.7905	-16.3995	16.6444
5128.0345	-37.1895	-4.0037	-4.0840	-14.1279	9.2975	-7.5734	-10.1783	2.7776	-73.4893	-0.3852	-52.4181	-37.4368	-8.3097	3.8730	-16.0653	26.1225
5136.0346	-45.5302	-3.7750	-3.8993	-25.9784	-33.2559	-7.7955	-8.2916	2.7918	-65.7204	-0.9508	-50.3675	-43.9253	-5.8966	2.8528	-16.3881	19.6445
5144.0346	-44.2355	-2.9837	-3.0924	-26.4727	-8.5373	-6.2530	-7.1019	2.7108	-72.8912	-1.5062	-52.1379	-48.1514	-4.9549	2.3133	-15.7146	7.3721
5152.0347	-35.3484	-2.1402	-2.1999	-13.0043	25.3477	-5.4995	-6.9124	1.8143	-57.9306	-1.1977	-39.9218	-24.1273	-2.3042	3.0840	-14.5609	9.0036
5160.0347	-36.5274	-2.0150	-2.0896	-13.5317	-13.6686	-6.6021	-6.3097	0.9342	-40.2751	-0.8984	-35.7225	-5.4989	-0.0255	1.9028	-14.8209	9.1892
5168.0348	-33.6234	-2.0701	-2.1572	-21.4244	-37.5396	-6.5307	-5.4917	1.2637	-44.5815	-0.5579	-38.9250	-8.8326	0.2340	1.1373	-14.7207	-3.9041
5176.0348	-28.2233	-1.6601	-1.7291	-12.3582	-21.5377	-6.5160	-6.1022	1.1549	-39.5762	-0.2877	-24.7004	-6.7788	1.4536	2.3015	-12.5596	-6.4858
5184.0349	-19.7503	-1.8080	-1.8655	-19.1516	-19.4729	-5.6963	-4.8331	1.9851	-32.5529	0.5029	-13.0709	-3.9818	4.5408	3.9233	-10.3018	2.4923
5192.0349	-14.4933	-1.4656	-1.5204	-34.5226	-12.5130	-4.0779	-2.4325	1.9898	-27.9080	0.5630	-8.3223	-11.5358	8.4494	4.8743	-9.8584	-8.6551
5200.0350	-11.3235	-1.0818	-1.1278	-24.1783	-13.5428	-3.3923	-1.1097	0.9545	-15.9722	0.5166	-2.4878	-13.2729	10.9787	3.9433	-10.6110	-17.4400
5208.0350	-2.5723	-1.2791	-1.3139	-19.7665	-34.9616	-2.5435	0.6789	1.8775	-18.5171	1.4400	-0.5088	-4.8518	12.3188	2.7895	-8.9287	-10.8973
5216.0351	-1.8414	-0.6164	-0.6463	-22.8396	-26.4805	-2.2283	0.9053	1.9332	-20.1851	1.2372	-0.8284	-1.0780	13.5723	1.9440	-5.6482	-15.6244
5224.0351	2.4182	-0.4145	-0.4270	-19.8624	-11.6467	-1.5826	1.5019	1.6196	-5.5685	1.3120	2.2981	2.0878	15.3593	0.9909	-4.8633	-13.5785
5232.0352	4.4813	-0.5715	-0.5884	-25.5176	-28.7601	-0.9483	3.3888	1.8712	5.0472	1.6210	3.3807	7.3022	17.6463	1.5005	-4.2527	-3.1798
5240.0353	-3.8846	-0.2345	-0.2721	-25.8956	-36.6794	-1.3955	3.4936	1.1635	1.0051	0.9440	-8.6483	3.2150	18.5029	2.3523	-3.3880	-4.1687
5248.0353	-3.8250	-0.1871	-0.2140	-17.1704	-27.3816	-0.8145	4.0392	0.7996	-16.9978	0.8615	-20.9423	-0.5950	19.2052	1.0444	-4.4254	-8.2181
5256.0354	-1.6417	-0.0426	-0.0617	-8.5661	-32.4558	-0.8905	4.1068	0.6869	-9.0765	0.9729	-26.5522	5.2981	19.1750	-0.6484	-3.9171	-10.0814
5264.0354	1.9578	0.0056	-0.0166	-8.5844	-47.3919	-1.3290	3.8710	1.5050	15.7521	1.2959	-25.6073	11.6927	18.6059	-0.1613	-1.1381	-6.0027
5272.0355	-1.0532	0.3555	0.3237	-20.9677	-45.2893	-0.5117	5.1860	1.5288	-0.7228	0.9563	-18.1525	7.6136	20.6765	0.1195	0.0290	-6.9191
5280.0355	-9.5898	0.8175	0.7788	-21.8585	-25.0036	-0.4465	4.6772	0.1122	-12.5514	-0.1124	-19.4651	-2.2140	20.3795	-1.6763	-0.5306	-14.6276
5288.0356	-7.9027	0.7278	0.6985	-17.1526	-12.3541	-0.0988	4.1664	0.6711	-0.6422	-0.2793	-20.7548	-6.7595	17.9762	-3.2678	-0.0170	-11.7605
5296.0356	-10.6512	0.8347	0.7987	-19.9532	-14.3162	0.4124	5.0446	0.6614	-7.6836	-0.5323	-19.0883	-9.2288	18.6511	-2.6259	0.5765	-6.7838
5304.0357	-12.8116	0.6940	0.6525	-15.6702	-25.9018	0.2706	5.2893	-0.1781	-6.1623	-0.6077	-23.9386	-7.0342	17.8829	-1.6497	-1.0242	-4.7627
5312.0357	-15.6245	0.8882	0.8458	-9.9397	-27.8392	0.6973	5.4152	0.0948	0.0650	-1.1841	-27.4307	-7.9513	14.6729	-2.9802	-2.0101	-6.9900
5320.0358	-21.1277	1.4702	1.4325	-2.0291	-2.4843	0.6695	4.0671	-0.6025	1.7928	-2.1724	-32.6143	-12.7494	11.7728	-3.0121	-1.5638	-12.6348
5328.0358	-12.7077	1.3486	1.3475	12.8067	20.7295	0.6795	2.6451	-1.0997	18.2075	-1.6587	-32.8058	-0.5933	8.9447	-1.1778	-1.9511	-7.4973
5336.0359	-3.8450	1.1938	1.2257	23.9321	37.7110	1.6175	2.6861	-0.7800	17.1909	-1.0726	-25.1047	6.1673	7.4520	-1.1526	-1.4368	0.9284
5344.0360	3.5945	0.8235	0.8741	30.8513	50.1209	1.9609	2.4110	-0.7736	10.9648	-0.3948	-23.8926	1.7104	7.6639	-0.7456	-0.5992	4.0702
5352.0360	6.7083	0.6033	0.6497	28.3411	28.2793	1.6328	2.9719	-1.2240	17.2334	0.1254	-25.7680	8.3927	8.7046	-0.9345	-1.5608	0.4504
5360.0361	5.7610	0.6115	0.6447	17.9170	11.7257	1.6070	3.6163	-2.0782	11.5084	0.1211	-22.1932	8.3171	9.1942	-2.7439	-2.2718	-8.7332
5368.0361	14.0550	0.0922	0.1399	14.9636	23.0740	1.6146	2.7504	-2.2975	12.8004	0.8664	-18.8480	4.6079	8.2047	-2.5842	-2.1011	-10.7439
5376.0362	18.2142	-0.0959	-0.0414	16.9937	21.9216	1.3068	2.1756	-2.3242	16.8055	1.3507	-21.3398	8.5737	7.6105	-0.9638	-1.1502	-8.1102
5384.0362	19.3517	0.0088	0.0632	12.9732	23.9265	1.3903	2.3824	-2.8020	14.6197	1.4738	-12.4590	8.8290	9.0036	0.1420	-0.4910	-8.7106
5392.0363	16.6260	0.2919	0.3471	8.3501	38.2804	1.9488	2.9940	-3.4098	23.4454	0.9061	0.1076	5.4880	10.3981	-1.1495	-2.1414	-11.8119
5400.0363	13.1097	0.3025	0.3529	14.6385	34.0959	2.0398	3.4052	-3.8346	21.9374	0.5927	-0.1101	2.5442	10.5667	-1.8774	-3.3244	-10.0656
5408.0364	15.9343	-0.1462	-0.0956	21.7899	18.6185	1.2688	2.7213	-3.9962	17.2785	1.2786	3.8536	7.2632	9.8832	-0.2253	-3.8538	-5.3800
5416.0364	12.7887	-0.0168	0.0285	16.8922	21.7765	1.2225	2.1503	-3.4138	20.9329	0.7989	-0.2800	6.1838	7.0930	-0.7773	-4.4230	-9.8998
5424.0365	19.1375	-1.1930	-1.1432	24.8172	22.5479	-2.8364	-6.2150	3.5485	-0.8802	2.2594	-10.2973	9.4143	-6.4322	2.3749	-1.3476	-9.3245
5432.0365	15.7219	-1.5021	-1.4477	16.9682	63.4205	-2.9220	-7.5083	3.2115	-2.4566	1.9054	-13.6625	-2.6990	-5.5743	2.9679	-0.1652	3.5898
5440.0366	17.2956	-2.4442	-2.4024	19.5925	44.6198	-3.9033	-8.1559	3.2698	4.4839	2.5609	-15.0275	-10.7308	-5.4881	2.6994	-0.6466	12.1489
5448.0367	14.0376	-2.1381	-2.1106	16.6118	19.3078	-3.5329	-6.4567	3.2528	11.8628	2.2841	2.8943	-3.5531	-4.3393	1.7743	-1.7273	13.4505
5456.0367	7.4196	-1.7872	-1.7723	1.7976	39.0530	-2.2317	-5.2689	2.8323	5.2528	1.1777	-9.4356	-21.7246	-4.0677	1.4151	-1.5100	6.7853
5464.0368	16.7584	-2.0735	-2.0620	6.9767	11.5389	-1.6914	-3.7202	4.0960	12.8025	2.0883	-13.3157	-30.6998	-2.5068	3.0406	-0.0354	1.6769
5472.0368	12.1100	-1.9510	-1.9502	7.4106	-6.1301	-1.9598	-2.9249	3.8227	7.9207	2.0091	-8.4830	-20.4388	-0.8280	4.3500	-0.4867	10.5136
5480.0369	3.8458	-1.6835	-1.6851	-7.4828	21.8666	-1.7839	-3.4940	2.3305	-6.5089	1.0354	-18.9834	-21.8685	-1.7857	3.3583	-2.1320	5.0398
5488.0369	2.0559	-0.8692	-0.8680	-1.9547	19.2330	-1.7358	-3.2314	1.4022	0.7433	0.5062	-17.5925	-13.7883	-1.8183	1.8677	-2.6689	-9.7767
5496.0370	8.6260	-0.8949	-0.8583	15.4843	27.9661	-0.4281	-1.8827	1.8216	-2.2468	0.9492	-24.5601	0.7141	-1.7898	1.4358	-3.3519	2.6780
5504.0370	17.5038	-1.5114	-1.4635	15.3992	15.4816	-0.2395	-1.4720	2.7330	-2.5161	2.0410	-27.4755	7.2438	-1.9194	1.7949	-2.3144	11.7770
5512.0371	5.5179	-1.0999	-1.1092	0.9439	-28.3267	-2.6108	-2.8659	1.4857	5.1660	1.3590	-22.4658	4.1186	-2.5410	2.4337	-1.2918	-5.2326
5520.0371	2.4289	-0.9510	-0.9612	0.0171	-2.7732	-2.4181	-3.7074	0.4436	-10.2676	0.8135	-26.4441	-12.9158	-3.2473	3.5014	-1.6023	-15.5457
5528.0372	9.2535	-1.0407	-1.0156	10.1243	34.8801	-1.3729	-3.5622	0.4420	-11.0480	1.1158	-19.7554	-15.4892	-1.5216	2.8841	-1.8389	-9.1635
5536.0372	7.9208	-1.1849	-1.1531	8.0345	34.6948	-1.0354	-2.7949	0.6620	2.0589	0.9818	-14.5540	-3.7976	-1.4649	1.1676	-4.9853	-0.8980
5544.0373	9.7930	-1.5407	-1.5120	8.1006	10.4844	-0.4301	-1.3860	1.2801	-6.7959	1.3533	-10.9855	0.2582	-2.4384	0.9549	-7.0399	2.1753
5552.0374	8.8472	-1.5061	-1.5004	9.0330	-30.9655	-1.3644	-1.2677	1.3627	-13.0831	1.7146	-8.7764	4.8477	-2.4572	1.0852	-4.9498	-0.0521
5560.0374	8.3894	-1.0802	-1.0663	4.0571	-6.6642	-1.2163	-1.9514	1.1732	-11.7591	1.3805	-11.4464	5.6089	-2.6865	2.9433	-3.5756	-3.0112
5568.0375	5.8378	-0.4407	-0.4004	6.6930	39.6390	0.0993	-1.3944	0.2510	-5.4281	0.5767	1.8363	11.5532	-1.2280	4.5040	-4.4510	7.0687
5576.0375	2.0227	-0.3754	-0.3432	-5.0007	24.0628	0.7301	0.2043	0.2289	7.6560	0.1487	8.7119	23.9878	-1.7321	1.4664	-6.4071	13.2232
5584.0376	-2.9014	-0.1724	-0.1731	-21.8417	5.0947	0.6869	0.4072	1.1447	-3.7000	-0.4071	-7.2246	7.8734	-3.5963	-0.2464	-4.6980	-5.2819
5592.0376	-15.8910	0.1620	0.1136	-21.2624	-22.5329	-0.6891	-0.2408	1.1015	-17.4890	-1.2165	-22.4621	-7.6523	-3.2932	0.8560	-0.7763	-6.8677
5600.0377	-17.2237	0.0694	0.0075	-23.7124	-54.3611	-1.2097	0.3672	1.3075	0.6889	-1.0838	-20.9165	5.2043	-3.4849	-0.0620	-0.9254	-0.4191
5608.0377	-15.4090	0.7181	0.6790	-12.3394	-24.3634	-1.0215	-0.3068	0.4472	15.3256	-1.4702	-13.1509	7.0596	-2.8278	-0.0902	-1.8253	-10.8394
5616.0378	-15.8796	0.4968	0.4869	9.7965	7.5125	-0.5604	-0.7182	0.4914	12.5881	-1.5731	-19.4583	9.4366	-2.9348	0.4630	-2.8249	10.1492
5624.0378	-11.4950	-0.2849	-0.2835	11.8609	-6.3059	-0.0591	0.0818	1.9723	11.6896	-0.8882	-28.5935	20.1494	-4.9416	-0.7233	-4.2234	27.1254
5632.0379	-18.9744	0.2399	0.2171	10.0385	-9.7217	-1.7320	-2.1218	0.7166	14.9249	-1.5779	-21.9072	13.6445	-6.1633	-0.4166	-3.2038	10.8872
5640.0379	-31.7566	0.5771	0.5261	-0.6550	-13.4212	-2.8202	-3.5986	0.0742	13.8856	-2.6643	-10.3404	14.7755	-8.9025	-1.4379	-2.9007	12.7437
5648.0380	-40.7347	0.8947	0.8115	-16.9490	-41.9122	-2.8423	-2.5530	0.4221	-4.6212	-3.3024	-17.4711	16.2546	-9.5775	-3.1557	-2.3934	7.1965
5656.0381	-38.8699	1.0661	0.9834	-11.9675	-35.9161	-2.4881	-2.1924	-0.1763	-23.3581	-3.1892	-23.9396	3.0285	-7.6585	-0.7829	-1.5546	-3.5918
5664.0381	-33.4354	0.8001	0.7510	-8.1283	-9.6605	-0.1982	-0.5273	0.4696	-27.9773	-3.1095	-17.3330	6.5847	-9.2457	-0.9768	-3.5942	11.9446
5672.0382	-34.1466	0.9969	0.9506	-14.0843	-18.6761	1.0947	1.3975	0.6996	-36.7456	-3.3556	-27.5498	15.4123	-10.1702	-3.1406	-3.7220	14.2089
5680.0382	-24.5726	1.1493	1.1224	-7.0492	-13.6676	1.4565	1.4310	0.4572	-44.7375	-2.6108	-29.4764	15.8901	-9.3287	-1.6381	-1.8218	4.5426
5688.0383	-20.8396	1.3843	1.3824	7.3133	0.7452	2.1859	1.7755	0.5073	-51.7706	-2.4308	-18.6442	23.2334	-9.0096	-0.9007	-1.9400	10.4550
5696.0383	-24.3946	0.9625	0.9481	7.0205	-22.3511	1.8058	2.6091	0.1571	-65.3240	-2.1340	-20.4112	29.9778	-7.1561	-0.6193	-2.6137	24.7435
5704.0384	-27.0148	0.1946	0.1544	-7.8742	-37.4163	1.0709	1.8462	0.3846	-73.3572	-1.9707	-22.8535	17.0736	-8.8600	-1.0161	-3.0182	25.1101
5712.0384	-37.3862	0.4234	0.3499	-13.8424	-31.1589	-0.0258	-0.2921	0.5949	-79.1657	-3.0816	-40.5542	-9.1602	-11.8779	-1.4600	-1.1595	9.1753
5720.0385	-33.6240	0.2843	0.2156	-6.3015	-22.2465	-0.9755	-1.5344	0.1844	-78.9653	-2.4664	-38.0361	-14.0849	-9.0932	1.7342	1.0391	11.5358
5728.0385	-25.2343	-0.1118	-0.1588	0.6139	-22.6786	-0.5120	-0.9587	-0.2433	-76.9769	-1.5654	-2.5241	-5.1207	-7.8036	1.5237	-1.0885	20.1871
5736.0386	-22.0743	0.0487	0.0027	-1.1308	-39.6592	0.6835	0.8758	-0.1023	-79.9353	-1.5743	4.6572	-4.7415	-8.7353	-1.3388	-3.0034	7.6583
5744.0386	-19.2530	0.3558	0.3149	-10.2017	-29.2568	1.2247	1.4951	-0.2818	-63.9263	-1.7101	-0.9835	-5.9304	-7.3986	-1.5268	-2.8895	-2.9617
5752.0387	-28.8176	0.4597	0.3984	-14.8460	-17.1276	0.5726	0.4476	-0.6263	-53.2040	-2.7336	-11.4560	-20.5923	-7.8508	-2.8128	-2.8020	-5.1306
5760.0388	-30.2987	0.4437	0.3665	-15.1385	-32.2652	0.3292	0.6941	-0.0873	-61.2565	-2.7002	-19.7223	-29.0202	-7.0927	-2.9688	-0.7626	-7.1697
5768.0388	-23.5081	0.8962	0.8429	-12.6943	-22.9166	0.7367	1.3743	-0.2402	-53.3816	-2.1704	-1.1637	-11.5633	-3.8253	-1.0812	0.0340	-4.2708
5776.0389	-21.0306	0.7788	0.7354	-8.8143	-23.6099	0.7791	1.7387	0.1127	-41.6623	-1.8703	5.0006	-2.9000	-2.8062	0.1510	-1.7197	1.4572
5784.0389	-18.5093	0.5272	0.4773	-15.8568	-36.1043	0.4784	1.9068	0.6402	-17.8537	-1.6054	0.5142	-1.2182	-2.6741	0.4610	-2.2473	-0.0102
5792.0390	-18.7001	1.0155	0.9772	-18.9171	-7.4954	-0.2008	0.3535	-0.5084	16.1136	-2.0848	0.9644	3.9755	-2.1532	-0.7694	-2.0859	-8.3116
5800.0390	-19.1353	0.9223	0.8787	-15.0751	-11.6436	-1.2285	-0.5254	-0.5767	22.2568	-1.9268	-6.4236	1.7518	-0.7939	-1.2457	-1.8556	-12.3022
5808.0391	-28.0296	0.8943	0.8115	-21.8496	-47.8365	-2.2250	-0.0037	-0.3485	33.6650	-2.3716	-14.8469	-1.0908	0.2307	-1.3042	-2.1576	-12.1991
5816.0391	-26.6998	1.0303	0.9661	-13.3742	-21.6668	-1.5105	0.2774	-0.7152	54.7256	-2.6756	-11.3240	-2.9336	1.1768	-0.8910	-3.0799	-6.3283
5824.0392	-13.4199	0.9580	0.9402	2.1218	9.9341	-0.4710	0.5902	-0.6269	77.7146	-1.8690	10.9798	3.0484	3.3384	-0.2990	-3.4706	1.6255
5832.0392	-21.8142	1.3966	1.3493	-13.9132	-7.3374	-2.0467	-0.6027	-1.1383	122.6551	-2.7611	12.0839	12.2559	1.8986	-2.8809	-3.2114	-5.4003
5840.0393	-31.5447	1.6271	1.5471	-27.5132	-6.5004	-3.8822	-2.9857	-1.7320	124.9241	-3.5728	-7.7160	0.2468	0.6991	-3.7119	-1.2742	-20.2136
5848.0393	-30.4434	1.3716	1.2958	-20.0003	4.0155	-4.0884	-3.4966	-2.0046	89.1460	-3.1268	-6.2958	-11.5708	2.8683	-1.8609	-1.3265	-22.3547
5856.0394	-23.4476	0.6947	0.6383	-17.2926	-7.6647	-3.4109	-2.4082	-1.2790	83.1729	-2.2059	-2.7681	3.4736	1.9820	-2.1605	-4.2761	-10.7750
5864.0395	-15.6600	0.3174	0.2865	-12.5341	2.5919	-3.3403	-2.9578	-1.1629	81.4296	-1.3981	-0.2188	13.7080	1.3073	-1.6932	-4.7250	-4.5999
5872.0395	-25.1293	0.4987	0.4465	-10.7529	3.8682	-4.6465	-4.5833	-2.2628	75.0964	-2.0662	0.9453	6.0549	0.8857	-0.2858	-4.6534	-7.0671
5880.0396	-30.6725	0.2625	0.1849	-19.5203	-20.3417	-4.9814	-4.5663	-1.5877	65.0350	-2.3208	-8.6612	2.8189	-1.9010	-0.5015	-4.9152	-7.2861
5888.0396	-26.0238	0.5290	0.4651	-17.9958	-6.4630	-4.4527	-4.5526	-1.9661	60.8968	-2.1925	-3.0854	0.3216	-1.5370	-0.7220	-4.0502	-15.8586
5896.0397	-24.1282	1.0436	0.9929	-11.1624	8.9983	-4.2162	-4.6910	-3.1906	82.2695	-2.4982	13.3224	2.2794	-0.9507	-0.8668	-4.8178	-23.5116
5904.0397	-20.6425	0.7184	0.6757	-4.4548	-2.9137	-3.9973	-4.5314	-2.0485	68.3943	-1.9667	18.7442	8.3093	-2.8133	-1.7267	-5.0662	-16.7054
5912.0398	-13.0710	0.0743	0.0463	13.4982	-10.0328	-4.4871	-5.3890	-0.9651	36.3445	-0.6978	18.3074	6.8615	-2.7515	-0.6666	-3.8138	-9.7972
5920.0398	0.9680	-0.3487	-0.3440	30.9567	-10.6508	-4.1309	-4.9939	-0.3006	46.4030	0.6829	24.2513	15.3169	-1.3048	1.7779	-4.0616	-3.4826
5928.0399	7.7559	-0.1024	-0.0669	31.1232	20.8015	-2.3592	-3.7530	0.1464	56.1702	0.6455	22.3192	15.2165	-0.5964	1.6749	-4.9965	-6.6982
5936.0399	12.3187	-0.2835	-0.2433	21.6020	45.7120	-1.3738	-3.3279	0.7484	60.3656	0.6445	10.9947	-6.7549	0.5787	2.2630	-4.6674	-16.8184
5944.0400	22.0331	-1.3078	-1.2707	23.7493	22.1086	-1.4568	-2.4841	1.4709	67.7704	2.0095	11.1124	-16.3324	3.0636	4.1582	-4.2568	-9.1675
5952.0400	32.3607	-2.1517	-2.0931	33.6104	14.6170	-0.9864	-1.7313	1.4584	65.9956	3.2128	6.9953	-12.2098	3.6374	3.5369	-5.3122	0.4836
5960.0401	56.8186	-2.5861	-2.4679	38.0988	29.1189	1.2837	-0.0880	2.9471	73.5730	5.0123	9.0518	1.7627	2.9846	3.7162	-4.3294	3.3970
5968.0402	75.6186	-2.7226	-2.5630	41.8269	32.2044	3.8685	2.9552	4.3274	71.7216	6.4453	22.1851	10.8649	5.4228	5.0639	-2.1430	13.0088
5976.0402	78.1709	-3.4421	-3.2892	35.9648	18.3076	4.5955	4.8728	4.4014	54.5920	7.0661	11.3059	1.6726	8.4535	5.5808	-3.0492	19.1431
5984.0403	79.0428	-4.0768	-3.9389	23.6771	2.1000	4.2450	5.0900	4.9252	43.4054	7.5637	-6.3905	-4.6792	8.9925	5.8573	-3.3248	17.1134
5992.0403	76.8714	-3.9652	-3.8300	19.4039	14.8992	4.6951	4.9944	4.9082	30.2918	7.1467	-9.8350	-15.9321	8.1463	4.8630	-3.1095	10.4195
6000.0404	75.6784	-3.8139	-3.6785	13.7299	23.7003	5.0441	4.9551	4.6605	15.3590	6.9094	-0.2763	-19.7466	7.6359	3.7042	-3.8581	3.2059
6008.0404	69.4211	-3.1878	-3.0560	8.0206	31.4733	4.6755	4.3821	4.4724	1.6868	6.3666	5.5690	-9.5791	7.9176	2.9722	-1.9955	5.0697
6016.0405	64.8900	-2.8360	-2.7008	6.7865	53.0309	5.2821	4.6924	4.2494	-8.6881	5.7191	-2.3120	-13.7999	8.8002	2.3386	-1.2359	7.1647
6024.0405	61.5793	-2.6538	-2.5328	8.2651	24.3400	5.1142	5.6674	3.7218	-22.7629	5.6329	-2.9831	-9.1257	9.2417	1.2466	-3.2601	-2.9785
6032.0406	50.6603	-2.2318	-2.1432	12.2554	-10.9110	3.7818	4.9884	3.1565	-41.1664	4.9876	-9.3719	-5.2723	7.0662	0.2536	-3.1716	-11.9331
6040.0406	49.5007	-2.4745	-2.3873	12.5717	7.9499	3.8502	4.0116	3.3614	-41.3036	4.7613	-9.0621	-20.1058	5.5049	1.6565	-1.9622	-5.9834
6048.0407	47.0913	-2.2458	-2.1515	16.5551	25.0645	4.4082	4.2195	2.4767	-42.9596	4.3286	0.8420	-21.2981	5.7836	1.9603	-1.9873	0.4021
6056.0407	41.7423	-1.8494	-1.7646	15.4007	21.3276	4.8328	4.8121	2.4219	-55.5099	3.6990	-13.8385	-23.1199	4.6957	1.6895	-1.0265	-2.6660
6064.0408	36.2671	-1.7796	-1.7178	1.8436	16.3326	3.9308	4.0041	3.0361	-51.3912	3.4093	-18.0896	-25.9857	4.9102	3.7117	0.8902	-0.8519
6072.0409	23.8029	-1.2600	-1.2154	4.1949	19.3027	2.2663	2.3077	1.4608	-40.8711	2.4092	-13.2995	-18.6473	5.2912	3.1539	0.5773	1.4626
6080.0409	23.9682	-1.0104	-0.9583	13.4936	23.1296	2.7830	2.6061	1.1976	-33.1704	2.0313	-18.1008	-20.6263	3.8909	0.9339	-0.2440	-5.0549
6088.0410	18.3182	-0.5454	-0.5061	2.5903	20.0964	3.1124	3.3658	1.2972	-32.3168	1.3976	-11.7612	-17.0924	4.2772	0.5369	0.7624	-2.8973
6096.0410	3.9561	0.0342	0.0453	-10.7985	21.2403	2.5986	3.3858	0.2375	-38.4679	0.1747	-12.6158	-16.3518	5.6681	0.8492	1.3058	0.1848
6104.0411	0.0090	0.0330	0.0251	-7.4743	7.3569	2.3363	3.6918	0.3637	-31.4248	-0.1891	-14.3466	-28.5869	6.1479	0.2203	0.4332	-5.9996
6112.0411	-10.2224	0.0979	0.0715	-4.3071	-7.3848	1.3667	3.0519	0.1621	-25.3031	-0.9027	-13.2412	-21.5547	4.4668	-1.8101	-0.7310	2.3757
6120.0412	-18.4013	0.4180	0.3828	-15.3390	1.3132	0.9564	2.3170	-0.2107	-28.3979	-1.6299	-17.6160	-12.9263	3.1711	-1.6834	-0.1047	8.1740
6128.0412	-17.9047	0.8286	0.7852	-18.7806	-1.7096	1.2716	3.0482	0.0428	-24.6995	-1.7806	-13.7060	-20.5729	5.0322	-0.3852	1.0975	-1.7168
6136.0413	-13.7320	0.6719	0.6430	-12.6841	2.5552	2.0132	3.8413	0.4287	-17.0013	-1.5347	-14.3383	-18.4153	5.1848	-0.4028	0.5463	4.5490
6144.0413	-13.8851	0.6462	0.6285	-15.3040	24.1795	1.9773	2.9657	0.1792	-10.8742	-1.6731	-15.9995	-14.7023	4.2858	-0.1140	0.9478	11.2555
6152.0414	-25.0599	1.0024	0.9527	-20.0447	11.1350	0.3336	1.5716	-0.8938	-15.9819	-2.4376	-16.8443	-18.2977	4.3489	-1.0699	1.2970	2.0967
6160.0414	-29.6488	0.7436	0.6744	-22.8779	-8.4796	-1.0909	0.3070	-1.3835	-18.4283	-2.4686	-22.2825	-17.0298	2.8222	-2.1490	0.2157	-2.6946
6168.0415	-32.9781	0.7448	0.6756	-17.7144	4.4930	-1.9670	-1.2666	-2.0914	-8.6367	-2.7900	-21.5468	-18.8553	2.0662	-2.0881	-0.3901	-2.0851
6176.0416	-33.5697	0.6830	0.6163	-13.1256	4.8283	-1.0825	-0.1192	-1.4237	-15.5187	-2.9358	-21.9795	-23.6126	2.2362	-2.7631	-1.3165	1.9703
6184.0416	-30.6352	0.4049	0.3205	-24.2171	-21.0953	-0.4122	1.2960	0.2543	-21.8914	-2.5800	-23.7310	-33.5181	1.6559	-1.7570	-0.4633	-2.2351
6192.0417	-34.3942	0.5334	0.4324	-22.3282	-16.2503	-1.4107	-0.2979	-0.3669	-11.3639	-2.9773	-25.6391	-47.9605	0.9922	1.1241	0.9735	-8.4115
6200.0417	-31.8997	0.5433	0.4708	-13.5840	11.9885	-0.2810	-0.0460	-0.5167	-10.3176	-3.0504	-17.7156	-41.6983	-0.1081	2.0776	0.5015	6.7047
6208.0418	-37.1090	1.1252	1.0395	-28.5602	5.1392	0.3067	1.0450	-0.4050	-18.2067	-3.6291	-4.1947	-34.5340	0.0850	1.1627	2.3580	9.4235
6216.0418	-44.2774	1.7800	1.6692	-40.2202	2.6794	-0.4900	0.4244	-1.5082	-27.1363	-4.3683	-7.0628	-43.7898	1.3486	0.5015	3.0509	-13.2960
6224.0419	-41.7028	1.8019	1.7119	-35.0451	21.9280	0.0239	0.3737	-1.5829	-19.8321	-4.4442	-4.8656	-40.4766	0.6749	-0.3375	0.0144	-17.3487
6232.0419	-43.2660	1.4469	1.3472	-30.5951	-1.7275	-0.4647	0.5678	-1.0209	-6.7089	-4.2603	-0.5331	-33.2569	-0.0720	-0.3534	-0.3488	-3.1674
6240.0420	-33.4801	0.6807	0.5813	-25.6158	-34.4256	-0.9930	0.8302	-0.5508	-17.3376	-2.7430	0.7797	-31.0933	0.9624	0.9755	0.0550	-2.3356
6248.0420	-23.4182	0.3707	0.2971	-18.7550	-27.3998	-0.4428	1.0930	-0.3988	-15.6620	-1.9056	9.6213	-27.6976	1.3696	0.4987	-1.3589	-4.6342
6256.0421	-20.6183	-0.1374	-0.1961	-18.3929	-7.6980	0.3393	1.6129	0.0168	-13.0201	-1.6992	0.1874	-32.4406	2.3091	0.1106	-1.6911	8.6037
6264.0421	-18.6499	-0.5652	-0.6188	-22.7889	-1.7173	0.1302	1.3451	0.1436	-26.5064	-1.2306	-8.2780	-32.8291	3.5600	-0.0439	-2.0494	11.1185
6272.0422	-27.8421	0.1124	0.0276	-25.0921	-26.7876	-1.9387	-0.5807	-0.4358	-10.7570	-2.0273	-2.5098	-27.5555	1.4749	-2.3190	-1.8574	-7.3752
6280.0423	-29.5332	0.5211	0.4294	-25.8748	-34.3434	-2.4950	-1.1640	-0.4458	-14.7849	-2.1844	-10.9778	-23.7497	0.7298	-2.0723	-0.3163	-16.4174
6288.0423	-21.3291	0.3930	0.3385	-18.6571	-9.3891	-1.7353	-0.9822	-0.6580	-41.4881	-1.3574	-17.3969	-13.9561	2.3067	-0.6141	-0.2260	-11.4591
6296.0424	-5.9240	-0.2238	-0.2495	-7.0061	-17.9725	-0.6785	0.1377	0.8322	-22.1760	-0.0305	-1.8795	-8.2077	1.8589	-0.7397	-0.0925	-0.5950
6304.0424	5.8959	-0.6899	-0.6962	-6.8610	-22.7693	0.7604	1.9068	2.2613	-8.8172	0.9669	14.2101	-4.5421	2.5099	0.3082	0.9298	14.0174
6312.0425	-0.8897	-0.3172	-0.3213	-8.9558	-3.2640	0.3345	1.1008	0.7837	-14.5516	0.3549	11.5225	3.3105	3.1330	0.7666	1.0458	19.0612
6320.0425	2.5267	-0.1883	-0.1861	-4.8422	-1.5257	0.3582	0.9458	0.8247	-0.9836	0.4911	17.5153	4.0212	3.0815	1.1078	1.7478	16.9023
6328.0426	11.7614	-0.3655	-0.3417	0.9901	2.3447	1.0425	1.8043	1.1528	8.7377	1.3146	37.4450	10.1064	5.2013	2.3093	2.0408	25.7397
6336.0426	16.6123	-0.6943	-0.6661	0.1336	-19.5062	0.8534	2.5146	1.0463	13.4173	2.1100	43.5851	25.3181	6.3334	1.5628	1.6724	32.8749
6344.0427	14.9149	-0.2602	-0.2566	-14.6056	-44.6639	1.0117	3.7617	1.4136	15.6780	1.8492	42.3133	21.2298	7.3809	0.3522	2.8429	16.6057
6352.0427	2.4953	0.6543	0.6444	-16.6704	-15.2050	0.2628	2.3876	-0.1765	21.2843	0.3225	31.3595	11.6176	8.4710	0.8259	2.9689	3.5192
6360.0428	8.6775	0.4214	0.4327	-4.6707	-13.3075	-0.0941	1.6160	0.0868	30.9274	0.9518	25.5827	22.9405	7.3715	1.1467	2.5687	7.4511
6368.0428	9.1943	0.6352	0.6414	-13.3650	-26.0206	0.0986	2.2382	0.5604	22.5870	1.0685	33.3641	30.1708	7.4928	0.4395	3.7547	5.8664
6376.0429	-6.7308	1.4779	1.4681	-26.0720	4.3435	-0.5051	1.1016	-1.4464	10.1723	-0.5718	26.0519	28.4155	8.3434	0.1419	3.4395	-0.1141
6384.0430	-11.8785	1.7504	1.7299	-25.2603	-7.7764	-0.3330	1.6320	-1.2479	-4.3424	-1.0749	18.1636	28.0388	7.0164	-1.2255	2.1500	-8.3018
6392.0430	-19.0860	1.7041	1.6465	-27.6890	-43.1004	-1.1534	1.5036	-0.9471	-7.7218	-1.4724	14.8964	18.8127	5.1098	-1.9155	2.8978	-12.6708
6400.0431	-16.0518	1.5662	1.5147	-26.5079	-28.3919	-2.0204	-0.1636	-2.2362	11.7396	-1.2238	16.6561	17.2137	5.1650	0.3579	4.0484	-12.0569
6408.0431	-7.9825	1.8679	1.8461	-17.7995	-16.6917	-0.6373	1.0010	-2.4855	1.7820	-0.8566	25.0996	23.2923	5.5627	-0.1966	3.3725	-18.5551
6416.0432	-9.9225	1.6787	1.6565	-12.6476	-16.6977	-0.1767	1.5336	-2.0508	-19.3902	-0.9300	16.0340	16.9686	5.3724	-1.0778	2.9356	-15.0066
6424.0432	-8.7519	1.2188	1.2013	-6.2558	2.1806	-0.8958	0.0566	-1.8272	-5.9947	-0.7403	11.3099	6.1424	6.0237	0.3828	3.1728	-8.2493
6432.0433	-9.9935	1.0734	1.0484	4.0019	-11.5918	-1.2850	-0.1659	-1.3580	10.8681	-0.8650	13.7162	2.4354	4.6679	-0.6978	2.2593	-7.0719
6440.0433	-6.6317	0.7006	0.6770	16.8358	-37.0248	-1.5941	0.2280	-0.7339	18.2000	-0.2206	11.6505	10.6825	4.3663	0.0367	2.3875	3.9239
6448.0434	-2.6161	1.1814	1.1945	28.1468	5.7921	-0.6851	0.2504	-1.4652	22.6803	-0.3298	20.6273	16.0064	6.5022	0.8187	2.2869	7.1897
6456.0434	-4.4814	1.3560	1.3807	22.7573	38.1020	0.3182	0.2818	-1.7131	26.8628	-1.0707	19.8103	9.1251	5.2292	-1.8952	1.1806	4.5409
6464.0435	-6.0121	1.0428	1.0438	15.8538	18.8683	-0.5311	-0.2356	-1.3922	31.6926	-0.9759	9.0021	-1.2133	4.7871	-1.6338	2.1807	-0.6455
6472.0435	-5.8827	1.4127	1.4202	28.4385	28.7821	-0.6995	-0.9038	-2.0852	26.3564	-1.1519	7.0818	-6.3962	4.7366	-0.3336	2.0358	-11.5414
6480.0436	5.8105	0.8639	0.8970	33.5627	21.1873	-0.0636	-0.4721	-1.3359	17.3670	0.0559	8.2199	4.8694	2.9921	-0.1062	1.4542	-7.4278
6488.0437	15.1552	0.1509	0.1845	26.2307	-4.1405	-0.1566	0.3382	-0.6488	16.4387	1.3527	3.1882	8.9950	4.4836	0.2745	1.7846	-6.4887
6496.0437	25.3806	-0.0296	0.0418	30.8374	24.8936	1.5333	1.2930	-0.3998	25.5680	1.7264	-3.3955	8.6671	4.0410	0.0634	-0.4927	-9.6862
6504.0438	36.1077	-0.3546	-0.2504	37.3867	32.1802	2.7920	2.0771	0.4850	27.4018	2.5333	-0.1448	19.5756	2.1640	1.0067	-1.2561	-1.3289
6512.0438	32.2958	-0.8163	-0.7427	35.1639	5.3476	2.1313	2.0867	0.5410	15.0973	2.6349	-1.9003	4.1996	2.4052	0.7573	0.0813	0.8491
6520.0439	34.8139	-1.0956	-1.0267	24.7981	12.4383	2.5350	2.1134	1.0634	24.4504	2.6523	-2.7847	-9.7229	1.8973	0.0345	0.9274	-2.2007
6528.0439	27.7723	-0.0656	0.0003	17.9351	34.6213	2.0798	1.4543	0.1583	45.2318	1.5882	-3.2580	-3.2664	3.5742	1.2175	1.3367	-11.4275
6536.0440	19.6068	0.1581	0.2213	30.4848	40.0120	2.1128	1.6311	-0.6803	32.7744	0.8272	-14.6704	-5.8921	3.6585	0.6266	-0.7314	-10.3329
6544.0440	29.4911	-0.5492	-0.4678	32.2105	19.0279	2.9436	2.6025	0.5755	11.0054	2.0958	-10.8432	8.7663	1.1216	-0.0278	-0.3067	3.5038
6552.0441	22.2439	-0.0538	0.0011	16.0840	9.9272	1.1698	0.9210	-0.5926	13.4397	1.6607	-15.1064	14.5987	1.4851	0.6346	2.0479	-6.7905
6560.0441	18.3723	-0.1921	-0.1486	17.7582	15.1116	0.8022	0.1862	-0.7308	23.0184	1.1400	-25.4467	-1.2957	0.4116	-0.7262	0.8479	-14.6496
6568.0442	23.8312	-0.2304	-0.1838	21.8164	-6.1280	1.7137	1.7247	0.8341	26.7382	1.5877	-10.1518	2.5296	-0.1822	-1.0242	1.2241	-10.6202
6576.0442	20.8317	0.1563	0.1970	16.7977	1.0237	1.2511	1.3388	-0.1923	23.4181	1.3783	-6.5194	3.8854	1.8623	1.9696	1.9822	-13.9003
6584.0443	21.9223	-0.3869	-0.3238	14.2199	39.2119	1.4049	-0.0276	-0.6399	18.1861	1.4531	-8.3118	4.2716	0.2052	2.1901	0.6282	-1.0932
6592.0444	15.3968	-0.4646	-0.4212	1.4498	37.7934	0.7907	-0.9080	-0.5064	33.6348	0.8253	-3.1666	1.0404	-1.6163	-0.6253	1.3479	3.4702
6600.0444	14.9883	-0.7901	-0.7738	-2.6568	12.2148	-0.0105	-0.8365	-0.4958	45.9539	1.0050	-7.8321	-13.9729	-0.1973	-0.8212	1.6326	-5.6035
6608.0445	22.3884	-1.2315	-1.1959	8.3307	-6.9900	0.6032	0.3849	0.7734	24.4659	2.0927	-7.1360	1.5899	-0.4012	-0.2746	0.7062	5.8317
6616.0445	20.4736	-0.9048	-0.8619	7.1555	-7.8919	1.0658	0.8024	1.4365	0.1123	2.0196	-0.9615	16.8016	-1.5868	0.1135	1.0286	12.4817
6624.0446	20.9329	-1.0104	-0.9613	7.6878	7.4587	1.0342	0.0760	1.1343	-17.7019	2.1421	3.9507	12.1993	-1.5786	1.2147	1.2849	13.5216
6632.0446	20.3389	-1.1014	-1.0424	8.7372	10.8495	1.0907	-0.0114	0.8970	-21.0113	2.1711	-2.2398	24.1863	-2.5577	-0.1593	1.4683	24.0734
6640.0447	20.8177	-0.7991	-0.7439	0.9846	0.8257	1.4844	0.9579	0.8808	-4.0901	1.9594	-9.8083	30.3865	-2.6712	-1.4965	1.9232	18.6151
6648.0447	23.3362	-0.5494	-0.4944	5.0815	-11.4321	1.4592	1.5958	0.9208	-5.6113	2.2299	-6.2195	32.6969	-0.8168	-0.7028	1.7236	9.7930
6656.0448	27.8036	-0.6471	-0.5788	8.1117	-19.3642	1.7183	2.2223	1.4936	-10.6789	2.8090	-5.9416	46.4953	-0.5203	-0.2120	1.2676	14.9724
6664.0448	27.6919	-0.4901	-0.4240	1.8570	-11.6150	1.9612	2.1360	1.4596	-5.8328	2.5557	3.5171	40.8934	-0.8496	-0.7580	1.2659	8.9849
6672.0449	11.7789	0.4265	0.4623	-3.7839	6.2467	0.7995	0.2769	0.0382	-1.6138	0.7514	11.6254	25.5025	-1.2659	-2.1399	0.9796	-8.1997
6680.0449	10.5656	0.6260	0.6630	-1.5371	11.1628	0.6065	-0.1023	-0.2527	15.4534	0.4418	8.8666	27.4199	-1.8581	-1.8143	0.6422	-9.9593
6688.0450	21.7594	0.1017	0.1740	20.1092	8.9644	1.6663	1.2323	0.2487	10.1340	1.6178	12.2194	38.4528	-0.9572	-1.1618	-0.0795	6.9676
6696.0451	20.3438	-0.0273	0.0519	21.4203	11.6467	2.4677	2.2047	0.4538	-5.9152	1.4984	11.4175	40.7395	-1.2550	-2.7465	-2.3021	11.0883
6704.0451	13.8251	0.2727	0.3163	0.9701	-0.9634	2.6779	2.8270	0.5389	-2.1823	0.6226	9.2920	22.2501	-2.1902	-2.7031	-2.7430	-8.4698
6712.0452	13.2776	0.1777	0.2205	12.9824	2.8161	2.4892	2.3796	0.2887	-10.0790	0.6608	5.4286	12.2688	-1.8846	-0.8380	-1.7054	-5.1962
6720.0452	20.9194	-0.3922	-0.3095	24.6537	27.7330	2.4531	1.3645	0.1416	-0.3392	1.4730	6.2050	29.8090	-2.5177	-0.6397	-2.5224	15.6125
6728.0453	15.7644	-0.2279	-0.1713	11.4774	16.0665	1.4379	0.4090	-0.2820	11.6702	1.0105	8.5921	25.1548	-3.4612	-1.5526	-1.8967	5.3086
6736.0453	11.6261	-0.1784	-0.1468	3.0222	12.7227	1.4600	0.3752	0.2247	-12.4698	0.6513	-2.3347	1.3456	-3.3622	-1.1576	-0.0217	-7.2910
6744.0454	14.9059	-0.3180	-0.2805	-1.1492	13.4525	1.7821	0.9562	0.4956	-13.2541	1.0508	3.0860	5.2149	-2.0019	0.3437	-0.1229	-2.7130
6752.0454	4.7165	-0.1079	-0.1075	6.4978	-33.9736	-0.5522	0.0459	-0.2324	-2.4461	0.7843	5.6157	16.6076	-1.6273	1.3571	-0.1955	-0.9414
6760.0455	8.7778	-0.4868	-0.4763	15.8097	-38.0232	-0.5743	-0.3232	0.9549	-13.1621	1.3543	1.3218	18.2192	-3.1849	1.6524	0.1692	5.2704
6768.0455	14.2484	-0.2734	-0.2315	9.4601	7.1240	1.4648	0.6278	1.2889	-17.0577	1.2151	18.9596	14.5950	-2.4712	1.1538	0.1969	9.0217
6776.0456	11.7698	-0.0339	0.0023	3.6532	15.0535	1.8244	1.2699	0.6928	-16.1775	0.8257	19.0566	8.0100	-0.4165	1.1176	0.1742	4.8194
6784.0456	20.1632	-0.6027	-0.5662	-3.6958	-2.5562	1.9786	1.8195	1.3029	-16.0363	1.7620	12.0524	5.8057	-0.5640	1.3946	-0.1492	-1.9193
6792.0457	16.9251	-0.5956	-0.5715	-3.8994	-9.9546	1.7569	1.6045	1.2656	-19.0559	1.5293	16.5931	1.0047	-1.5049	1.7118	0.2348	-1.1663
6800.0458	16.8718	-0.6525	-0.6175	6.5189	0.8380	1.6304	1.1534	1.5041	-10.4266	1.5567	19.1021	5.3757	-1.3013	2.6523	0.9603	13.2868
6808.0458	16.5603	-0.4239	-0.3964	0.6827	-10.3664	1.1495	1.1456	0.8550	7.2112	1.4631	23.1041	11.2964	-0.6976	0.9017	0.9283	5.7125
6816.0459	6.8100	0.1388	0.1382	-5.9243	-22.2513	0.7598	1.3326	0.3470	-5.5278	0.5385	13.5135	3.2483	-0.2771	-0.5829	1.1648	-9.1406
6824.0459	12.1889	0.1689	0.2016	0.1897	7.3397	1.5362	1.4617	1.5052	-12.4916	0.9605	14.9840	13.6246	1.0737	1.1455	1.7118	4.2001
6832.0460	14.1359	0.3258	0.3661	3.2108	0.4030	1.0409	1.1582	1.5049	6.1025	1.2115	27.7219	31.2094	1.1967	1.2034	2.1592	11.4620
6840.0460	14.7860	0.1594	0.1901	5.1223	-19.7140	0.9391	1.6658	2.0613	7.8455	1.4434	26.7505	30.0379	1.1569	1.4923	2.4987	13.0298
6848.0461	17.6023	-0.0537	-0.0165	-3.7224	-5.8083	1.4030	2.2917	2.2348	9.2795	1.7081	27.7155	26.6771	3.9504	2.5188	1.8811	15.1956
6856.0461	21.1792	0.0440	0.0811	-15.6259	-8.6786	1.3569	2.4036	1.7208	15.1026	1.9358	24.7817	29.6796	4.4425	2.5138	1.5027	1.5490
6864.0462	33.3630	-0.1931	-0.1210	-3.8021	5.1066	2.3248	2.3641	2.4626	-0.8149	2.9362	33.1491	33.2326	2.8959	4.2248	1.9543	3.3723
6872.0462	27.2450	-0.4723	-0.4057	3.8132	16.6507	1.7771	1.3534	1.3994	-13.4789	2.6313	42.5718	24.8823	3.1601	4.0007	1.7467	15.9082
6880.0463	22.4505	-0.2738	-0.2283	-6.9916	-1.9023	1.0814	1.4273	0.6314	-1.2469	2.2277	35.6648	27.7239	3.5811	0.7847	2.1559	8.1536
6888.0463	24.6537	0.5041	0.5569	-10.7225	-7.6426	1.7182	2.6850	1.3169	7.0601	2.1145	40.7625	42.1244	4.8767	-0.5920	3.3744	0.8833
6896.0464	12.6015	0.5305	0.5429	-17.2933	-24.8771	1.3148	3.2417	1.4741	-3.7691	1.2916	32.2526	25.0985	6.2192	0.1834	4.1201	3.6249
6904.0465	9.1639	0.2902	0.2841	-27.5656	-21.2150	1.4793	3.4418	1.7878	-8.2726	0.9515	16.2604	4.9359	6.6807	0.7804	4.5997	-0.4344
6912.0465	-0.9234	0.9740	0.9527	-31.9512	-10.4414	1.4659	3.3863	0.9221	-12.0224	-0.2699	11.4649	-2.0190	6.9596	-0.2827	4.2382	-10.3397
6920.0466	-16.1755	1.1665	1.0954	-39.6005	-35.1262	0.8083	3.6310	0.2845	-22.6305	-1.4815	-3.3901	-19.8814	6.4790	-0.8119	4.8443	-15.1120
6928.0466	-13.6391	1.1392	1.0758	-36.2187	-15.9188	1.0544	3.2844	0.2370	-9.6143	-1.5075	-4.9486	-29.7996	7.2059	-0.2195	6.6537	-11.9450
6936.0467	-14.4137	1.3815	1.3219	-30.0985	-14.7836	1.0097	3.4455	-0.2808	4.3455	-1.7071	-0.4446	-25.0142	8.0908	-1.4238	6.9002	-9.0958
6944.0467	-22.8371	1.7647	1.6715	-39.0178	-56.2115	1.0012	5.0057	-0.1439	-14.6934	-2.2365	-5.5289	-21.6709	7.8971	-3.6436	7.3981	-15.1947
6952.0468	-32.5418	2.3854	2.2839	-38.4309	-29.7803	0.8177	4.0865	-0.6749	-36.4357	-3.2916	-11.8165	-33.7592	8.6341	-3.3936	8.8728	-19.9028
6960.0468	-37.2308	2.6458	2.5517	-26.0874	5.1773	0.5133	2.6994	-0.8213	-39.2152	-3.8921	-20.7031	-44.9886	9.4302	-1.3964	9.9417	-15.7225
6968.0469	-33.7221	3.1134	3.0420	-11.7799	15.1277	1.3703	3.4982	-0.0100	-28.1379	-3.9458	-17.1381	-36.3005	10.0234	-2.5780	11.0386	-10.4176
6976.0469	-30.2035	3.1505	3.0912	0.2953	10.5942	2.0194	4.6699	0.5112	-11.8772	-3.7826	-11.6245	-31.7985	11.2952	-4.9390	11.6972	-1.1431
6984.0470	-32.5131	3.1778	3.0935	-3.0730	-28.3814	1.6395	5.8719	0.7095	-9.6679	-3.6365	-10.2221	-28.8902	12.8443	-4.4084	12.6264	-0.0642
6992.0470	-37.7369	4.0625	3.9739	-6.5336	-14.0623	1.4046	5.1088	-0.0213	-23.6193	-4.3547	-9.4490	-28.9461	12.9424	-3.3574	14.1608	-13.4159
7000.0471	-29.6061	4.0638	4.0084	1.5580	28.4662	2.0880	4.0755	-0.1172	-29.7129	-4.0231	-12.3975	-37.1620	12.6054	-2.1868	15.6698	-16.1130
7008.0472	-20.3747	4.1865	4.1498	9.6362	16.9978	2.6673	5.4250	-0.4006	-23.8813	-3.1700	-4.8855	-24.0422	14.9940	-1.4127	16.9007	-13.6194
7016.0472	-19.1881	4.3198	4.2847	5.5224	9.8393	3.1837	6.6648	-1.0747	-25.0865	-3.0703	-0.6855	-17.4660	16.6039	-1.9130	16.6169	-13.8009
7024.0473	-14.1103	3.6532	3.6226	-7.2421	21.9541	4.4114	7.5470	-0.3621	-27.4957	-2.7477	-3.6224	-31.6917	16.2442	-2.6200	16.7932	-8.5726
7032.0473	-11.0692	3.6477	3.6242	-0.0060	20.8352	4.4055	7.7148	-0.3862	-20.6639	-2.4454	-8.7785	-29.1985	17.4486	-2.6032	18.8986	-2.1659
7040.0474	-4.9531	3.0541	3.0380	13.9256	0.4992	3.5777	7.4613	-0.2971	-22.4999	-1.2911	-11.4103	-20.4484	18.7743	-0.9939	19.2735	8.6518
7048.0474	0.3589	2.6833	2.6672	9.5240	-23.3101	4.0608	8.7689	0.2903	-38.4939	-0.5068	2.9533	-15.6259	19.2336	-1.5843	17.6180	6.9187
7056.0475	3.8331	3.4389	3.4427	11.8832	-8.3256	5.0273	9.4296	0.2780	-41.6030	-0.7068	3.9238	-9.0206	19.5384	-2.7084	18.2713	-5.1836
7064.0475	7.1066	3.6854	3.7090	16.3324	20.6542	4.9976	8.4836	0.2004	-25.0592	-0.6852	-2.0491	-5.9949	20.2580	-1.0073	20.9340	0.8976
