Time	Fz	Fpz	C3	C4	T5	T4	O1	O2	F7	F8	F3	F4	T3	T6	P3	P4
0.0000	244.0811	-6.2482	-5.6446	77.9971	-32.2136	94.0385	20.1765	21.1882	126.1119	18.4772	-613.0658	116.2300	40.6478	7.2230	0.4479	70.0733
8.0000	8.2591	-4.6202	-4.6988	-28.9962	-120.7233	-19.7950	-4.4243	2.5196	-20.8864	3.9513	-29.3411	4.8936	-16.9134	0.1697	-6.0033	-13.8321
16.0001	5.8064	-4.5383	-4.6183	-30.4029	-114.1351	-18.9957	-4.6972	2.1500	-14.0264	3.6983	-18.3761	4.5620	-15.4687	-0.2570	-6.1638	-8.0784
24.0001	9.4010	-4.2250	-4.2986	-31.4983	-110.6865	-19.2288	-2.7471	2.1777	-11.4735	3.9217	-10.9693	5.3971	-11.1453	0.0193	-4.7895	-8.5418
32.0001	5.0260	-4.0490	-4.1276	-31.6134	-108.9872	-18.1074	-2.7036	2.1011	-10.3479	3.3715	-4.9159	4.1212	-12.1862	-0.2804	-4.6869	-2.1718
40.0002	4.7130	-3.6767	-3.7477	-23.4975	-106.3382	-15.2401	-2.8426	2.1790	-4.8239	2.9385	-4.4140	4.0692	-13.6941	-0.1259	-4.5053	-0.6757
48.0002	3.8313	-3.2362	-3.3031	-15.4327	-100.2004	-14.6386	-2.3926	1.8802	-11.9336	2.8508	-7.7890	2.4222	-9.4587	0.3252	-3.7303	-3.7176
56.0002	1.7109	-3.0253	-3.0862	-6.2048	-84.2661	-15.8721	-2.5191	1.6177	-3.2719	2.6261	-16.3316	1.9864	-6.9867	0.3590	-3.1021	-0.7033
64.0003	5.1146	-2.3592	-2.3952	5.4422	-53.9115	-16.0152	-1.4207	1.6467	19.6648	2.2735	-8.2171	3.4001	-5.4737	0.8582	-1.4692	2.1999
72.0003	1.7765	-2.1285	-2.1722	10.3293	-55.8526	-16.7144	-1.8465	1.2034	22.5831	2.0202	3.9981	1.6798	-4.5657	0.8877	-1.3705	1.1188
80.0003	1.2550	-1.9915	-2.0397	16.1921	-69.5929	-16.0110	-1.3864	1.3040	26.8450	1.9343	-3.6057	1.9734	-4.5451	0.8685	-0.8471	0.9203
88.0004	2.1160	-1.7049	-1.7372	26.7731	-47.1895	-16.3235	-1.3946	1.4259	24.1164	1.8635	-3.7782	0.8197	-2.6717	1.7267	-0.3755	1.9041
96.0004	0.0932	-1.6186	-1.6415	30.5672	-19.6564	-17.2865	-3.1368	0.9188	19.6241	1.6702	-1.1249	-1.0491	-2.3458	1.9820	-1.1346	-0.9808
104.0004	2.2176	-0.9738	-0.9876	28.4139	-14.0099	-14.3400	-2.1145	0.5026	33.0692	1.2348	6.0846	0.5849	-2.0100	1.5320	-0.1689	-4.7650
112.0005	-0.7177	-0.6754	-0.7005	26.4518	-24.6171	-12.8568	-2.8935	-0.3675	29.7081	0.9784	12.4077	-0.7357	-1.2577	1.0518	-0.5349	-13.6358
120.0005	-1.0519	-0.7298	-0.7534	20.3677	-18.8255	-12.0195	-3.6692	-0.7691	20.8268	0.9896	1.1926	-0.8273	-1.0687	0.6699	-1.1675	-19.3695
128.0005	1.5839	-0.6322	-0.6343	21.9704	7.5782	-10.7598	-2.6939	-0.2273	23.7947	0.9149	-0.1836	0.1479	0.3171	1.0328	-0.5770	-8.6352
136.0006	-0.2858	-0.6562	-0.6592	27.9774	5.5889	-10.0866	-2.8665	-0.0409	29.0664	0.7508	0.5108	-0.1267	0.1674	1.0633	-0.6170	-1.3929
144.0006	0.9405	-0.4425	-0.4545	15.8972	-10.2668	-8.6138	-1.6687	-0.5529	33.2749	0.7409	2.0128	1.5444	1.5278	0.1422	-0.0305	-7.7641
152.0006	0.2075	-0.3655	-0.3819	13.2556	-7.8690	-10.4152	-1.9136	-0.9700	18.8786	0.8895	3.0920	-0.3083	3.1488	0.4006	-0.0710	-17.2556
160.0007	-0.3184	-0.2095	-0.2225	23.5304	-10.7596	-10.1296	-1.1422	-0.1670	9.0899	0.7144	-4.7706	-1.7780	1.3531	1.3286	0.6204	-14.1390
168.0007	0.5049	-0.2344	-0.2443	16.8644	-7.4230	-9.0826	0.7487	0.3806	15.8564	0.6182	6.0338	-0.5343	2.3423	1.1069	1.4265	0.1459
176.0007	-0.5828	-0.3168	-0.3227	12.6681	13.3307	-10.9891	0.0574	0.0061	17.5319	0.5767	13.6186	-1.0503	3.1120	0.9516	1.0652	1.1113
184.0008	0.0400	0.2961	0.3001	15.3067	21.2205	-8.5533	1.1879	0.1115	17.6685	0.0469	13.6047	-1.1969	2.0153	1.1513	2.1336	-0.4973
192.0008	-1.5883	0.2782	0.2781	16.2031	17.9108	-8.0972	1.1650	0.0474	17.1409	0.0163	18.1204	-1.8173	3.3628	1.0858	2.0465	3.3579
200.0008	-1.0539	0.4148	0.4147	23.5322	12.9093	-8.6362	0.8983	-0.0780	23.5111	0.0249	12.4774	-1.5008	3.1126	1.2220	2.2973	-1.7596
208.0009	0.7563	0.9061	0.9085	26.4982	3.1266	-6.6638	2.7921	0.3099	19.1555	-0.1702	11.3443	-1.5354	3.0562	1.6495	3.6622	-4.1336
216.0009	0.1625	0.5460	0.5426	19.1511	-1.1252	-7.2692	3.1851	0.6464	-2.1461	0.1709	5.1454	-2.7783	4.3750	1.8450	3.3323	-1.9519
224.0009	1.0263	0.9567	0.9583	10.8448	4.3099	-4.9807	4.0627	0.3520	4.1748	-0.2778	5.0328	-1.3870	3.0873	1.1671	3.9611	-5.1155
232.0009	-0.5447	1.2443	1.2456	11.4951	9.4395	-4.2473	3.5002	-0.2191	12.2154	-0.6195	14.1896	-1.6509	3.0106	0.8248	3.8937	-7.6867
240.0010	-1.0929	0.6573	0.6536	13.5065	0.4666	-5.3871	3.3923	0.5237	-1.9341	-0.1418	5.0170	-2.5487	3.5999	1.3438	3.3151	0.1967
248.0010	-0.2654	0.6797	0.6754	7.7794	-11.6468	-2.6072	5.5752	1.3978	-1.8808	-0.3480	3.3906	-1.2344	2.0643	1.1524	4.1998	11.6668
256.0010	-0.7469	0.5319	0.5260	1.0862	-6.1707	-3.4205	5.3215	1.0528	-1.0778	-0.2615	0.8653	-0.7882	3.2438	0.6606	3.9406	11.1316
264.0011	0.7762	0.2903	0.2890	-5.0894	3.7407	-4.2245	5.2189	0.9827	-5.2770	0.0504	-3.2499	-0.2036	5.0028	0.5399	3.6225	11.3430
272.0011	-0.3195	0.3626	0.3592	-5.6123	-1.4886	-2.0606	4.8755	0.9106	6.4632	-0.2912	5.7810	0.5856	2.7870	0.0560	3.3007	15.6075
280.0011	-1.7847	0.2698	0.2577	-7.2041	-12.3589	-1.5898	3.8196	0.3695	13.7166	-0.3253	0.4541	1.3270	2.2310	-0.6718	2.6621	11.3541
288.0012	-0.7348	0.1454	0.1375	-11.3621	-2.6818	-2.1004	3.5007	0.2168	2.6454	-0.0515	-2.7058	0.8501	4.1084	-0.5332	2.2741	8.1862
296.0012	-0.2384	0.0934	0.0916	-8.5390	8.6363	-3.0123	2.6190	0.2344	-10.8758	0.1056	-4.6666	-0.6952	3.9887	0.1193	1.7434	3.1806
304.0012	0.4193	0.2134	0.2055	-13.6848	-4.2712	-2.2730	3.0088	-0.0088	-15.2749	0.1297	-10.9625	-0.2824	3.7366	-0.2042	1.9385	-5.0257
312.0013	-0.5192	-0.0211	-0.0360	-17.9561	-9.9854	-2.5772	2.4455	-0.1658	-12.0901	0.2044	-5.3017	-0.0084	3.2366	-0.5930	1.3248	-3.5299
320.0013	-0.7127	-0.3075	-0.3228	-13.3419	-10.8693	-3.7318	1.5534	0.0422	-10.1356	0.3640	-8.4396	-0.0202	1.9655	-0.3832	0.7436	-1.6960
328.0013	0.3648	-0.0709	-0.0807	-11.3964	-7.7641	-2.9249	1.8871	0.0131	-3.8062	0.1860	-12.0322	0.8146	1.3369	-0.4501	1.2067	-3.5274
336.0014	-0.4024	0.0433	0.0423	-10.6329	11.2420	-2.8439	1.3810	-0.2835	12.5109	-0.1579	-9.1066	1.8169	0.8614	-0.9007	1.1978	0.8688
344.0014	-0.8805	0.0617	0.0536	-22.1351	4.0608	-1.8424	2.1597	-0.5660	11.6308	-0.2146	-9.2292	2.5873	1.7839	-1.6694	1.3942	0.3985
352.0014	-1.1097	0.0780	0.0666	-31.1046	4.9930	-1.4477	1.9352	-0.9054	-3.5932	-0.1521	-5.4742	1.4609	2.2215	-1.7597	0.9422	-6.3751
360.0015	-0.8451	0.0592	0.0612	-26.1549	26.6278	-1.4634	1.3832	-0.6230	-0.9885	-0.2786	1.9507	1.0258	1.4641	-1.2871	0.6473	0.5756
368.0015	-0.0221	0.2007	0.1952	-21.6749	2.1571	0.1037	2.6566	-0.1531	-0.0713	-0.2441	8.5522	1.1420	1.4311	-0.9794	1.3311	3.1478
376.0015	0.0233	0.3840	0.3708	-14.7478	-15.0548	-0.2427	2.3224	-0.3143	-4.0975	-0.1772	6.3216	0.2386	0.6869	-0.6070	1.4259	-7.4848
384.0016	-0.1193	0.2354	0.2277	-18.0832	-1.7760	-0.2692	2.1427	-0.3852	6.0078	-0.2248	9.3475	1.3411	1.3982	-1.0373	1.2119	0.1182
392.0016	-0.3254	-0.2100	-0.2211	-19.5657	-8.6835	0.0402	1.9950	0.0124	7.3214	0.0210	8.8986	2.0070	1.6048	-1.1774	0.6238	9.7222
400.0016	0.0505	-0.0500	-0.0532	-6.4191	-4.2234	-0.1963	1.4462	0.3277	2.1703	-0.0483	-1.1053	0.8772	0.0193	-0.3040	0.7249	5.8808
408.0017	0.5449	0.1247	0.1296	-1.1257	9.3159	-0.7650	1.6425	0.3503	1.4955	-0.0461	4.9172	0.0695	2.0164	0.2142	1.1042	7.5190
416.0017	0.7801	-0.1343	-0.1360	-1.1689	-2.2191	-1.7959	1.6857	0.5947	-3.8740	0.2545	2.3567	-0.1335	2.0811	0.3993	0.9196	7.4777
424.0017	-0.4632	0.0858	0.0746	-9.4441	-18.9900	0.7077	2.5047	0.4982	-5.4188	-0.1253	0.3299	0.3200	-0.2183	-0.2855	1.2378	4.7667
432.0018	-2.2332	0.0861	0.0685	-16.6666	-20.9845	1.6089	2.3762	0.0356	-10.8612	-0.1486	5.6889	-0.3105	1.8243	-0.7596	0.9031	4.3894
440.0018	-0.6765	-0.0887	-0.0988	-16.1124	-11.0748	0.3699	2.5637	0.3943	-21.0485	0.1224	-7.2132	-0.4930	2.5338	-0.2983	0.9782	4.3406
448.0018	0.4432	0.3903	0.3914	-20.4254	6.8249	1.3525	3.2899	0.1620	-15.3511	-0.3407	-4.1471	0.1974	1.3601	-0.5285	1.7533	1.0491
456.0019	-0.0104	0.7415	0.7444	-17.4472	16.2025	0.4251	2.5745	-0.6598	-4.0101	-0.5366	2.7414	0.1624	2.3276	-0.7575	1.9147	-7.0501
464.0019	-0.2001	0.2159	0.2001	-24.6138	-15.4145	0.2425	3.0632	-0.3123	-7.2860	-0.0968	1.2774	0.9911	2.2554	-1.1601	1.5127	-3.1696
472.0019	-1.4685	-0.4740	-0.5038	-31.2017	-33.7366	-0.0368	2.1419	0.0163	-18.6513	0.3171	5.2271	0.4115	0.8692	-1.2579	0.0472	1.4230
480.0020	-0.5800	-0.2905	-0.2959	-17.5494	4.3458	-1.2672	0.8686	0.1467	-15.2540	0.1045	1.1864	-0.4177	-0.2716	-0.3461	-0.0765	1.9114
488.0020	0.6192	-0.1788	-0.1763	-21.6385	14.1281	0.1632	1.7385	0.3071	-0.5193	-0.1463	12.3253	1.3228	-0.6399	-0.7325	0.3579	11.0073
496.0020	0.7629	-0.3128	-0.3245	-28.0994	-4.9464	-0.5957	1.5231	-0.1645	-1.9824	0.1603	17.1678	1.5430	0.3650	-1.1519	0.0055	3.3264
504.0021	1.6832	-0.1680	-0.1834	-30.8740	-12.6711	-1.0494	1.9567	-0.2923	-14.4991	0.2713	7.9149	0.9709	0.3791	-0.9991	0.3585	-7.6173
512.0021	0.2106	-0.5430	-0.5707	-40.6718	-29.2557	0.0235	1.8468	-0.1726	-13.8908	0.2819	9.6764	1.7852	-1.6148	-1.7381	-0.3608	-2.4154
520.0021	0.2482	-0.4263	-0.4448	-32.1348	-13.9941	-1.4301	0.9442	-0.4083	-3.5327	0.1475	-1.7046	2.2261	-2.2610	-1.6588	-0.2635	-5.9654
528.0022	2.4669	0.0991	0.1027	-32.3504	21.5085	-1.4448	1.4708	-0.6459	-0.5679	-0.2106	-3.7650	2.5678	-1.8159	-1.4630	0.6399	-10.0528
536.0022	1.9874	0.1753	0.1807	-41.9993	28.7288	0.0914	1.9540	-0.7149	-5.7842	-0.4246	1.0204	2.5138	-1.9693	-1.8316	0.6201	-7.6394
544.0022	1.2242	0.4785	0.4871	-33.1224	27.3219	1.1688	2.9925	-0.3633	-7.9057	-0.6265	-4.0167	1.7065	-0.6377	-1.3626	1.5870	-3.3761
552.0023	1.4006	0.1783	0.1833	-18.7609	12.3437	0.6074	2.7192	0.2919	-2.8289	-0.2613	3.5550	1.2925	0.2622	-0.5674	1.3386	6.1324
560.0023	2.9996	0.1262	0.1340	4.1627	2.6157	-1.4061	2.2266	0.9509	2.6015	0.0617	1.5550	0.6280	-0.2943	0.7849	1.5652	6.3530
568.0023	4.2247	0.9590	0.9847	26.7483	18.4282	-1.5895	2.7155	1.2207	5.4537	-0.4002	-0.9915	-0.9514	-1.2716	2.1997	3.0945	-0.0642
576.0024	2.9443	0.9926	1.0233	33.0156	27.3578	-1.0954	1.6148	1.2231	10.7682	-0.6585	3.1625	-1.4468	-3.2799	2.3512	2.5693	2.4948
584.0024	2.2800	0.9900	1.0241	35.1878	33.2729	-0.8908	1.5971	1.2314	16.0607	-0.7584	-2.9198	-1.0076	-2.6970	2.1869	2.6944	6.5639
592.0024	1.9751	1.4676	1.5047	41.9902	33.9862	-0.0944	2.0339	1.0387	18.5949	-1.0553	-5.3245	-1.4742	-2.2148	2.3726	3.5123	1.9734
600.0025	2.2111	1.6558	1.6921	45.4734	25.0413	1.0297	2.4003	1.2232	16.9954	-1.2048	-10.7323	-1.5150	-3.7364	2.5292	3.8683	-0.7788
608.0025	3.3912	1.7753	1.8150	40.0641	29.5266	1.5249	3.1976	1.2064	11.8127	-1.2005	-13.1977	-1.2612	-2.7677	2.4570	4.2876	-2.4413
616.0025	3.5253	2.1812	2.2211	36.8697	32.5891	2.0836	2.9375	0.5163	14.8387	-1.4757	-7.5709	-1.2796	-3.4156	2.1292	4.4364	-13.1931
624.0026	3.0484	2.4279	2.4636	33.5423	23.7491	3.8398	3.7284	0.4498	20.0783	-1.7767	-2.4399	-0.7237	-4.2992	1.7240	4.9131	-12.6650
632.0026	1.3225	2.0144	2.0396	30.1712	7.1769	5.1177	3.7635	0.7509	20.0644	-1.6239	0.0433	-0.4059	-3.7324	1.3347	4.3100	-1.8150
640.0026	-0.0916	1.8609	1.8797	29.9020	-4.8729	6.1345	3.6828	0.9107	21.1365	-1.6883	-7.4700	-0.0225	-4.8574	1.0064	4.0808	1.6484
648.0027	0.8633	1.8765	1.9040	22.9999	19.3465	3.9990	4.1321	0.7268	16.4577	-1.5987	-6.8350	-0.2141	-2.7270	1.0480	4.4433	0.7982
656.0027	1.9894	1.7633	1.7939	17.6626	37.4454	0.4812	2.9434	0.1042	10.0316	-1.2893	-1.2982	-1.0290	-1.9228	1.2044	3.8232	-10.5244
664.0027	1.7679	1.8508	1.8672	11.4495	12.4191	1.3614	3.3899	-0.0297	7.9901	-1.3638	0.0134	-0.7119	-4.1873	0.7829	3.9250	-18.0113
672.0027	0.6214	1.5372	1.5475	17.3099	3.8373	0.3754	2.5864	0.0983	11.0662	-1.1330	2.3905	-1.0604	-3.8086	0.9450	3.3384	-13.6960
680.0028	0.4787	1.5322	1.5548	40.4926	15.6390	-0.8928	1.1419	0.5538	16.7404	-1.1378	-4.4642	-2.1447	-5.0574	2.1145	3.0936	-10.7945
688.0028	1.2726	1.3050	1.3273	33.0548	12.2894	-0.0088	2.5616	1.1141	10.4623	-0.9656	-6.2649	-1.5142	-3.6503	2.0148	3.4182	-1.0471
696.0028	1.7262	0.7173	0.7321	13.6223	13.2809	-0.9733	2.4135	0.5748	14.2793	-0.4702	-3.3832	0.5038	-0.0344	0.7643	2.5688	3.1984
704.0029	1.5064	1.3678	1.3889	15.7274	17.9098	2.0193	2.5517	0.0361	29.7849	-1.1380	-2.0844	1.5977	-1.4489	0.1959	3.1921	-1.3344
712.0029	0.4496	1.4573	1.4743	14.5199	8.0878	4.1819	3.0773	0.2109	18.1379	-1.2286	-3.5626	0.6233	-1.0492	0.2765	3.2575	0.0537
720.0029	0.8846	1.1220	1.1350	18.1281	-1.7861	2.9862	3.0974	0.7224	0.2015	-0.7415	-14.0706	-0.6663	0.0664	1.0037	3.0080	-0.1761
728.0030	2.0244	1.6637	1.6897	27.3164	7.5489	4.5266	4.7992	1.3966	2.0055	-1.1686	-8.0695	-1.1709	-0.6170	1.8254	4.4626	5.7786
736.0030	1.9735	1.5183	1.5421	18.2869	12.9880	3.6230	5.3740	1.1592	8.1507	-1.0475	-0.5220	-0.2515	1.9675	1.2539	4.6088	10.9271
744.0030	2.0296	1.2779	1.2861	3.9936	-5.3489	2.7780	5.7816	0.7115	6.0713	-0.7519	-4.4282	0.8730	3.0614	0.3369	4.4785	4.9414
752.0031	1.0827	1.1924	1.1991	4.6556	-11.5223	4.2980	5.8778	1.1896	-2.1271	-0.8602	-5.4735	0.1468	1.2165	0.5594	4.2266	9.6231
760.0031	0.0582	0.7302	0.7358	4.7850	-11.0756	3.7533	5.4380	1.5279	-6.0409	-0.6185	-16.0564	0.1929	1.8436	0.5265	3.6325	17.5030
768.0031	0.9876	0.6768	0.6732	-7.1101	-19.6789	2.4858	6.2776	1.0897	-6.0308	-0.3669	-15.1878	1.1738	3.9975	-0.1107	3.9972	11.9255
776.0032	1.8134	0.9056	0.9033	-13.4020	-9.5998	1.4521	5.9447	0.2854	4.5844	-0.4738	-4.8031	2.0014	4.3592	-0.6494	4.0673	3.6622
784.0032	1.1256	0.8705	0.8665	-19.6184	-7.5216	2.1580	5.4473	-0.1499	12.7590	-0.6073	-2.4582	3.0065	4.0149	-1.3956	3.6560	3.6304
792.0032	0.3432	0.3371	0.3268	-18.5592	-19.3420	2.6105	4.6223	0.3422	-0.6742	-0.2117	-1.4200	1.8976	3.9596	-1.0065	2.4575	9.9552
800.0033	1.1320	0.1208	0.1200	2.4061	-18.1251	2.3391	3.5587	1.1776	-4.6500	0.0561	-9.4209	0.7187	3.3166	0.3521	1.9737	15.6230
808.0033	1.8526	0.1035	0.1084	7.1355	-14.5672	3.2523	3.7189	1.4465	0.3583	0.0930	-4.5552	1.0493	4.3943	0.5827	2.0213	22.8587
816.0033	1.3849	-0.1029	-0.0974	-4.3261	-3.3397	3.9513	2.9287	0.9727	-4.9239	0.2000	5.7003	0.8847	6.0427	0.0765	1.0032	24.1866
824.0034	1.0469	0.1465	0.1495	-5.7158	-9.2861	5.5643	2.5705	0.4309	-5.6453	0.0474	-0.3469	1.0320	6.1353	-0.3336	0.9295	15.6643
832.0034	0.3881	-0.2588	-0.2637	5.3453	-29.5864	5.2721	1.8003	0.8683	-0.7873	0.3765	-5.9748	1.2117	5.9475	-0.0509	0.3410	21.5405
840.0034	-0.5393	-0.7275	-0.7235	16.5628	-18.2352	4.8295	0.6373	1.6168	5.4873	0.4393	-11.9606	1.2929	4.3635	0.4193	-0.4746	36.2842
848.0035	-0.4722	-0.4025	-0.3982	6.5608	-12.3737	5.7862	0.9513	1.0088	3.2567	0.1848	-8.5322	1.4315	4.4956	-0.1329	-0.2415	28.5177
856.0035	0.2552	-0.3441	-0.3477	-3.3601	-15.1135	4.1457	0.4674	0.0999	-0.7910	0.4117	-2.4691	1.3067	5.9003	-0.5709	-0.5301	13.9152
864.0035	-0.2250	-0.0237	-0.0218	-4.4850	-6.5995	5.3147	1.1663	0.1312	3.3104	-0.0230	-1.0235	1.4967	4.7382	-0.7219	0.1022	15.8603
872.0036	-0.4047	-0.0191	-0.0257	-13.9072	-17.6451	6.0347	2.3102	0.1922	-5.1870	0.0311	8.2491	1.1287	5.7319	-0.9073	0.3772	17.0253
880.0036	1.5410	-0.0616	-0.0650	-13.5851	-14.2850	4.6951	2.5160	0.2975	-8.8819	0.2862	8.2497	1.1103	6.4233	-0.5291	0.5340	13.9845
888.0036	1.9184	0.5705	0.5850	-10.6199	9.4620	6.9047	3.3792	0.3186	2.3455	-0.4511	7.5352	1.8414	4.8560	-0.6040	1.6287	16.7234
896.0037	1.0975	0.3630	0.3669	-25.4390	5.0460	6.4311	3.0984	-0.4607	3.6682	-0.2721	9.9981	2.7308	6.9914	-1.6927	1.1009	13.0449
904.0037	1.3620	0.1106	0.0954	-47.8430	-15.1039	5.8066	3.4145	-1.3087	0.2660	0.0541	4.1252	4.4175	8.3231	-3.1403	0.7733	2.0278
912.0037	1.9078	0.0973	0.0756	-52.4105	-25.6302	5.4647	3.3784	-1.5121	0.2785	0.1094	1.5170	4.9784	7.0369	-3.4477	0.7094	-4.9522
920.0038	3.4510	-0.0316	-0.0435	-39.4524	-8.8320	1.7759	1.9618	-1.5116	2.5591	0.4625	2.5872	4.1062	7.5793	-2.4685	0.3351	-9.1674
928.0038	3.3030	0.3148	0.3155	-42.0055	19.1876	1.3016	2.1493	-1.6722	-6.8711	0.1496	6.5790	2.6241	7.5942	-2.1067	0.7173	-12.3475
936.0038	1.5028	0.0235	0.0150	-46.9779	11.2828	0.7884	2.0032	-1.4508	-24.0887	0.3075	7.0168	0.9766	7.1843	-1.9393	0.1561	-11.3339
944.0039	1.3848	-0.2123	-0.2337	-45.6482	-9.8349	-0.3033	1.8112	-1.4444	-22.5302	0.6380	12.3372	0.9717	7.5782	-1.9209	-0.1245	-12.6607
952.0039	1.2076	0.0003	-0.0235	-51.2396	-10.6527	0.6088	1.6622	-1.9813	-15.2871	0.4087	20.0139	1.6249	6.9215	-2.5129	-0.1631	-17.3779
960.0039	0.8720	-0.3955	-0.4204	-46.5712	-15.6350	0.3627	1.1603	-1.5924	-11.3382	0.6354	13.8370	2.1733	6.9574	-2.4585	-0.6747	-9.3396
968.0040	0.8927	-0.4934	-0.5214	-49.0850	-22.9345	1.3185	2.1128	-1.2830	-11.8625	0.7250	17.6559	2.4995	8.5048	-2.5395	-0.4094	-1.5427
976.0040	0.9851	-0.3048	-0.3296	-58.8258	-11.7850	2.1432	2.2286	-1.7156	-18.7951	0.5631	20.2153	2.2539	8.9033	-2.8893	-0.4450	-6.5347
984.0040	1.3968	-0.2429	-0.2617	-55.2431	-4.7043	2.6202	1.9968	-1.6857	-13.5110	0.4869	22.8847	2.4979	8.8789	-2.7840	-0.4834	-4.1334
992.0041	1.8741	-0.0652	-0.0856	-55.0239	-8.8603	3.5037	2.3694	-1.7575	-10.7929	0.4586	42.2508	2.1485	9.8105	-2.6345	-0.3383	-2.9229
1000.0041	3.0612	0.2246	0.2100	-50.3130	-3.7131	3.3841	2.7634	-1.6431	-15.4704	0.3942	45.9330	1.2810	9.7282	-2.0118	0.1743	-6.9202
1008.0041	2.6807	0.5596	0.5475	-48.5651	-5.4087	5.1607	4.0784	-1.3553	-13.7416	0.0395	45.8879	1.3230	9.4717	-1.9686	1.1353	-2.6796
1016.0042	1.3012	0.4878	0.4629	-57.2151	-23.4152	6.3613	5.0483	-1.4469	-15.5476	0.0523	44.2695	1.8277	10.9184	-2.6677	1.3755	0.0839
1024.0042	1.6106	0.6090	0.5801	-57.7346	-30.9956	5.8370	6.0745	-1.5304	-10.2647	0.0821	38.4806	2.6486	12.5538	-2.9206	2.2345	-0.9388
1032.0042	2.1176	0.9375	0.9097	-62.0350	-23.2356	4.8198	6.6321	-2.0247	-4.1532	-0.0847	45.3279	2.9692	13.3140	-3.1914	2.9355	-6.9515
1040.0043	3.3362	0.9995	0.9800	-56.9999	-9.9817	2.7447	6.3628	-1.8736	-13.2609	0.0171	38.1464	1.8987	12.6700	-2.4289	3.1021	-13.2620
1048.0043	4.0864	1.6197	1.6122	-42.0157	-0.1901	2.6424	7.2747	-1.4591	-17.4740	-0.3356	34.1830	0.3233	11.7866	-1.2584	4.4808	-17.1939
1056.0043	2.9654	2.1169	2.1025	-41.3319	-8.8924	2.7297	8.0928	-1.9128	-16.1004	-0.6176	38.3270	-0.3575	12.6036	-1.3853	5.4510	-24.9686
1064.0044	2.6352	2.1330	2.1188	-30.7261	-12.6602	1.4670	8.4370	-1.5286	-15.2022	-0.5497	31.0071	-0.8889	13.1306	-0.8163	6.0222	-22.6325
1072.0044	3.7874	2.8362	2.8446	-10.2642	15.1903	0.8253	8.8139	-1.2201	-6.1455	-1.0390	32.0395	-1.8950	12.3929	0.4209	7.4085	-22.9409
1080.0044	4.9581	3.5571	3.5818	5.8653	35.0279	0.0297	9.0354	-1.3622	3.5656	-1.4427	30.6367	-2.4713	12.3505	1.2216	8.7058	-29.7677
1088.0044	4.6200	3.6007	3.6272	23.5996	29.4626	-1.0759	9.5499	-0.6178	7.5274	-1.3974	30.1241	-3.3977	12.7145	2.2481	9.4473	-22.2198
1096.0045	4.1890	3.7121	3.7415	29.0219	31.1642	-1.2008	10.2066	-0.1812	9.5671	-1.5872	28.0709	-3.6371	11.7118	2.5844	10.0664	-17.5733
1104.0045	3.7095	4.0669	4.1014	33.2153	32.9633	0.4107	10.8604	-0.0233	11.7203	-2.0052	18.1899	-3.4839	10.3134	2.5941	10.8212	-17.5215
1112.0045	3.1696	4.5145	4.5503	48.5450	26.3578	0.9438	11.5735	0.3081	14.5851	-2.2578	23.1092	-4.7485	10.3782	3.4268	11.8363	-16.5549
1120.0046	5.0570	4.9453	4.9874	55.4206	26.3290	0.9198	12.9768	0.6968	13.7282	-2.4063	21.6786	-4.9786	9.9336	4.1106	13.1590	-19.5236
1128.0046	5.5054	4.9281	4.9697	54.5134	20.8724	1.9572	13.0546	0.8269	14.9506	-2.4466	20.7252	-4.4450	8.7702	4.0016	13.0703	-18.8732
1136.0046	4.7019	4.6514	4.6827	52.3509	6.9443	1.9732	12.1284	0.5524	23.5793	-2.3010	27.1991	-3.6733	8.2975	3.4738	12.2383	-18.2845
1144.0047	5.2656	4.6548	4.6915	49.4956	8.4165	3.7945	12.7869	1.0734	17.5252	-2.4881	16.3547	-3.2089	6.0053	3.4747	12.4184	-14.8153
1152.0047	4.6883	4.7349	4.7776	53.3987	15.3771	4.7621	12.3484	1.2793	6.2763	-2.6369	8.5401	-4.4460	4.6707	3.9156	12.1847	-16.1247
1160.0047	5.6715	4.3860	4.4211	59.2360	0.8897	2.1517	12.0534	1.3736	14.8534	-2.1380	4.4582	-3.5469	5.8546	4.0269	12.0980	-16.3036
1168.0048	6.3445	3.9749	4.0070	57.9421	-9.9999	2.0494	12.8839	2.2608	18.7292	-1.9800	3.0058	-2.3288	4.0319	4.0532	12.1516	-4.3556
1176.0048	4.6693	4.1162	4.1460	51.4932	-5.4555	2.5512	12.4053	1.8091	14.1306	-2.2639	4.3777	-2.9967	2.7152	3.6537	11.8499	-9.7739
1184.0048	4.4860	3.9805	4.0064	50.5750	-6.3781	0.5164	11.8327	1.4594	14.0238	-2.0689	-7.3445	-2.7555	3.2500	3.4299	11.6925	-16.4953
1192.0049	3.7799	3.3812	3.4083	56.2374	-0.2625	-2.0256	10.2757	1.8633	17.2092	-1.7859	-10.7762	-2.8434	1.3755	3.7467	10.5867	-9.8153
1200.0049	3.2572	2.8473	2.8704	57.0323	-1.3050	-4.0422	9.0366	1.8817	23.4914	-1.4419	-11.3399	-2.2945	1.2913	3.5913	9.6112	-5.5288
1208.0049	3.4072	2.0724	2.0949	58.2303	-4.4280	-4.9937	8.2754	2.7407	12.2662	-0.9255	-19.9564	-2.5845	0.4391	4.0624	8.4456	4.7215
1216.0050	2.2281	1.8615	1.8938	62.3535	16.5935	-5.4188	5.9515	2.7294	7.5206	-1.0607	-21.7375	-3.7729	-3.0751	4.4052	6.9958	3.8961
1224.0050	1.9479	1.7111	1.7425	62.8121	16.8651	-5.3235	4.5981	2.1807	21.7884	-1.0131	-25.0819	-2.3254	-2.8804	3.7312	6.2425	2.4293
1232.0050	2.5150	1.1253	1.1563	64.4573	12.8380	-5.1964	3.4972	2.6506	13.0273	-0.5264	-23.2302	-2.7536	-2.7469	4.1485	4.9011	9.1597
1240.0051	3.4879	1.3831	1.4165	58.7658	16.6784	-3.8258	3.2574	2.2785	7.3392	-0.6692	-12.9888	-3.1837	-3.7040	4.0990	4.6483	1.2779
1248.0051	3.5279	1.1786	1.1994	48.4437	-5.1688	-2.0952	3.3695	1.9600	14.5183	-0.5514	-13.7482	-1.2112	-3.5146	3.0166	4.2336	1.1794
1256.0051	2.4594	0.5995	0.6217	45.7737	3.4391	-2.5493	1.6078	2.0913	6.9765	-0.3226	-18.0442	-1.6553	-4.8053	2.9878	2.6211	5.7651
1264.0052	2.2925	0.3072	0.3292	37.3878	8.7264	-2.4179	0.9654	2.0124	0.3825	-0.2004	-17.4821	-1.6404	-5.2441	2.7000	1.7561	6.7131
1272.0052	1.8899	-0.5360	-0.5341	24.6379	-21.2266	-2.3832	0.1399	2.1285	-6.0697	0.3836	-20.4440	-0.5852	-6.3484	1.9462	0.1585	8.8657
1280.0052	1.7239	-0.5621	-0.5580	12.0744	-5.6197	-2.9319	-0.8582	1.4873	-7.8165	0.2387	-16.8590	-0.3686	-8.1845	1.3169	-0.5992	1.3648
1288.0053	1.3628	-0.7861	-0.7788	2.8690	10.9379	-3.6189	-1.9586	1.0090	-8.4062	0.2910	-14.9067	-0.0980	-8.0038	0.7991	-1.5191	0.2505
1296.0053	1.1413	-1.3847	-1.3808	8.0174	6.3767	-5.5257	-4.3784	1.0180	-21.6081	0.8361	-32.0027	-1.0690	-9.1860	1.2054	-3.2247	-6.4649
1304.0053	1.6253	-1.2590	-1.2470	10.9344	18.3132	-5.6996	-4.6334	1.0139	-23.0025	0.7300	-37.3187	-1.2932	-9.7813	1.4421	-3.1395	-8.8563
1312.0054	1.0338	-1.7596	-1.7482	15.6251	15.1947	-5.9732	-4.9010	1.6718	-8.7039	0.8720	-30.6398	-0.1743	-10.4407	1.4277	-3.6477	8.4223
1320.0054	1.3956	-1.3700	-1.3529	30.0593	16.2188	-6.1653	-5.3104	1.6875	0.6584	0.5968	-32.2148	-0.4504	-12.5265	1.9801	-3.1611	3.0042
1328.0054	0.7352	-1.2719	-1.2565	29.1082	15.3325	-5.6268	-5.2507	1.6733	-18.0211	0.6465	-31.0659	-2.4654	-11.4933	2.4248	-3.2692	-1.0680
1336.0055	-0.5268	-2.3193	-2.3163	21.6108	2.7566	-7.1244	-6.2450	2.3104	-40.2274	1.4081	-34.3012	-3.6611	-11.0777	2.6306	-5.0595	8.0866
1344.0055	0.1302	-2.0093	-2.0061	18.0633	2.8254	-6.8338	-5.9370	1.8852	-27.7848	1.1155	-33.6216	-2.2664	-12.4831	2.0522	-4.5426	2.0215
1352.0055	-1.4008	-2.5987	-2.6131	9.1066	-17.8648	-6.9819	-7.5643	1.3989	-21.8639	1.4323	-30.1614	-1.1697	-13.2836	1.0354	-6.1738	1.3384
1360.0056	-1.7694	-3.0377	-3.0573	9.3330	-24.7765	-7.6070	-9.0142	1.4130	-23.7710	1.7176	-31.4703	-1.2095	-14.6054	1.0032	-7.4048	1.0217
1368.0056	-1.0092	-2.5270	-2.5296	18.3435	-2.8205	-6.4518	-8.8015	1.4259	-15.5235	1.2869	-26.2082	-1.3864	-14.6409	1.4472	-6.7000	2.7849
1376.0056	-2.2773	-3.3992	-3.4046	18.4151	-0.8787	-7.6928	-11.1152	1.6606	-25.8104	1.8327	-31.5034	-2.1532	-14.9445	1.6027	-8.8300	9.1057
1384.0057	-2.1351	-3.2672	-3.2657	19.1531	9.8155	-6.7389	-11.9266	1.4967	-28.4484	1.6580	-28.1159	-2.6858	-16.3235	1.7379	-9.2953	5.9001
1392.0057	-2.6893	-3.3544	-3.3532	23.9565	5.1413	-5.4320	-12.2797	1.6124	-13.9017	1.5697	-20.5434	-1.7414	-16.6145	1.5271	-9.5834	14.5493
1400.0057	-2.0790	-4.1286	-4.1426	16.8219	-22.2507	-6.3802	-11.9654	2.0887	-15.1773	2.2155	-34.3773	0.0527	-16.1167	1.0135	-10.1317	20.7086
1408.0058	-0.6841	-3.5871	-3.5920	13.6614	-10.0658	-5.2002	-10.9671	1.9540	-27.3112	1.9476	-34.2229	-0.8870	-15.8435	1.3430	-9.2857	12.5209
1416.0058	-2.4509	-3.8826	-3.8878	21.2768	-5.9221	-6.1278	-13.1065	1.8134	-26.7920	2.0536	-33.7629	-1.9054	-16.8028	1.5786	-10.5849	12.8711
1424.0058	-2.3280	-4.1253	-4.1354	22.9887	-13.7844	-7.3264	-13.2071	1.8939	-15.1794	2.2335	-32.8918	-0.7747	-16.6837	1.3636	-10.6565	16.8156
1432.0059	-1.7134	-3.9298	-3.9285	24.4677	5.8569	-7.2780	-12.9388	2.0539	-14.8574	2.0469	-19.2782	-1.4543	-16.6320	1.8202	-10.4005	21.0269
1440.0059	-2.1071	-4.2595	-4.2723	13.0014	-13.0103	-7.3324	-12.4070	2.0747	-14.4470	2.2382	-17.1518	-0.4047	-16.8734	1.1095	-10.6303	23.3742
1448.0059	-1.9185	-4.3126	-4.3439	0.6254	-41.4821	-6.6325	-11.1981	1.7370	-17.9586	2.5058	-13.4354	0.3707	-14.4172	0.3569	-10.3309	19.3466
1456.0060	-3.2001	-4.5007	-4.5170	11.9612	-11.5770	-7.7664	-14.1009	1.5278	-28.4937	2.5731	-23.0634	-1.8151	-14.7610	1.1204	-11.8644	16.2975
1464.0060	-3.5848	-4.2388	-4.2405	16.4761	8.8447	-6.1766	-14.0720	1.6244	-15.7802	2.0635	-27.0974	-0.9209	-16.0456	0.9620	-11.4913	23.1574
1472.0060	-2.8932	-4.3013	-4.3054	16.6520	-1.2330	-4.7125	-13.0994	2.0301	-15.8608	2.2135	-15.6588	-0.7873	-14.1724	1.1381	-11.2707	31.9689
1480.0061	-1.9128	-4.4049	-4.4065	16.1916	2.1200	-5.3976	-13.6580	1.9838	-26.7439	2.4421	-23.6540	-1.3448	-14.1009	1.4201	-11.6708	25.7471
1488.0061	-1.8217	-3.6928	-3.6933	11.7330	2.1312	-2.9257	-12.2698	1.4038	-12.4524	1.8561	-14.2457	-0.1577	-13.5143	0.6897	-10.4005	22.3141
1496.0061	-2.6681	-4.0044	-4.0160	11.5925	-12.8913	-3.3142	-13.3259	1.0302	-11.1835	2.2064	-14.1718	-0.0457	-11.9013	0.3603	-11.2714	20.3282
1504.0062	-1.2416	-4.1776	-4.2005	-26.4198	-15.6122	-3.3829	-12.3390	-0.0593	-12.5057	2.2701	-28.0960	3.4480	-11.8928	-1.9683	-11.3181	7.5865
1512.0062	-1.4359	-4.4671	-4.4956	-67.5703	-2.4318	-1.9344	-11.4474	-0.9424	-4.1402	2.0567	-16.0822	6.8973	-11.7670	-4.4873	-11.8560	12.3185
1520.0062	-2.2590	-5.1462	-5.1769	-66.1809	-3.2302	-2.9052	-12.6930	-0.5606	-8.5402	2.4810	-20.7933	6.7070	-11.5946	-4.3524	-13.1417	20.9514
1528.0062	-1.5803	-4.4923	-4.5282	-70.6605	-17.9701	-0.5767	-10.7831	-0.8903	-7.2482	2.1412	-17.7439	7.1760	-10.6563	-4.7325	-11.7071	13.4618
1536.0063	0.5536	-0.5189	-0.5166	43.2512	-8.3242	-5.7339	-4.6209	0.4428	48.8516	0.2622	14.2091	0.9279	-7.7767	1.3667	-1.7071	1.6101
1544.0063	1.6522	-0.0425	-0.0329	39.1844	9.7543	-7.2163	-3.1981	0.1343	41.2927	0.1580	15.4880	0.0778	-4.9491	1.6250	-0.3742	-5.3538
1552.0063	1.5294	0.4175	0.4301	33.2896	13.9912	-5.8962	-1.1079	0.2549	39.8077	-0.2786	13.7533	0.2945	-4.6953	1.4004	1.0873	-3.8214
1560.0064	1.1931	0.7281	0.7305	29.7611	-4.3816	-5.4765	0.7015	0.2537	42.2008	-0.4639	12.1062	0.7919	-4.4275	1.0594	2.3739	-6.3144
1568.0064	2.1287	1.0288	1.0330	37.7041	-7.6584	-6.3079	1.3716	0.2945	46.8982	-0.5126	6.1268	0.9163	-4.0275	1.4041	3.3532	-10.8777
1576.0064	1.1632	0.8569	0.8567	25.8061	-10.3140	-5.4966	2.7705	0.7119	36.1759	-0.5583	3.1001	0.9138	-3.8456	1.0618	3.6559	-3.0310
1584.0065	0.8368	0.4077	0.3965	13.6560	-18.7186	-6.7823	2.8087	0.4564	42.3666	-0.2446	5.7898	2.4044	-2.4871	0.1615	3.2048	0.4144
1592.0065	1.6347	0.7222	0.7123	12.5840	-18.2315	-6.1020	3.2217	-0.0496	56.3782	-0.4083	8.3881	3.8100	-1.2004	-0.3732	3.7915	-2.7915
1600.0065	0.6609	0.3894	0.3845	10.6123	-9.2644	-5.1730	3.8313	0.9372	26.9613	-0.2256	7.7189	1.2423	-0.1344	0.5503	3.4187	9.7400
1608.0066	0.6195	-0.3800	-0.3829	9.4444	-6.5901	-5.5641	3.3516	1.9500	0.4023	0.3530	0.7320	-0.4603	0.3092	1.3964	2.1811	21.0814
1616.0066	-0.0926	-0.5120	-0.5237	1.7303	-21.8145	-3.9886	3.3663	1.9637	-11.7611	0.3769	-8.6477	-0.5678	-1.0122	1.0204	1.7444	17.5670
1624.0066	-1.2265	-0.7058	-0.7167	7.5494	-25.4054	-3.4261	3.5155	2.8010	-34.9160	0.4871	-20.8824	-2.7678	-1.6403	1.9396	1.5539	22.2859
1632.0067	-0.5680	-0.6696	-0.6686	15.5189	-11.1653	-3.1586	3.6390	3.1972	-38.5599	0.5303	-22.5657	-3.4682	-0.0570	2.6312	1.7416	28.4728
1640.0067	-0.6981	-0.4267	-0.4262	4.7367	-2.4703	-2.5178	3.0143	2.1266	-32.3413	0.3328	-15.8311	-2.7046	0.6962	1.6858	1.4359	19.1435
1648.0067	-0.7377	-0.2246	-0.2232	1.4801	1.8893	-2.1414	2.6938	1.6701	-33.2768	0.1851	-15.4764	-2.8041	0.4006	1.4418	1.3729	12.1542
1656.0068	-1.3468	-0.2036	-0.2054	-1.9973	0.4097	-2.0689	2.5275	1.4074	-31.6897	0.1160	-14.0131	-2.6583	0.1976	1.1111	1.2516	10.1074
1664.0068	-2.4501	-0.2529	-0.2625	-14.1479	-0.2169	-2.4494	1.6652	0.5818	-31.8276	0.0567	-14.8371	-2.2411	-0.5018	0.1804	0.5967	0.8769
1672.0068	-2.1170	0.0358	0.0218	-15.4225	-8.0309	-2.0485	2.0677	0.1286	-30.9085	0.0260	-13.0074	-2.1826	0.9236	-0.0245	1.0558	-6.5782
1680.0069	-1.9583	-0.3912	-0.4169	-10.4330	-28.7677	-3.6018	1.7963	0.3160	-26.2609	0.5699	-8.1548	-1.9267	2.9044	0.1390	0.6677	-2.4323
1688.0069	-1.2337	-0.8946	-0.9168	-14.4662	-21.7258	-4.3505	1.2144	0.7316	-24.7471	0.7859	-7.3305	-1.0901	1.3328	0.0825	-0.1756	5.5017
1696.0069	-1.3957	-0.7176	-0.7303	-23.5837	0.1276	-2.9669	0.8048	0.3289	-31.3678	0.4855	-6.4378	-1.3705	0.7155	-0.2607	-0.5417	2.3760
1704.0070	-2.4404	-1.0287	-1.0455	-23.3603	0.6531	-3.9566	-0.9420	-0.2629	-33.2668	0.8186	-11.7778	-1.6807	2.7969	-0.5307	-1.6952	-1.7873
1712.0070	-1.3858	-1.0390	-1.0530	-18.1616	-2.1927	-3.2829	-1.0447	-0.0761	-28.1428	0.8845	-9.9492	-1.1933	2.7444	-0.3277	-1.7457	0.5480
1720.0070	-0.9894	-0.8753	-0.8876	-16.9138	-4.8277	-1.7569	-1.2130	-0.0969	-31.8252	0.7679	-9.7144	-1.4853	1.6851	-0.2070	-1.8584	-2.9817
1728.0071	-1.3622	-1.3147	-1.3288	-19.1143	-5.1714	-2.3393	-2.0862	-0.0640	-32.7569	1.0307	-19.4823	-0.9202	1.7967	-0.4806	-2.6951	-0.1450
1736.0071	-1.3230	-1.1862	-1.1989	-19.3876	-5.9648	-1.4568	-1.2625	0.2408	-29.4813	0.8160	-14.7129	-0.6561	0.7338	-0.4564	-2.2081	4.4811
1744.0071	-2.1039	-0.9858	-1.0099	-24.0615	-24.3705	-0.5147	-0.7510	-0.0528	-30.0535	0.6664	-13.7575	-0.5551	-0.0249	-0.9030	-1.8953	-1.9319
1752.0072	-2.0487	-1.1775	-1.2080	-36.5653	-27.5153	-0.9289	-0.3513	-0.3530	-27.8877	0.7971	-13.3267	0.6381	1.0774	-1.7050	-1.9832	-1.6375
1760.0072	-0.8248	-0.9797	-0.9982	-27.7670	-12.5097	-1.4643	-0.0773	0.0511	-27.4629	0.7177	-4.4521	-0.2153	0.9595	-0.8128	-1.5276	1.7155
1768.0072	-0.4304	-1.0387	-1.0546	-20.9570	-16.1590	-1.0201	0.0769	0.5793	-26.1178	0.7256	-5.5046	-0.2211	-0.0907	-0.3814	-1.4436	6.9471
1776.0073	-1.2285	-1.3958	-1.4165	-38.2111	-13.9640	-0.4417	0.0520	0.4074	-29.6259	0.7579	-6.5766	0.7695	-0.4665	-1.3497	-2.1438	10.6636
1784.0073	-1.0560	-1.2488	-1.2650	-33.4676	-5.6814	-1.0205	-0.7328	0.0779	-33.8757	0.7866	-10.3523	-0.1106	0.2673	-1.0371	-2.3047	3.4246
1792.0073	-0.3177	-1.1336	-1.1529	-27.9159	-19.3386	-0.2399	-0.0003	0.2663	-22.9678	0.8010	-2.5210	0.6549	0.9979	-0.9635	-1.7599	7.3280
1800.0074	-0.8496	-1.1015	-1.1294	-36.5124	-32.6873	1.6893	0.2775	0.2088	-20.2715	0.5894	11.5318	1.1367	-1.2823	-1.4978	-2.0125	8.2454
1808.0074	-0.6643	-0.6183	-0.6439	-26.2196	-38.2239	3.0532	-0.1763	-0.0127	-22.9860	0.3380	7.1894	0.1478	-2.6626	-1.0361	-1.7581	-2.8982
1816.0074	0.2061	-0.2460	-0.2642	-19.7763	-30.6365	3.3693	0.4853	-0.0017	-16.1555	0.1621	14.1587	0.0938	-1.4968	-0.6896	-0.9339	-1.9744
1824.0075	0.4378	-0.0346	-0.0442	-22.3110	-10.7216	3.2252	-0.0246	-0.4217	-14.8017	-0.0381	21.8354	-0.2216	-1.5656	-0.7363	-1.0673	-5.5045
1832.0075	0.3386	0.1532	0.1458	-19.2270	-9.5852	4.2985	-0.3950	-0.7354	-10.8672	-0.1476	21.3308	-0.1100	-0.8696	-0.8487	-1.0968	-8.0916
1840.0075	0.0962	-0.0325	-0.0393	-14.1806	-14.2131	5.2389	-0.1874	-0.2006	-8.0495	-0.0752	25.1973	-0.0203	-0.4877	-0.5937	-1.2073	2.8279
1848.0076	-0.1186	-0.3205	-0.3305	-14.2320	-21.7195	5.6883	-0.7129	-0.0265	-15.2001	0.1446	17.1646	-0.1569	-0.6015	-0.5659	-1.8498	3.8507
1856.0076	-0.7998	-0.6689	-0.6925	-20.4814	-39.4213	5.3109	-1.2515	-0.3652	-19.6329	0.5276	14.0392	0.0543	0.9552	-1.0692	-2.5815	0.6620
1864.0076	-0.9176	-0.9578	-0.9796	-18.7354	-36.1215	4.9240	-1.8103	-0.1425	-20.6407	0.7045	12.4930	0.0087	1.1194	-0.9258	-3.1264	5.6761
1872.0077	-1.1513	-1.0787	-1.0919	-23.3221	-20.5941	6.3900	-1.9050	-0.1689	-11.3101	0.5464	9.5522	1.4975	1.7685	-1.5494	-3.3783	15.3681
1880.0077	-1.7704	-1.1443	-1.1529	-23.7743	-10.1953	6.9836	-2.0762	-0.2186	0.8233	0.4169	17.5253	2.3244	2.5477	-1.8933	-3.5469	24.5551
1888.0077	-1.2018	-1.1776	-1.1850	-13.4167	-18.4806	7.0463	-1.8531	0.3994	-6.4785	0.5691	11.5942	1.4221	2.2567	-1.0503	-3.3477	26.3413
1896.0078	-1.5362	-1.7081	-1.7332	-26.4282	-41.2500	6.1140	-1.5104	0.2651	-16.2979	1.1260	0.6104	2.1391	4.5673	-1.7714	-3.7903	24.9064
1904.0078	-1.1705	-1.8503	-1.8722	-31.8355	-27.0521	4.1941	-1.9524	-0.1212	-8.1920	1.2020	-1.1911	3.1974	5.2038	-2.2476	-3.9632	23.9481
1912.0078	-0.3636	-1.4735	-1.4842	-30.3286	-11.3541	4.7733	-1.5988	-0.2638	1.1192	0.8296	-2.0974	3.9535	4.4353	-2.3463	-3.3067	22.7816
1920.0079	-1.6814	-1.9229	-1.9497	-42.3926	-27.1467	4.0377	-1.8895	-0.6733	-0.6306	1.1815	-4.0230	4.6500	6.2130	-3.2556	-4.0224	22.5679
1928.0079	-1.1193	-1.9042	-1.9235	-36.8249	-14.2658	2.6735	-2.3100	-0.6506	-0.4045	1.2415	-6.3076	4.2299	6.6305	-2.8261	-3.9939	21.5935
1936.0079	-0.8675	-1.3401	-1.3474	-39.5737	9.3360	3.1700	-1.8391	-1.0824	-0.9319	0.7741	-4.0850	3.8007	6.7161	-2.8638	-3.2304	15.7060
1944.0080	-1.8263	-1.4583	-1.4732	-44.4122	4.6608	2.3394	-2.1870	-1.4597	-7.7979	0.9571	-4.4336	3.1736	8.2250	-3.0890	-3.5810	11.3670
1952.0080	-0.5683	-1.2333	-1.2453	-30.8358	-3.0890	2.8385	-1.8499	-1.0922	-6.5782	1.0275	1.4178	2.4627	8.9170	-2.1999	-3.0806	11.8266
1960.0080	-0.3560	-0.6011	-0.6087	-26.0584	0.8726	4.1071	-1.8055	-1.6739	-2.8750	0.6693	5.1368	2.0050	9.4003	-2.1455	-2.4511	2.0074
1968.0080	0.0917	-0.0947	-0.0889	-7.2974	16.5983	3.3451	-2.4671	-1.9011	-2.5599	0.5281	-4.8473	0.5996	10.7783	-1.1969	-1.8399	-6.5082
1976.0081	1.1919	0.2438	0.2648	10.4688	32.4443	2.6233	-2.3955	-1.5344	4.8651	0.3790	-3.0039	-0.0818	11.0632	-0.1417	-1.0673	-3.9048
1984.0081	0.8491	0.5607	0.5838	8.4853	39.9829	2.7770	-2.6681	-2.0317	13.7391	0.0187	2.9818	0.2650	9.5891	-0.5125	-0.9017	-9.4190
1992.0081	1.6295	1.1035	1.1308	19.6159	39.5775	3.3697	-2.3123	-2.1405	17.6595	-0.1760	14.2748	-0.6764	10.3275	0.1486	-0.1138	-14.1807
2000.0082	2.0745	1.3048	1.3342	25.0787	40.1470	3.0691	-1.7390	-1.9837	16.6515	-0.1853	21.0244	-1.4441	11.3264	0.6730	0.4543	-13.7803
2008.0082	2.0246	1.4846	1.5181	22.5543	47.0758	2.8630	-1.1097	-1.9507	13.0968	-0.4187	3.9724	-1.1541	10.1341	0.5176	1.1163	-17.6458
2016.0082	2.3790	1.8302	1.8603	24.2118	36.5090	3.1609	0.2092	-1.8384	14.1387	-0.6000	2.2352	-1.0804	9.7870	0.6078	2.2288	-21.0004
2024.0083	1.9464	1.9509	1.9729	20.5218	25.0996	3.0270	0.9511	-1.9001	14.7656	-0.6917	6.0919	-1.0327	9.2371	0.3952	2.6982	-23.4979
2032.0083	2.3931	2.1188	2.1485	28.9927	31.0351	2.8877	1.9454	-1.2782	8.8748	-0.7478	2.5748	-2.0123	9.8171	1.2347	3.5510	-18.7773
2040.0083	2.6656	2.1807	2.2072	36.4834	20.6622	2.1187	2.7278	-0.8217	7.8464	-0.6583	6.6154	-2.7052	10.0401	1.8714	4.1802	-16.6251
2048.0084	1.8725	2.4005	2.4210	29.3794	14.9211	2.3890	3.0492	-1.2311	17.5338	-1.0282	5.4486	-1.5486	7.6352	1.0480	4.5623	-22.0581
2056.0084	1.4390	2.5538	2.5834	30.8323	33.0588	2.2572	3.3841	-1.1089	19.7383	-1.2668	10.6450	-1.9626	7.9462	1.2485	4.9435	-16.5736
2064.0084	1.4404	2.2967	2.3283	36.0532	35.5280	0.9986	3.2845	-0.5052	9.8729	-1.0334	10.5081	-3.2279	7.8158	2.0374	4.7258	-11.5536
2072.0085	1.7231	2.2759	2.3040	38.6933	22.9910	1.5450	3.6328	-0.1390	9.1154	-1.0361	7.6154	-3.0837	6.2096	2.2059	4.8783	-10.9319
2080.0085	1.1973	2.1026	2.1245	43.8089	10.6515	1.2000	3.3637	0.0749	14.7399	-0.9190	12.9010	-3.0441	5.7405	2.3377	4.6459	-7.0770
2088.0085	0.7844	1.9245	1.9426	47.0345	0.5855	0.7999	3.0879	0.4584	10.8923	-0.8912	-0.2255	-3.0924	2.9853	2.5001	4.4579	-8.2484
2096.0086	1.4585	2.0660	2.0910	48.3477	7.9145	1.1703	3.6865	0.7623	8.1910	-1.0323	-3.5849	-3.1933	2.2638	2.7819	4.9270	-6.8232
2104.0086	1.7389	2.0688	2.0970	41.3158	17.5131	1.4726	4.0851	0.6432	13.6252	-1.1204	4.7736	-2.4245	2.9548	2.3817	5.0086	-2.4143
2112.0086	1.6334	2.0726	2.0965	35.3971	6.7449	3.2719	4.8280	0.8029	14.2481	-1.2649	0.3959	-1.4576	1.7020	1.9002	5.2011	-0.2309
2120.0087	1.3038	1.8552	1.8788	44.6555	0.7082	2.8273	4.5415	1.3379	11.0732	-1.0844	-4.7103	-2.1132	1.4145	2.4992	5.0009	4.6545
2128.0087	0.3724	1.7595	1.7900	44.5831	15.8540	2.4025	4.0421	1.4758	14.6133	-1.3161	-12.3130	-1.8090	-0.7563	2.3618	4.7824	8.5213
2136.0087	0.0194	1.8410	1.8664	34.9981	12.3248	2.8028	4.5201	1.2047	18.1175	-1.4967	-7.9623	-1.0552	-1.6928	1.7106	4.9524	6.5848
2144.0088	1.3267	1.6388	1.6456	34.6794	-20.1466	0.8826	4.7732	1.1324	13.2904	-0.8953	-1.5565	-1.2928	-0.3457	1.9252	4.9224	-1.9534
2152.0088	1.8290	1.7877	1.7950	31.9832	-22.5167	1.6327	5.2649	1.2867	6.1038	-1.0374	-5.2358	-1.5232	-2.1523	2.0193	5.1903	-5.7923
2160.0088	0.4143	1.8224	1.8423	33.1586	3.8859	1.9838	4.7024	1.4017	6.2887	-1.3852	-2.8832	-2.2269	-3.2092	2.1514	4.9076	1.3602
2168.0089	-0.2636	1.4553	1.4697	34.1541	-1.9602	0.3924	4.3976	1.6428	9.8876	-1.1731	-3.5737	-1.9641	-3.5714	2.1297	4.5679	6.3569
2176.0089	-0.3069	1.2064	1.2059	20.2017	-22.7792	0.7152	5.1153	1.6271	7.7915	-1.0275	0.8612	-0.9911	-4.3908	1.3985	4.3987	6.1846
2184.0089	0.3860	0.9755	0.9687	11.7979	-28.8154	0.2737	4.8403	1.2847	6.8834	-0.7262	4.3723	-0.3395	-3.1337	0.9420	3.8768	3.3145
2192.0090	1.1255	1.0465	1.0418	9.8424	-26.4712	0.8326	4.3518	0.9212	6.4480	-0.7125	-0.8989	0.0876	-2.9895	0.7056	3.6299	-2.8113
2200.0090	-0.1231	1.0217	1.0281	9.8949	-2.1369	1.7413	2.4412	0.5193	2.9753	-0.9227	-1.1473	-0.7606	-3.9179	0.6430	2.4343	-3.7788
2208.0090	-0.7696	0.8562	0.8704	14.8014	10.1713	1.9372	1.6126	0.7068	4.3126	-0.9597	-8.2926	-0.8106	-4.2896	0.7801	1.9407	1.9010
2216.0091	-0.7937	0.9992	1.0056	9.4842	-8.0899	3.5328	3.2554	0.8944	5.2760	-1.1021	-15.2836	0.2485	-4.4576	0.2974	2.8446	3.0532
2224.0091	-1.3013	0.9116	0.9111	0.2214	-12.9332	3.5570	3.3376	0.4591	7.1360	-1.0510	-18.0784	1.1194	-3.4244	-0.4747	2.7205	0.8036
2232.0091	-0.9663	0.8156	0.8078	-6.0964	-21.4716	2.7727	3.6045	0.1656	9.1354	-0.8681	-19.5450	1.9208	-2.2903	-0.9506	2.7890	-2.5465
2240.0092	-0.8135	0.8589	0.8439	-11.3794	-28.4767	1.7229	3.7718	-0.1027	3.8519	-0.7773	-16.4032	1.5274	-2.3765	-1.0430	2.8706	-10.1293
2248.0092	-0.3378	0.7387	0.7352	-10.0452	-4.4541	-0.3408	3.3621	0.0932	1.1158	-0.7377	-17.1427	0.9787	-2.7172	-0.5922	2.7359	-7.6510
2256.0092	0.3667	0.6161	0.6173	-10.3226	6.0393	-2.0571	3.8319	0.4826	-4.2745	-0.5947	-14.0145	0.3959	-2.3145	-0.1006	2.9645	-3.7559
2264.0093	0.4426	0.4748	0.4692	-14.5447	0.0982	-3.1529	2.8698	0.0527	-9.1719	-0.3844	-13.8989	0.1109	-2.8382	-0.2734	2.2641	-12.9818
2272.0093	0.8740	0.4169	0.4107	-11.5579	-5.3103	-2.4643	2.4294	0.1110	-6.6719	-0.3190	-10.1264	0.2677	-3.3369	-0.1771	1.8992	-12.3875
2280.0093	0.9668	0.3152	0.3091	-2.2516	-11.0875	-2.3997	2.6997	0.6567	-9.8712	-0.1008	-1.5691	-0.7938	-1.6997	0.6155	1.9585	-4.4887
2288.0094	0.6625	0.1987	0.1988	-3.6382	1.1252	-2.0978	2.1217	0.5580	-5.3813	-0.1754	-8.8522	-0.0364	-1.8332	0.2763	1.5879	-1.3375
2296.0094	0.2817	0.2833	0.2819	-11.1568	-1.2318	0.1283	2.2070	0.2931	-2.7918	-0.3869	-6.0124	0.7449	-2.3223	-0.3827	1.3926	-0.9607
2304.0094	0.6394	0.3139	0.3041	-10.0094	-15.4870	0.1949	1.9859	-0.0215	-12.6462	-0.0440	2.1415	-0.4964	0.4168	-0.0815	1.1311	-7.7938
2312.0095	1.9535	0.2631	0.2588	-12.5817	-5.2290	-0.2196	1.9602	-0.1608	-5.3875	0.0503	7.7902	0.4444	1.6023	-0.2521	1.0836	-5.5899
2320.0095	1.5535	0.0857	0.0818	-11.0310	-5.9924	0.1651	1.9085	0.2577	-1.6804	0.0142	15.1433	0.5429	0.2957	-0.1314	0.8133	2.8429
2328.0095	-0.1843	-0.1275	-0.1362	-7.8174	-15.4575	0.5879	1.6935	0.6074	-10.9786	0.0653	0.7847	-0.2020	-0.2681	0.0028	0.5305	5.6457
2336.0096	-1.0495	-0.1917	-0.2065	-22.6315	-16.4335	0.9189	2.4618	0.2454	-7.3952	-0.0426	-2.3270	1.1866	0.4975	-1.0975	0.7385	7.0505
2344.0096	-0.4527	-0.2024	-0.2265	-27.2746	-25.0165	-0.8889	2.3712	-0.3722	-5.8811	0.2610	4.4819	1.3220	2.7971	-1.3769	0.7388	-1.5026
2352.0096	0.5034	-0.2462	-0.2641	-19.1901	-18.4323	-1.9240	2.1909	-0.1741	-8.4662	0.4915	1.0859	0.7677	4.5014	-0.7412	0.8192	-0.5835
2360.0097	0.1625	-0.5011	-0.5116	-17.0339	-7.4639	-1.5263	2.2374	0.5865	-10.3212	0.4489	8.8379	0.2966	3.2518	-0.2720	0.4845	13.2405
2368.0097	-0.4022	-0.6834	-0.6970	-14.0171	-13.3762	-1.9611	1.6563	0.7492	-13.5716	0.5458	3.1156	-0.0638	2.0734	-0.1111	0.0691	12.7450
2376.0097	-0.3427	-0.7321	-0.7467	-16.2040	-10.9852	-2.9352	1.4889	0.3621	-7.0792	0.6416	-2.7333	0.8374	3.5993	-0.5562	0.1203	10.5701
2384.0098	0.5879	-0.8492	-0.8646	-18.5248	-8.8738	-3.9237	1.0911	0.1410	-1.2859	0.8334	10.3812	1.2173	4.3544	-0.6298	-0.2377	10.3533
2392.0098	1.3234	-0.8113	-0.8289	-17.2408	-15.5416	-3.5911	0.4440	-0.0915	0.4222	0.8958	14.0651	1.3365	3.5602	-0.6308	-0.6212	4.5047
2400.0098	0.1756	-0.9323	-0.9529	-16.0928	-18.8293	-3.2643	-0.4595	-0.2454	0.1593	0.8946	10.1520	1.1677	2.9309	-0.7983	-1.2333	3.5420
2408.0098	-0.6263	-1.1870	-1.2092	-14.0536	-22.4452	-3.0143	-1.2490	-0.0159	-7.7591	1.0054	3.2626	0.5174	1.8281	-0.6069	-1.9533	4.7114
2416.0099	-0.5424	-1.2604	-1.2810	-19.2833	-15.7457	-3.0561	-1.6195	-0.2899	-8.4617	1.0357	0.7623	0.8885	2.2185	-0.9464	-2.2841	3.0581
2424.0099	-0.7040	-1.3395	-1.3562	-24.0834	-3.5302	-3.4074	-2.0401	-0.5342	-5.5211	0.9877	-0.5307	1.4100	2.2646	-1.3176	-2.5816	3.6314
2432.0099	-0.5728	-1.4069	-1.4219	-29.4125	-3.9596	-1.6220	-1.5381	-0.1425	-10.9088	0.8644	-0.5816	1.6228	0.7025	-1.4094	-2.6849	8.7627
2440.0100	-0.2960	-1.5018	-1.5191	-33.4515	-5.2479	-1.7217	-1.6607	-0.2779	-13.7942	1.0078	4.2735	1.5490	1.4852	-1.5069	-2.9756	7.8709
2448.0100	-0.5909	-1.4798	-1.4951	-28.2368	-3.8675	-2.0375	-2.1242	-0.2645	-14.0010	0.9737	-4.6620	1.3417	0.7977	-1.3413	-3.0249	5.5369
2456.0100	-1.6641	-1.4906	-1.5112	-37.4513	-10.1441	-0.4810	-1.1712	-0.0951	-15.9087	0.7578	-2.0778	1.7240	-0.1298	-1.8493	-2.8218	10.8094
2464.0101	-0.7240	-1.6675	-1.6981	-51.3433	-15.5149	-2.4772	-0.5268	-0.5905	-18.7626	1.1710	6.6363	2.2237	3.1466	-2.3828	-2.7453	6.4565
2472.0101	0.8070	-1.4263	-1.4465	-51.2504	-2.0147	-2.5857	-0.3111	-0.6346	-20.5506	1.0236	-3.6364	2.5517	2.2491	-2.2578	-2.2889	0.6606
2480.0101	-0.6900	-1.2078	-1.2212	-53.7755	11.1009	-0.5285	-0.7987	-0.7346	-16.9906	0.4345	-2.6177	2.6004	-1.2004	-2.6193	-2.5412	2.0831
2488.0102	-1.2814	-1.4824	-1.5074	-55.3310	-1.8859	-1.9943	-1.4845	-1.0744	-15.3021	0.7804	1.3194	2.6086	0.1899	-2.8639	-3.1101	-0.6584
2496.0102	-0.5322	-1.6646	-1.6894	-50.2360	-6.9517	-2.3518	-1.3463	-0.6066	-15.9855	1.0037	3.3580	2.4931	0.4542	-2.3981	-3.1554	4.3669
2504.0102	-0.3029	-1.5183	-1.5353	-44.4484	0.0785	-1.1261	-1.4043	-0.2389	-14.5916	0.7719	12.5218	1.9594	-1.2760	-1.9063	-3.1589	8.9862
2512.0103	0.1291	-1.3481	-1.3678	-42.4794	-8.9955	-0.3697	-1.2812	-0.3113	-17.9172	0.7711	14.0261	1.5678	-1.3152	-1.7409	-3.0216	4.0684
2520.0103	-0.8739	-1.4573	-1.4817	-45.5402	-13.8052	0.1248	-1.6122	-0.4057	-18.5758	0.7435	13.6468	1.6126	-1.8866	-2.0453	-3.4135	4.5959
2528.0103	-1.4045	-1.4281	-1.4499	-44.1026	-9.0933	0.2775	-2.1640	-0.5532	-15.3600	0.6066	6.8719	1.8730	-2.8430	-2.2199	-3.5883	3.0615
2536.0104	-0.5689	-1.0532	-1.0612	-33.9578	7.4598	0.5490	-2.3237	-0.5343	-16.7044	0.4083	1.2642	1.1059	-2.6778	-1.5668	-3.1247	-0.4200
2544.0104	-0.0746	-0.7621	-0.7540	-18.1039	27.3328	0.5256	-2.5449	-0.2037	-10.2418	0.2064	10.0599	0.1123	-2.3123	-0.5747	-2.7286	5.3043
2552.0104	0.3201	-0.4191	-0.4031	1.0311	25.6799	1.7237	-2.4155	0.3307	-1.1546	-0.0366	17.2547	-0.5193	-3.3561	0.3865	-2.1444	10.2581
2560.0105	-0.0451	0.0450	0.0710	24.6876	30.0095	2.2866	-2.9759	0.6338	2.1600	-0.3298	17.6905	-2.2574	-4.3504	1.6175	-1.6710	9.0981
2568.0105	0.0415	0.3413	0.3684	39.7730	24.9635	1.0145	-2.3789	0.8230	10.5160	-0.3759	14.1725	-2.6041	-3.3133	2.2485	-0.5683	8.4335
2576.0105	0.4974	0.5470	0.5689	40.1328	12.7657	0.7837	-1.4358	0.8470	15.2274	-0.4790	9.3588	-1.9107	-4.1319	2.1074	0.2791	4.3248
2584.0106	0.8935	0.8459	0.8849	50.8846	38.2288	0.2127	-2.4412	0.8028	15.3436	-0.7669	0.9635	-2.7582	-5.8920	2.7536	0.3221	-0.7391
2592.0106	1.8552	0.8764	0.9240	60.6035	45.1683	-0.5745	-1.6598	1.4179	15.2882	-0.6873	-5.5086	-2.9816	-4.7576	3.4918	1.0748	5.5894
2600.0106	1.1735	0.7258	0.7653	52.3439	35.6824	-0.3611	-1.3440	1.4188	12.0217	-0.6699	-5.7563	-2.6883	-5.5071	3.0521	0.9257	5.9469
2608.0107	0.3888	0.9231	0.9608	46.4267	40.2098	-0.2642	-2.4901	0.5659	14.1028	-0.9259	-8.0260	-2.5305	-7.3415	2.4036	0.4366	-6.5356
2616.0107	0.5182	0.9140	0.9432	42.3235	27.7699	-0.5276	-1.9670	0.4649	11.4418	-0.7899	-4.2947	-2.5474	-6.5172	2.2609	0.6218	-9.2334
2624.0107	0.1303	0.8005	0.8321	41.8691	33.7859	-0.5276	-2.0924	0.5986	9.4805	-0.7653	-1.0160	-2.8822	-6.1470	2.3594	0.3884	-4.6574
2632.0108	0.2771	0.7309	0.7598	47.0215	21.9503	0.5188	-1.9233	0.7535	20.0421	-0.6944	-1.5661	-1.8192	-5.2602	2.2155	0.4760	1.0952
2640.0108	-0.0531	0.3506	0.3594	43.3548	-14.6912	0.8863	-1.6070	0.8933	16.4135	-0.2667	-5.9117	-1.2279	-4.6067	1.8469	0.1472	0.9651
2648.0108	-0.4558	0.8035	0.8274	38.1232	17.2118	1.3851	-2.2983	0.1941	7.2738	-0.7612	-22.8624	-1.8440	-5.8243	1.5786	0.2119	-11.5811
2656.0109	-0.3159	1.3913	1.4327	38.3012	48.6373	2.3827	-2.2008	-0.3912	11.1305	-1.2617	-26.8615	-1.8545	-4.5404	1.4133	0.8972	-15.8764
2664.0109	-0.1051	1.1339	1.1662	40.0704	35.4510	0.7891	-2.1342	-0.4002	12.2034	-0.8080	-21.3102	-1.9294	-1.7298	1.5340	0.8078	-14.3113
2672.0109	1.4687	1.2534	1.2822	44.3194	24.5481	-0.7430	-1.0496	-0.1360	10.6004	-0.6011	-19.8722	-2.1538	-0.9121	2.0713	1.7052	-17.7450
2680.0110	1.6943	1.0824	1.1022	50.4793	-1.1406	-0.4766	0.0696	0.8719	6.3720	-0.4539	-17.4960	-2.5439	-2.7304	2.7248	2.1172	-10.6030
2688.0110	-0.1088	0.6104	0.6277	48.5395	-2.6560	-0.3960	-0.2821	1.3681	3.7848	-0.4118	-26.8901	-2.3638	-4.1765	2.5279	1.4690	-0.3141
2696.0110	-0.3571	0.8878	0.9139	40.4046	25.1509	-1.2920	-0.4876	0.4146	14.0337	-0.6757	-26.4548	-1.4669	-2.0073	1.7199	1.7580	-4.7333
2704.0111	0.5454	0.9831	1.0095	43.8007	26.1021	-2.3307	-0.8914	0.1204	21.7733	-0.5884	-15.9591	-1.3662	-1.4065	1.8514	1.7465	-8.5243
2712.0111	0.9467	0.8126	0.8361	46.6925	13.4669	-1.5773	-0.4034	0.7913	15.5161	-0.4532	-16.2561	-1.6706	-2.3782	2.2890	1.7278	-3.2145
2720.0111	0.6434	0.7730	0.7894	41.3498	5.1314	-1.4550	-0.2636	0.5719	9.9303	-0.3302	-13.4861	-1.9559	-1.2972	2.0765	1.6000	-6.0951
2728.0112	0.0424	0.6067	0.6198	39.3160	2.6036	-1.5515	-0.9513	0.4197	12.0593	-0.2952	-14.4969	-1.6487	-2.0801	1.7797	1.0486	-6.5945
2736.0112	-0.1738	0.3954	0.4051	31.0232	-5.3009	0.2450	0.1658	0.8958	7.5414	-0.2827	-16.5222	-0.9387	-1.9730	1.4207	1.1352	3.0072
2744.0112	0.1247	0.2863	0.2867	18.7341	-15.5463	0.8852	0.7285	0.4966	4.4048	-0.0424	-9.2417	-0.3642	0.8869	0.7659	1.0050	2.0852
2752.0113	0.0124	0.2647	0.2656	11.9054	-9.3689	1.2879	0.4657	0.1703	11.0462	-0.1421	-0.3906	0.3766	0.7549	0.2338	0.6827	3.2948
2760.0113	-0.8038	0.0651	0.0653	8.0294	-9.4805	2.2970	0.5746	0.5902	6.7857	-0.2130	6.6411	0.0580	-0.7000	0.2482	0.2732	11.4702
2768.0113	-1.1968	0.0713	0.0676	1.9208	-9.7094	2.3426	-0.0300	0.0679	3.0001	-0.1853	8.4882	-0.1610	-0.3986	-0.1170	-0.2007	4.8602
2776.0114	-1.0326	0.2887	0.2840	-8.0176	-1.2113	1.5914	-0.4167	-0.9142	6.6932	-0.2951	7.9303	0.5148	0.2725	-0.9092	-0.2044	-7.0607
2784.0114	-0.1629	0.0426	0.0323	-13.0207	-9.1448	0.3722	-0.1596	-0.8480	1.9874	0.0270	3.4376	0.9013	0.8081	-1.0037	-0.2819	-9.0317
2792.0114	0.1579	-0.1635	-0.1767	-16.7445	-13.1348	0.0459	0.0230	-0.6284	-2.0826	0.1875	5.1958	0.9420	0.5562	-0.9856	-0.4793	-6.8294
2800.0115	-0.9016	0.0078	-0.0021	-12.2405	-4.3720	-0.2875	-0.6038	-0.7009	-7.6352	-0.0024	9.4764	-0.6563	-0.5595	-0.5344	-0.6366	-10.0536
2808.0115	-1.5854	-0.0801	-0.0899	-2.8835	-7.6041	-0.8626	-0.8171	-0.3274	-8.3367	0.0588	4.9449	-1.3345	-0.7568	-0.0269	-0.6187	-6.5701
2816.0115	-2.4635	-0.5101	-0.5290	-14.9857	-14.6012	-1.0200	-0.5013	-0.3379	-2.9727	0.2218	9.1582	0.0278	0.0313	-0.8983	-1.0225	1.9601
2824.0116	-2.1492	-0.3237	-0.3402	-21.5471	-3.7984	-1.4272	-0.8418	-0.8804	-10.7605	0.1579	9.9838	-0.5947	0.1960	-1.0282	-1.1466	-7.8612
2832.0116	-0.4671	0.3663	0.3664	-9.4907	15.3781	-1.1450	-0.5501	-0.9628	-6.0535	-0.2161	14.8983	-1.3251	0.0230	-0.2222	-0.1255	-13.8293
2840.0116	-1.0329	0.3582	0.3569	-8.5929	14.3487	-0.8974	-0.8454	-1.0792	6.4234	-0.3444	23.2050	-0.5982	-0.6187	-0.5285	-0.2708	-10.2580
2848.0116	-1.7406	0.1846	0.1757	-11.5126	0.8989	-0.4394	-1.2401	-1.1469	-4.8524	-0.2016	5.6754	-0.7805	-1.2024	-0.7599	-0.7101	-16.0964
2856.0117	-1.2432	0.1436	0.1343	-8.2024	-6.8090	0.0760	-0.2774	-0.5792	-12.6356	-0.0641	1.2531	-1.2134	-0.2729	-0.2905	-0.2544	-11.4595
2864.0117	-0.6565	-0.0201	-0.0305	-8.9523	-12.3567	0.3605	0.4148	-0.1676	-6.6740	0.0154	4.8532	-0.2655	-0.2286	-0.3585	-0.0632	-3.2495
2872.0117	-0.1051	0.3417	0.3355	-16.0709	-7.9024	2.2013	1.3987	-0.3679	-0.8360	-0.4079	-0.7165	1.1295	-1.4178	-1.0116	0.6885	-5.6249
2880.0118	-1.0842	0.6410	0.6370	-13.8267	-2.4839	2.8678	1.4006	-0.6023	4.0495	-0.7269	5.6203	0.7528	-1.6088	-1.0630	0.9709	-6.2210
2888.0118	-1.9852	0.4576	0.4517	-6.3071	-8.2568	2.6564	0.9186	-0.3891	3.8515	-0.5863	-1.9695	0.4258	-1.0533	-0.8267	0.7130	-2.7790
2896.0118	-1.8260	0.2630	0.2555	-12.1746	-9.5722	2.5064	1.7147	-0.1467	3.6552	-0.4901	-7.3359	1.2809	-0.3664	-1.1329	0.9442	2.8042
2904.0119	-1.1623	0.1824	0.1722	-11.0499	-13.8292	1.1243	1.8437	-0.0623	4.3521	-0.3048	-3.7414	1.2341	-0.1382	-0.9229	1.0483	1.7934
2912.0119	-0.3548	0.1294	0.1168	-4.6503	-25.6213	1.1335	1.9471	0.1900	4.2896	-0.1037	-6.7933	1.2709	0.2693	-0.5739	1.1481	1.7286
2920.0119	-0.4925	-0.1635	-0.1785	-6.2580	-27.0387	0.5810	1.5168	0.3317	3.9773	0.0748	-2.4965	1.3005	0.0051	-0.5739	0.5851	5.5023
2928.0120	-0.2559	-0.1138	-0.1280	-2.2314	-27.7659	0.0471	0.9848	0.2809	1.9615	0.0772	-8.9302	0.9838	-1.2242	-0.3511	0.4773	-0.3477
2936.0120	-0.5705	0.0330	0.0199	-2.3996	-26.4333	0.8876	1.2276	0.1067	6.3801	-0.0591	-9.6333	1.3722	-0.3622	-0.6043	0.7414	0.4168
2944.0120	-0.9976	-0.2494	-0.2564	-4.8102	-7.9948	-0.1062	0.3931	-0.0175	9.7601	0.0587	-4.8760	1.5003	0.9749	-0.7465	0.0577	6.8445
2952.0121	-0.1853	-0.3542	-0.3585	-9.6163	-2.3952	-0.2961	0.1590	-0.1297	5.8475	0.1643	-11.3066	1.8992	0.9923	-0.9204	-0.2140	4.1389
2960.0121	-0.5763	-0.7878	-0.8075	-23.4195	-19.1821	-0.6135	-0.5513	-0.5628	4.4901	0.4780	-6.3985	2.7366	0.6375	-1.7956	-1.3059	0.5863
2968.0121	-0.3907	-1.1548	-1.1785	-27.0920	-24.0767	-1.1328	-1.4545	-0.6298	-0.5897	0.7772	-13.0454	2.9764	0.2504	-1.9792	-2.1960	-1.6616
2976.0122	-0.0252	-1.0148	-1.0342	-30.5762	-18.8673	0.1444	-0.8371	-0.6303	-6.0171	0.6843	-18.3031	3.0416	1.2189	-2.0793	-1.8728	-1.4484
2984.0122	-0.6226	-1.2415	-1.2620	-34.9048	-12.4199	-0.5867	-1.5735	-0.9030	-5.1158	0.8255	-11.3277	2.9780	2.2798	-2.3292	-2.5524	0.4799
2992.0122	-0.1016	-1.1837	-1.1920	-27.5269	3.0306	-0.6138	-1.6229	-0.5794	-8.8589	0.7958	-20.1170	2.4608	2.7902	-1.7555	-2.3541	3.5292
3000.0123	-0.7832	-1.0553	-1.0625	-27.4725	6.1146	0.0459	-1.5185	-0.6424	-9.1366	0.6340	-17.9854	2.1340	2.9048	-1.7882	-2.2364	4.3848
3008.0123	-1.0956	-1.4037	-1.4255	-36.2132	-8.5221	-1.4959	-2.5683	-1.2189	-5.3689	0.9584	-8.7940	2.7139	2.6538	-2.4424	-3.2274	-1.7434
3016.0123	-0.1884	-1.4490	-1.4733	-42.1367	-11.1450	-1.6573	-2.0503	-1.1659	-14.7961	1.1417	-2.8286	2.2561	3.5162	-2.3154	-3.2062	-3.3452
3024.0124	-0.4236	-1.2985	-1.3174	-39.0505	-2.8416	-0.9123	-2.2362	-0.9837	-24.1621	1.0129	7.7143	0.5620	2.9249	-1.6814	-3.3700	-2.6701
3032.0124	0.2192	-1.1089	-1.1219	-27.9049	-1.4790	-0.5762	-2.2360	-0.6678	-19.4119	0.9159	14.3550	0.0937	2.2887	-1.0117	-3.0789	-0.4179
3040.0124	0.0063	-1.2379	-1.2506	-26.0936	-2.1014	-0.6833	-1.3983	-0.1837	-11.7721	0.9252	21.2766	0.6054	3.0157	-0.9391	-2.6893	11.5799
3048.0125	-0.9657	-1.6148	-1.6303	-38.8941	1.7252	-0.6902	-1.4925	-0.1750	-10.6907	0.9014	15.8479	1.8100	1.7556	-1.7862	-3.2429	17.1515
3056.0125	-0.3319	-1.3430	-1.3581	-46.1867	3.1431	-0.0137	-0.7620	-0.4628	-16.4560	0.7582	11.1750	1.9640	1.9093	-2.0783	-2.7310	9.9809
3064.0125	0.1495	-1.0216	-1.0411	-40.9651	-10.0311	0.2599	0.1790	-0.3694	-21.0429	0.7571	15.8385	1.0286	2.8064	-1.5795	-1.9193	5.5457
3072.0126	0.9322	-1.1678	-1.1927	-44.0740	-24.3290	0.5403	1.3067	0.1221	-20.2052	0.8582	13.2074	1.9905	2.1022	-1.6866	-1.5002	10.1567
3080.0126	1.2072	-1.1813	-1.2042	-47.6669	-16.9330	-0.4554	1.6225	0.1056	-15.8334	0.8098	14.7083	2.5378	1.8549	-1.8648	-1.2550	11.4229
3088.0126	0.2776	-1.0319	-1.0537	-47.3842	-11.8247	-0.5050	0.9317	-0.2583	-14.8366	0.5814	8.6615	2.3648	0.4161	-2.0764	-1.4036	5.2529
3096.0127	0.1421	-0.9909	-1.0153	-55.6010	-15.7488	0.7124	1.5731	-0.3155	-25.2902	0.5392	-1.1655	2.4183	0.6793	-2.4246	-1.2412	2.4592
3104.0127	1.1217	-0.7876	-0.8015	-45.5139	-0.9570	-0.6460	1.6820	-0.1589	-29.9484	0.6184	-0.6067	1.0952	2.5322	-1.4848	-0.7266	1.3340
3112.0127	2.1431	-0.4385	-0.4392	-29.1642	11.4974	-0.8964	1.5648	0.0879	-20.2305	0.4239	3.1727	0.6920	2.2095	-0.6249	-0.1198	2.7342
3120.0128	1.4297	-0.3800	-0.3838	-25.5036	6.3874	-0.6345	1.3923	0.0256	-9.9372	0.3122	14.1876	0.8564	1.8926	-0.6939	-0.1359	5.6840
3128.0128	0.7909	-0.3059	-0.3121	-16.3716	1.2123	-1.3436	0.8479	-0.0717	0.1212	0.2743	18.8819	0.7219	1.6358	-0.5095	-0.1140	5.1353
3136.0128	2.1658	0.1257	0.1241	-9.3997	1.0146	-1.0357	1.5090	-0.0741	1.8262	0.1483	21.1247	0.4291	1.9998	-0.0354	0.7572	0.0027
3144.0129	3.3165	0.8359	0.8495	12.5667	15.0670	-1.7504	1.3497	0.0394	-0.3664	-0.1392	20.1026	-1.7069	1.3268	1.4653	1.7730	-9.6693
3152.0129	2.6297	1.1868	1.2154	33.7852	28.2431	-1.2672	1.2252	0.6083	9.2876	-0.5889	9.5752	-2.2289	-0.5531	2.3332	2.5244	-3.8974
3160.0129	1.2310	1.0542	1.0754	26.1455	21.4145	-0.5494	1.6110	0.3770	18.6316	-0.6565	8.9610	-0.8599	0.5198	1.3927	2.5396	1.7514
3168.0130	1.7011	1.5335	1.5526	30.2593	15.7765	-0.8366	1.7007	-0.1695	20.1914	-0.8027	5.5110	-1.1579	0.6769	1.4440	3.2161	-12.0306
3176.0130	2.4318	1.8581	1.8829	33.0896	17.9317	0.3099	2.7107	0.1604	11.7241	-0.9847	3.3339	-1.9509	0.4145	1.9578	3.9827	-13.0605
3184.0130	2.2317	1.5723	1.5931	28.9268	13.2512	0.5757	2.6459	0.2578	6.3776	-0.7397	5.1618	-2.0186	1.7084	1.8512	3.4978	-8.9016
3192.0131	2.6838	1.5161	1.5374	37.9563	5.3892	0.9777	2.3791	0.4921	16.0373	-0.6844	1.6157	-1.2635	1.3113	2.0032	3.4841	-5.6926
3200.0131	1.7446	1.1217	1.1417	28.9568	10.5846	1.0467	2.2332	0.6399	13.8789	-0.5993	3.9806	-0.9051	1.3590	1.5802	2.8303	2.9412
3208.0131	0.7054	1.0588	1.0770	20.1011	17.9963	0.6063	1.2297	-0.0646	13.2312	-0.6796	-5.8075	-0.4426	0.8212	0.7863	2.2228	-4.7363
3216.0132	1.0613	1.1883	1.2044	24.4816	9.8705	0.8465	1.1263	-0.3183	27.9789	-0.7462	-8.1662	0.8672	0.7792	0.4516	2.4884	-6.9333
3224.0132	0.9495	0.7771	0.7853	23.2526	2.0150	-0.7511	0.6906	-0.2229	25.5913	-0.3067	3.8180	0.3737	2.1945	0.6282	1.8179	-3.1913
3232.0132	0.9209	0.8935	0.9020	24.1352	0.8139	-0.5909	0.7293	-0.1285	17.6566	-0.3935	0.1828	-0.4083	0.8360	0.9025	1.9080	-7.5835
3240.0133	0.3462	0.6883	0.6986	18.0005	10.3115	-0.8389	0.7529	-0.0563	16.2238	-0.3791	2.2027	-0.2787	1.2130	0.6683	1.6320	-1.6215
3248.0133	0.2202	0.3474	0.3580	13.2545	22.4638	-3.3540	-0.4596	-0.4597	12.6108	-0.0536	0.8901	-0.5403	2.4375	0.5288	0.7738	-4.9080
3256.0133	0.8783	0.5090	0.5181	15.6581	13.7509	-2.6714	-0.4308	-0.5268	12.9348	-0.1074	-5.2385	-0.2565	1.4232	0.5339	0.9626	-10.9125
3264.0133	0.3615	0.0986	0.1063	13.6877	14.1435	-2.7448	-0.8507	-0.3177	9.5426	0.1700	-2.6877	-0.3788	2.7621	0.5231	0.2324	-2.8749
3272.0134	0.0139	0.0121	0.0208	17.3627	14.8549	-2.8018	-1.2044	-0.2282	8.5844	0.2338	-6.1844	-0.6360	3.0979	0.6808	0.0302	-1.1660
3280.0134	-0.1302	0.1052	0.1045	16.5608	-5.5108	-1.4406	-0.6334	-0.1753	10.2164	0.1851	-1.0854	-0.3838	2.4449	0.5132	0.2472	-2.0255
3288.0134	0.3741	0.0217	0.0213	4.4271	6.4714	-2.5541	-1.0154	-0.8118	3.6211	0.3622	0.3530	-0.3653	4.2610	0.0510	-0.1762	-8.6952
3296.0135	1.1467	0.1113	0.1159	-7.2122	19.9783	-2.0722	-1.0537	-1.3438	5.6595	0.2185	-4.1127	0.8659	4.1986	-0.7220	-0.2502	-13.4774
3304.0135	0.5928	-0.3197	-0.3230	-9.5141	2.8930	-0.6298	-1.5151	-1.0002	8.3364	0.3584	-4.6807	1.8026	2.5146	-1.0875	-1.1291	-6.2113
3312.0135	0.7036	-0.2448	-0.2418	-2.5091	8.4049	-0.6651	-1.7245	-0.7524	-1.3403	0.3495	-18.0231	0.8119	2.1236	-0.5020	-1.0307	-8.8222
3320.0136	0.4402	-0.1466	-0.1453	-6.6506	8.0172	-0.7560	-0.9591	-0.7096	-4.9788	0.2526	-18.1207	0.6309	2.1034	-0.5820	-0.5733	-9.2215
3328.0136	-0.1054	-0.6690	-0.6837	-18.8966	-9.2935	-1.9218	-1.0075	-0.8157	-0.9693	0.5982	-9.7615	1.7625	2.2366	-1.3648	-1.2524	-5.7188
3336.0136	0.8999	-0.4846	-0.4982	-24.4712	-1.5073	-3.3203	-1.0690	-1.4056	1.8596	0.5828	-8.2894	2.1953	2.5730	-1.6702	-1.0218	-15.3408
3344.0137	1.0163	-0.3829	-0.3954	-24.2763	0.2691	-2.9651	-1.3257	-1.4503	1.8329	0.4678	-0.5594	1.8342	1.3037	-1.5503	-1.1761	-17.1506
3352.0137	0.4888	-0.4279	-0.4405	-12.6034	-13.6791	-0.8623	-1.2200	-0.6375	-2.1436	0.4098	-4.2066	1.1144	-0.3786	-0.8711	-1.2320	-9.6165
3360.0137	0.2056	-0.2691	-0.2776	2.4579	-16.2103	-0.6031	-1.0472	-0.1660	-4.3839	0.3851	-7.8011	-0.0929	0.1899	0.0251	-0.7656	-6.5005
3368.0138	-0.3654	-0.2480	-0.2514	10.2883	-7.0975	-1.2839	-1.4649	-0.0090	-2.1412	0.3376	-2.4393	-0.9380	0.3385	0.5185	-0.8144	-2.6742
3376.0138	-0.3146	-0.0740	-0.0698	15.5515	1.1093	-0.6618	-1.0146	0.2892	-3.6837	0.1736	-5.0832	-1.3874	0.4684	0.9156	-0.3471	0.8292
3384.0138	0.3775	-0.2780	-0.2783	18.0094	-9.7463	-1.3864	-1.0184	0.5149	-6.9546	0.4889	-6.9150	-1.4700	1.0192	1.1867	-0.4865	0.8024
3392.0139	0.4730	-0.1454	-0.1461	16.6116	-11.7699	-0.8101	-1.0903	0.4233	-2.3196	0.2746	-5.2156	-0.9961	-1.1865	0.9739	-0.4539	-2.1164
3400.0139	-1.1207	0.1790	0.1864	15.7543	8.1043	-0.3095	-1.4185	0.0099	1.0463	-0.2191	-9.2351	-1.2446	-1.9713	0.6587	-0.2541	-4.1077
3408.0139	-2.4671	-0.2263	-0.2237	16.4958	5.2572	-1.2801	-2.2555	0.0034	3.2994	0.0100	-15.1344	-1.0277	-1.1860	0.4275	-0.9460	0.5225
3416.0140	-2.0613	-0.1262	-0.1253	18.2277	-4.0108	-0.2061	-1.2942	0.3430	10.1698	-0.0970	-7.9942	-0.4200	-1.5719	0.4529	-0.4000	6.1199
3424.0140	-0.9400	-0.1477	-0.1471	25.8698	-10.0367	-1.0815	-0.9343	0.7195	5.4584	0.1941	-0.4767	-1.4064	-0.0860	1.2846	-0.1541	7.4947
3432.0140	-0.2110	-0.6331	-0.6408	29.8484	-29.3710	-1.8403	-1.3831	1.2502	-1.4502	0.7208	-0.6390	-1.7436	-0.3406	1.7799	-0.8807	10.1324
3440.0141	-0.6985	-0.4219	-0.4234	20.5506	-13.9805	-0.4080	-1.4103	0.9604	2.6995	0.2370	3.3124	-1.0947	-2.7431	1.1523	-0.9393	9.7064
3448.0141	-0.4722	-0.1750	-0.1685	13.7992	4.7065	-0.1394	-1.5899	0.4107	2.2755	-0.0125	-1.5756	-0.7675	-2.6868	0.7122	-0.8451	3.4315
3456.0141	0.2540	-0.0912	-0.0912	13.8601	-14.3805	1.2652	-0.6148	0.6234	5.2435	0.0047	0.6321	-0.0498	-2.6784	0.6148	-0.3672	4.6063
3464.0142	0.0487	-0.0261	-0.0218	15.5611	-6.3005	1.3974	-0.3459	0.7667	14.9302	-0.1736	12.4416	0.2334	-2.8124	0.6424	-0.1464	11.9752
3472.0142	0.0131	-0.1306	-0.1230	17.6880	0.9174	0.2840	-0.5971	0.8895	11.5581	-0.0809	8.5903	-0.2207	-2.6155	0.9163	-0.2425	12.7144
3480.0142	-0.8972	-0.1548	-0.1600	17.2475	-21.4675	0.2817	-0.2325	1.0218	4.8254	-0.0403	4.0755	-0.7393	-3.9093	0.9231	-0.1056	8.5099
3488.0143	-1.5880	-0.1775	-0.1814	21.9513	-17.3925	-0.9720	-0.5083	1.0894	7.3086	-0.0816	-1.1785	-0.9763	-4.4619	1.0878	-0.0082	8.7692
3496.0143	-1.1508	-0.2450	-0.2441	22.9281	-6.9096	-2.1795	-0.3621	1.1957	6.9168	0.0374	1.1164	-1.2003	-3.0674	1.3438	0.1262	11.9322
3504.0143	-0.5523	-0.4056	-0.4076	10.2195	-0.6015	-3.2983	-0.2683	0.8773	-0.2949	0.2741	14.7921	-1.5006	-1.4359	1.1061	-0.2476	10.1956
3512.0144	0.1075	-0.4396	-0.4378	4.5971	5.8045	-2.7102	-0.0967	0.9500	-4.1100	0.2375	13.9652	-1.2143	-2.0687	0.9834	-0.3590	10.8676
3520.0144	-1.4487	-0.5426	-0.5481	5.3228	-9.9766	-0.9096	-0.2033	1.1161	-1.3151	0.1068	9.2302	-0.7891	-3.5517	0.6278	-0.6293	14.8966
3528.0144	-1.8038	-0.9153	-0.9302	-4.5731	-16.4383	-1.7093	-1.1357	0.4793	0.5977	0.4442	5.6480	0.2503	-1.9471	-0.2531	-1.5455	11.0767
3536.0145	0.5216	-0.7035	-0.7113	-7.0412	-10.9377	-0.8041	-0.7230	0.3417	-0.2080	0.4491	3.4734	0.9646	-1.4032	-0.2696	-1.2258	6.1721
3544.0145	0.3515	-0.3394	-0.3364	3.8028	-5.1503	1.5554	-0.4340	0.9123	-2.9559	0.0014	0.7964	0.0462	-3.9804	0.4430	-0.7746	9.5136
3552.0145	0.0221	-0.6311	-0.6230	-0.4999	7.7862	1.0866	-0.7463	1.0725	-9.8276	0.1088	-7.7826	-0.0117	-3.6491	0.3769	-1.2340	13.9906
3560.0146	0.4792	-0.8236	-0.8271	-17.6590	0.4428	-0.0882	-0.7517	0.3345	-11.5703	0.3871	-5.2626	0.9946	-2.2449	-0.5968	-1.6067	5.7054
3568.0146	0.0522	-0.5753	-0.5911	-30.5191	-13.0265	0.2086	-0.4503	-0.5285	-6.3833	0.1741	-7.8466	2.2402	-3.2637	-1.7524	-1.3240	-7.2324
3576.0146	0.5137	-0.3953	-0.4086	-34.7881	-10.4708	0.7807	0.6108	-0.5023	-6.4173	0.0162	-15.4763	2.9348	-2.9814	-2.0208	-0.5799	-7.5032
3584.0147	0.5748	-0.4857	-0.4981	-26.1464	-10.2808	-0.4637	0.4042	-0.2720	-8.2549	0.2468	-12.8092	1.9967	-1.4494	-1.3692	-0.5806	-4.9926
3592.0147	0.1737	-0.7736	-0.7911	-27.3494	-16.6942	-1.0643	0.2448	-0.1539	-9.7976	0.4793	-13.6826	2.0502	-0.7608	-1.4312	-0.9321	-1.7535
3600.0147	-0.2913	-1.1179	-1.1414	-38.0009	-21.1960	-0.6983	0.2138	-0.0975	-18.0157	0.6593	-11.7261	2.1143	-0.6932	-1.8121	-1.5919	1.4063
3608.0148	-0.7199	-1.1284	-1.1461	-32.5483	-8.5724	-1.3386	-1.1480	-0.2548	-25.7633	0.7051	-9.9323	0.5253	-0.8232	-1.2717	-2.3087	-2.4425
3616.0148	0.1258	-0.9809	-0.9887	-30.5556	3.9336	-0.3071	-0.7237	-0.0373	-24.6364	0.5864	-2.5567	0.4269	-0.1237	-0.9719	-2.0453	3.0704
3624.0148	0.6928	-0.9180	-0.9270	-33.6358	-1.0523	1.3499	-0.1536	0.0116	-18.3711	0.5281	13.2159	1.0423	0.3977	-1.1676	-1.9683	8.4526
3632.0149	0.8594	-0.6623	-0.6703	-27.9223	-2.5780	1.7305	-0.2836	-0.1787	-16.3534	0.4492	16.7115	0.5927	0.8790	-0.9337	-1.7482	4.4275
3640.0149	0.4185	-0.7731	-0.7855	-30.9963	-9.6485	2.1417	0.6520	0.1440	-17.8024	0.4980	19.3230	0.7239	1.7674	-1.0188	-1.4532	11.4821
3648.0149	-0.9504	-1.0051	-1.0265	-42.0500	-19.7382	3.2374	1.0267	0.1354	-18.1976	0.4544	17.4104	1.5705	1.2874	-1.8310	-1.7282	16.1157
3656.0150	-0.8821	-0.7336	-0.7547	-45.1905	-17.7688	3.6464	1.2776	-0.3113	-19.3752	0.3196	11.7726	1.7089	2.0947	-2.1392	-1.3380	8.9797
3664.0150	-0.1627	-0.7719	-0.7906	-36.3284	-13.8609	1.3640	1.1347	-0.2766	-13.8778	0.5781	14.6906	1.4400	4.2201	-1.6197	-1.0737	9.7159
3672.0150	-0.4215	-0.8173	-0.8257	-28.9096	2.6334	0.4201	0.8303	0.1533	-10.6113	0.4456	13.4694	1.0595	2.8690	-1.1096	-1.0391	16.1558
3680.0151	-0.8719	-0.5006	-0.5024	-28.0206	12.8129	1.3802	1.1749	0.2941	-17.2168	0.0745	14.3957	0.0173	1.1828	-0.7897	-0.6623	14.9348
3688.0151	-0.4267	-0.2786	-0.2829	-18.3319	6.2064	-0.0260	1.0940	-0.0086	-12.7564	0.2211	13.9116	-0.4055	3.2871	-0.4243	-0.1512	7.9122
3696.0151	0.7233	0.2096	0.2157	-4.3390	16.5328	-0.8098	1.2915	-0.0532	-5.5134	0.0490	14.8155	-0.9182	3.9736	0.3134	0.8064	3.4353
3704.0151	1.0692	0.5960	0.6095	7.1123	20.4631	0.0846	1.1476	0.2023	-1.7963	-0.2892	25.6480	-1.8782	1.5229	1.0702	1.1157	2.6309
3712.0152	1.0354	0.5562	0.5712	16.9497	18.4652	-0.4179	0.6893	0.3332	8.6690	-0.2558	25.0549	-1.5295	1.4303	1.2980	1.1069	5.6714
3720.0152	1.2627	0.8310	0.8583	22.7653	36.6557	-0.5976	0.7382	0.3869	9.1166	-0.5183	15.4003	-1.7996	0.9476	1.6221	1.6318	4.3067
3728.0152	0.9631	1.3668	1.3977	26.4542	36.6649	1.2704	0.8006	0.1610	7.5883	-1.0003	8.2748	-2.2199	-1.3587	1.6573	2.1361	-4.8849
3736.0153	0.6551	1.4798	1.5095	29.9445	33.2914	1.4181	1.2128	0.0619	14.7214	-1.0241	7.3354	-1.8102	0.4456	1.5388	2.6112	-2.8996
3744.0153	1.0967	1.3335	1.3693	38.7205	39.7600	0.2837	1.0383	0.4907	15.8001	-0.8624	4.6779	-2.1244	0.9939	2.1448	2.6359	2.5769
3752.0153	0.6364	1.2909	1.3157	39.2537	14.7442	1.8950	0.5051	0.4603	13.9024	-0.8849	-2.7511	-1.8327	-1.7981	1.8854	2.1521	-3.7599
3760.0154	-1.1856	1.0918	1.1042	28.8444	3.8264	2.3933	0.0030	0.0149	11.4602	-0.8543	1.3389	-1.7819	-1.8360	1.1144	1.4139	-5.4594
3768.0154	-1.2221	1.1450	1.1702	33.3581	26.2684	1.9800	-0.2694	0.1714	12.3366	-0.9897	1.1920	-2.2467	-1.6303	1.4910	1.4540	-0.7133
3776.0154	0.2782	1.4834	1.5199	46.4503	33.2647	2.0908	0.5516	0.5711	16.3190	-1.0739	-1.7457	-2.4397	-0.5190	2.2907	2.5055	1.5412
3784.0155	0.5688	1.3861	1.4206	48.1894	32.1623	0.2147	1.0322	0.8323	15.3878	-0.8962	2.6572	-2.8504	0.1374	2.6620	2.8372	3.7064
3792.0155	-0.3984	1.2355	1.2599	33.0908	21.5689	0.9981	1.3708	0.6942	14.3463	-1.0583	-2.5288	-1.6901	-2.5333	1.6586	2.6088	2.0573
3800.0155	-1.4113	1.1496	1.1639	22.0039	13.1809	1.1543	0.8411	-0.0180	11.5695	-1.0107	-8.9920	-1.1792	-2.2142	0.7430	2.0906	-6.2937
3808.0156	-0.8845	1.0134	1.0326	32.6787	21.7801	-1.5647	-0.1599	0.0115	10.8906	-0.7154	-15.1741	-1.9580	-1.3109	1.4380	1.8637	-9.2470
3816.0156	-0.3482	0.9312	0.9484	38.7257	7.9176	-0.9240	0.6871	0.7391	11.4667	-0.6499	-18.0426	-1.7074	-2.1480	1.8405	2.2851	-2.5985
3824.0156	-0.5181	0.9541	0.9700	41.6779	4.6206	-0.7944	0.3584	0.6514	11.3799	-0.6113	-16.6556	-2.0245	-1.8350	1.9480	2.1373	-4.1075
3832.0157	-0.1200	1.3175	1.3460	45.4921	26.2725	-0.7553	-0.7385	0.0544	18.0532	-0.9380	-20.9124	-1.9021	-2.8687	1.8844	2.0609	-12.7471
3840.0157	-1.0696	0.9764	0.9883	34.9570	3.2873	0.3144	-1.0821	-0.2088	10.3388	-0.6443	-16.7733	-1.8469	-2.1415	1.2587	1.1332	-14.2493
3848.0157	-1.5339	0.3025	0.2971	32.3628	-23.9337	-0.2633	-1.7590	0.0036	0.3693	0.0497	-11.4675	-2.3751	-0.5632	1.3155	-0.0937	-10.8673
3856.0158	-0.2502	0.5077	0.5223	36.5437	3.1459	0.8814	-1.4089	0.4078	10.7071	-0.3192	-6.9351	-1.5976	-1.7049	1.5817	0.3214	-1.2403
3864.0158	-0.0447	0.2576	0.2840	36.3808	24.6046	0.9374	-1.7527	0.7673	9.6773	-0.2625	-1.1944	-1.7710	-0.9994	1.8470	-0.1861	10.0357
3872.0158	0.1338	-0.0769	-0.0586	36.6646	9.7769	0.3999	-2.0478	0.9370	3.9828	0.1258	-3.7153	-1.9245	-0.3899	1.9660	-0.6901	10.1898
3880.0159	0.2921	0.2784	0.2872	28.1324	-4.5163	1.2603	-1.1502	0.4069	10.9331	-0.1273	1.1444	-0.8707	-1.1665	1.1965	-0.0158	1.7410
3888.0159	-0.2230	0.0864	0.0833	19.8230	-14.9066	-0.0349	-1.4256	-0.1362	12.6447	0.1130	3.2455	-0.3594	0.1642	0.5474	-0.3579	-3.1540
3896.0159	-0.6651	-0.2056	-0.2137	16.5905	-20.4283	-0.4099	-1.4180	-0.0424	9.0039	0.3530	0.3720	-0.2706	1.3655	0.3941	-0.6667	0.3482
3904.0160	-1.0368	-0.2602	-0.2640	12.2689	-7.8002	-0.5197	-1.5313	-0.0342	1.9672	0.3189	2.6944	-0.9224	1.5623	0.4470	-0.9088	2.1614
3912.0160	-0.9125	-0.5134	-0.5220	6.5464	-9.2269	-2.0384	-2.0013	-0.2850	-0.9408	0.5837	-0.2319	-0.7141	2.0818	0.1797	-1.3671	-1.5526
3920.0160	-1.4238	-0.6144	-0.6335	-0.3862	-21.0470	-2.8060	-1.6431	-0.5882	5.2106	0.6646	-0.3462	0.2989	2.6849	-0.5035	-1.2300	-3.0830
3928.0161	-1.2413	-0.7550	-0.7765	-6.6763	-21.3571	-3.3531	-1.3860	-0.6880	7.0869	0.7563	-4.0513	1.1622	3.2100	-0.9363	-1.2100	-2.4920
3936.0161	0.2436	-0.8909	-0.9188	-14.2797	-35.2244	-2.8820	-0.8868	-0.6795	1.2692	1.0167	-7.4473	1.9142	3.4915	-1.2037	-1.2792	-6.1707
3944.0161	0.1558	-0.6888	-0.7103	-9.1130	-27.1086	-2.2979	-1.0640	-0.5596	-4.8769	0.8666	-3.6574	0.6358	2.9974	-0.6436	-1.2442	-7.0305
3952.0162	-0.4705	-0.5014	-0.5029	-1.5113	2.9952	-1.1715	-1.1645	-0.0693	-2.3342	0.3857	-5.9966	0.1355	1.3553	-0.1541	-1.0359	3.1399
3960.0162	-0.8886	-0.5580	-0.5656	-6.7892	-7.1913	-0.1244	-0.9953	-0.0940	-1.9427	0.3301	-5.4682	0.6555	0.3851	-0.5728	-1.1900	3.4359
3968.0162	-0.9081	-0.6884	-0.7036	-5.5443	-18.6419	-1.0867	-1.7382	-0.3270	-6.9472	0.6034	-7.4116	0.1218	0.6569	-0.4779	-1.6726	-3.7017
3976.0163	0.0222	-0.5755	-0.5825	-7.1733	-6.6457	-0.6451	-1.3626	-0.2442	-2.3200	0.4414	-5.6301	0.7921	0.2104	-0.5360	-1.3846	-1.0265
3984.0163	0.0136	-0.1976	-0.1970	-1.9839	4.5743	-0.2883	-1.3385	-0.3099	-1.7058	0.1359	-0.1259	-0.0532	-0.4908	-0.1434	-0.9785	-3.5843
3992.0163	-0.6079	-0.2815	-0.2760	8.8492	8.4773	-0.8584	-1.5497	0.2010	-4.8751	0.1623	-9.1480	-0.9228	-0.7365	0.5301	-0.9095	1.2961
4000.0164	-1.0579	-0.6414	-0.6503	-10.5750	-10.3681	0.1636	-0.4050	0.2814	-3.1711	0.2130	-10.2247	1.1173	-1.6998	-0.7124	-1.0033	6.7243
4008.0164	-0.9356	-0.3228	-0.3380	-22.6823	-13.5491	0.3691	-0.1621	-0.4959	-9.8416	0.0695	-7.2860	0.9299	-1.8730	-1.2839	-0.8203	-7.4936
4016.0164	-0.1204	-0.2569	-0.2594	-15.0261	4.8042	-0.1912	0.0547	-0.1313	-10.4558	0.0921	-3.9713	0.2444	-0.3567	-0.5522	-0.4868	-1.1388
4024.0165	0.0298	-0.5943	-0.5948	-11.3128	2.5926	0.2460	0.4460	0.6495	-3.0899	0.1991	2.9299	0.9356	-0.6200	-0.3328	-0.6118	14.7939
4032.0165	-0.3304	-0.3851	-0.3840	-4.4133	-0.5976	0.9802	0.5081	0.7863	-7.7652	0.0572	-5.5390	0.1933	-1.3016	0.0369	-0.3008	11.7934
4040.0165	-0.9526	-0.5918	-0.6042	-15.6828	-13.8924	-0.0952	0.9179	0.4636	-10.8143	0.2804	-6.4533	0.6431	-0.0764	-0.6240	-0.3519	8.6464
4048.0166	-0.9658	-0.6833	-0.7106	-28.8761	-28.7793	-1.3949	0.9032	-0.2122	-6.6675	0.4072	-2.3870	1.7281	-0.4702	-1.5586	-0.5255	-0.8415
4056.0166	-0.6090	-0.1542	-0.1616	-18.7712	-0.4104	-0.5420	0.7036	-0.2198	-6.5416	-0.0504	-3.9900	0.6992	-0.9618	-0.8911	0.0079	-2.3939
4064.0166	-1.1875	-0.3814	-0.3805	-15.3475	16.2354	-0.9006	0.4221	0.1309	-3.5364	-0.0036	4.1926	0.3475	0.2857	-0.5827	-0.3238	10.3555
4072.0167	-1.2067	-0.6348	-0.6487	-26.4576	-3.0857	-1.5389	0.9502	-0.0360	-2.7553	0.2384	6.2482	1.3615	0.6387	-1.2764	-0.4098	8.8154
4080.0167	-0.9246	-0.7376	-0.7547	-35.6466	-3.7520	-1.8132	1.0366	-0.1909	-11.1001	0.3347	2.2713	1.4242	0.4114	-1.5723	-0.6172	4.4412
4088.0167	-0.4641	-1.0643	-1.0816	-31.4747	-7.2664	-2.7203	0.3542	0.1266	-10.8528	0.5891	-1.3848	1.5705	-0.5097	-1.2997	-1.1739	6.8216
4096.0168	0.6139	-0.7218	-0.7459	-29.2886	-30.9293	-1.0019	2.0252	0.4770	-11.6101	0.4646	-0.9728	1.8474	-1.3525	-1.1234	-0.0651	4.2505
4104.0168	0.3697	-0.4175	-0.4377	-34.6766	-21.5425	0.0877	2.5260	0.3202	-22.0789	0.2121	2.5544	0.8260	-1.3022	-1.0742	0.2303	0.7192
4112.0168	-0.4388	-0.5870	-0.5981	-32.7369	-1.1089	-0.7774	1.4398	0.1871	-14.9225	0.1362	-4.6614	1.2888	-1.4501	-1.2688	-0.2793	4.8132
4120.0169	-0.4564	-0.6345	-0.6554	-39.0562	-18.5085	-0.3843	2.6271	0.2881	-10.8132	0.1491	-8.5287	2.5637	-1.4493	-1.8345	0.2761	6.5172
4128.0169	-0.0203	-0.4450	-0.4684	-39.3283	-24.5371	-0.2714	3.1895	0.3838	-24.1344	0.1751	-5.8883	1.2064	-1.4916	-1.3560	0.6122	0.6353
4136.0169	0.4226	-0.2238	-0.2340	-24.6789	-5.8529	-1.1641	2.7457	0.4802	-17.3464	0.1192	2.6892	0.2428	0.0261	-0.4843	0.8911	4.0867
4144.0169	0.5998	-0.3673	-0.3828	-26.2299	-11.9338	-2.0924	2.6453	0.3535	-10.2163	0.2741	8.2756	0.9067	0.5058	-0.7223	0.7649	4.7573
4152.0170	0.2255	-0.4738	-0.4986	-29.1922	-29.8743	-1.3141	1.9015	0.3321	-21.3507	0.2994	-0.5309	0.4696	-2.9249	-0.8139	0.0567	-4.5567
4160.0170	-1.1739	-0.2893	-0.3161	-27.8386	-30.1265	-0.4033	1.0925	-0.1205	-20.7199	0.0957	4.6593	-0.2513	-3.2675	-0.9580	-0.3090	-8.9554
4168.0170	-1.7411	-0.2374	-0.2640	-36.3945	-17.9960	-0.7667	0.8224	-0.8850	-16.4066	0.0852	12.0391	0.0930	-0.4502	-1.6286	-0.4844	-10.7154
4176.0171	-1.0381	-0.5689	-0.5912	-39.3862	-11.6185	-0.7400	1.1198	-0.4657	-18.5490	0.3112	10.5533	0.6199	0.7694	-1.5974	-0.7101	-1.1649
4184.0171	0.0207	-0.6853	-0.7064	-35.0079	-13.6556	-1.7651	1.3241	-0.0526	-16.9967	0.4786	15.0143	0.5990	0.3536	-1.1238	-0.5984	1.9553
4192.0171	0.6266	-0.3210	-0.3401	-35.3663	-10.8474	-1.9310	1.2487	-0.4046	-16.3317	0.2203	12.6557	0.5592	-1.6895	-1.1594	-0.2358	-9.1787
4200.0172	-0.8604	-0.7364	-0.7621	-46.6679	-13.3741	-1.2774	0.9205	-0.4804	-17.6169	0.3064	12.6047	1.2238	-1.5243	-1.9395	-1.0742	-2.5784
4208.0172	-0.7398	-1.0702	-1.0995	-52.9417	-16.2476	-1.7357	1.1930	-0.2964	-23.4640	0.5923	11.8859	1.3950	-0.2497	-2.0746	-1.3573	1.9541
4216.0172	1.0672	-0.5750	-0.5907	-38.5068	-9.5242	-0.7617	2.2701	0.3790	-32.3077	0.4163	8.4373	-0.0491	-0.4389	-0.7455	-0.1956	1.2057
4224.0173	0.5352	-0.7291	-0.7426	-25.3383	-12.9669	-0.5800	2.2983	1.0224	-29.0271	0.5507	12.2465	-0.6710	0.8432	-0.0318	-0.1692	13.1347
4232.0173	0.2695	-0.6915	-0.7034	-20.4805	-10.6982	-1.1613	2.1523	0.9561	-18.6419	0.4858	9.7080	-0.0700	1.0473	-0.1175	0.0458	14.7407
4240.0173	0.1843	-0.2074	-0.2080	-10.8399	5.8712	-1.0058	1.6943	0.6702	-15.1036	0.1319	9.3887	-0.9146	0.7504	0.3092	0.4654	9.1444
4248.0174	0.1278	0.0996	0.1047	4.3138	10.4745	-1.4885	0.9993	0.4709	-12.3935	0.0985	8.1203	-2.0389	2.0877	0.9963	0.7048	4.1648
4256.0174	1.1726	0.6053	0.6226	27.0166	14.2823	-1.0445	1.3684	0.9445	-2.1316	-0.1624	8.1906	-2.5991	1.7050	2.1272	1.8017	5.8255
4264.0174	0.6204	0.5823	0.6095	43.2343	23.0948	-0.5769	0.9428	1.5395	11.9849	-0.3106	17.4980	-2.7533	1.3081	2.7990	1.7762	19.9663
4272.0175	0.4146	0.6162	0.6406	42.8193	19.7408	-0.8082	0.8237	1.2512	14.1417	-0.2838	10.7297	-2.3657	2.0304	2.5196	1.8514	16.1704
4280.0175	0.8228	1.0034	1.0256	43.5724	14.7780	-1.1025	0.7313	0.7843	4.7076	-0.3856	-0.8595	-3.1749	1.1939	2.6351	2.2503	-0.8222
4288.0175	-0.1659	1.0978	1.1242	44.5693	21.5970	0.2062	0.1152	0.6526	8.6650	-0.6807	-3.0133	-3.0294	-0.3013	2.4025	1.9523	0.0109
4296.0176	-0.1725	1.3184	1.3530	42.5941	33.0663	1.9962	0.8391	0.6548	16.3005	-1.0110	-4.3850	-2.0411	0.2211	2.0304	2.4869	5.9411
4304.0176	0.4893	1.4197	1.4552	42.6272	36.9621	0.8237	0.3829	0.1668	13.6173	-0.8844	-12.3422	-2.1558	1.4276	1.9967	2.5057	-3.9692
4312.0176	-0.1636	1.5297	1.5578	30.8020	31.6608	1.3780	0.1723	-0.6865	18.8279	-1.0533	-21.5753	-0.7136	1.0408	0.7787	2.4210	-13.7515
4320.0177	-0.8671	1.3232	1.3457	23.3824	28.5839	1.1489	0.3664	-0.6859	16.6843	-0.9686	-16.4461	-0.6353	1.4027	0.4561	2.1727	-10.3023
4328.0177	0.3654	0.9776	1.0033	35.2258	30.5174	-1.4425	-1.0673	-0.4015	7.3361	-0.4195	-21.8801	-1.9869	1.7991	1.5316	1.3745	-13.8735
4336.0177	1.3594	1.2369	1.2660	44.3285	25.2400	-0.4647	-1.0094	-0.4405	21.1500	-0.5622	-26.2048	-0.8462	1.4278	1.5348	1.8611	-15.3829
4344.0178	1.1378	0.9674	0.9929	53.6081	16.8085	-1.3808	-1.3607	-0.0306	32.2978	-0.3419	-10.1163	-0.8849	1.7827	1.9680	1.5507	-5.3183
4352.0178	1.3646	0.7951	0.8207	55.4922	17.7313	-2.0950	-2.3388	-0.0101	26.6838	-0.1668	-7.6212	-1.6422	0.8770	2.3075	0.8283	-8.0485
4360.0178	0.2251	0.5641	0.5778	40.6725	9.5033	-1.8164	-2.8468	-0.7167	26.6641	-0.0575	-6.9920	-0.7732	1.7040	1.1750	0.0688	-11.9470
4368.0179	0.2071	-0.2727	-0.2704	38.2400	-1.7769	-4.8341	-4.2111	-0.6344	25.1032	0.7006	-3.9524	-0.6167	2.7534	1.1504	-1.3601	-8.5538
4376.0179	1.7304	0.1166	0.1396	49.0896	20.7744	-3.5239	-4.1663	-0.0504	21.8576	0.3091	-2.1034	-1.5978	-0.0530	2.2033	-0.9712	-6.7820
4384.0179	1.1212	0.3315	0.3630	52.0231	35.6504	-2.4241	-4.2911	-0.1075	25.7734	0.0231	6.0070	-2.0141	0.3021	2.3129	-0.9023	-2.3747
4392.0180	1.1184	0.1798	0.1938	40.8210	9.7680	-2.4103	-4.0170	-0.6386	26.8246	0.2671	-1.2720	-0.6001	1.1451	1.3103	-1.0044	-10.3520
4400.0180	0.3800	0.7562	0.7708	31.8801	10.6048	0.7481	-3.5030	-1.2013	25.2504	-0.3753	-5.6600	-0.2514	-1.0028	0.5449	-0.5274	-19.6438
4408.0180	-0.6867	0.4362	0.4629	33.8925	39.3093	-0.1372	-4.8815	-1.2177	27.3672	-0.3103	-1.4955	-0.7413	0.4219	0.6734	-1.4950	-9.6628
4416.0181	0.3272	0.3318	0.3594	28.7956	36.3505	0.8271	-3.6680	-0.7212	23.7728	-0.2415	-1.3128	-0.1380	0.7788	0.6580	-1.1361	-2.5979
4424.0181	-0.8767	0.5319	0.5557	27.3130	26.4881	3.1498	-3.0641	-0.4464	12.3329	-0.5350	-1.0013	-1.2483	-1.1166	0.7914	-0.9567	-2.7919
4432.0181	-1.2095	0.1114	0.1321	26.8297	28.0016	0.9573	-4.1025	-0.5493	6.7879	-0.1215	-7.0178	-1.6539	0.0417	0.8587	-1.7540	-3.9910
4440.0182	0.1018	0.2980	0.3062	13.7868	9.5906	0.5950	-2.2853	-0.7829	7.3694	-0.0827	-0.3868	-0.6019	0.4330	0.2719	-0.7663	-10.7729
4448.0182	-0.4792	0.1868	0.1805	3.1692	-7.9476	0.0443	-1.4958	-0.8776	4.8255	0.0069	6.5242	-0.3844	0.1907	-0.2153	-0.6298	-12.4875
4456.0182	-0.0571	-0.2032	-0.2104	-13.1912	1.0674	-0.7452	-1.6424	-1.1334	-1.9329	0.2583	1.7110	0.4809	1.1224	-0.9350	-1.2805	-12.3842
4464.0183	-0.2087	-0.1055	-0.1149	-19.7397	1.1485	-0.3754	-1.6118	-1.4555	-5.6104	0.1720	1.6550	0.4637	0.8503	-1.2690	-1.3240	-17.5376
4472.0183	-0.9686	-0.1342	-0.1461	-8.5546	-6.9799	-1.3507	-1.4874	-1.0870	-0.8531	0.2113	-2.9674	0.1435	0.8577	-0.8255	-0.9358	-13.8847
4480.0183	-0.2585	-0.3126	-0.3177	-8.0296	2.7436	-1.7125	-0.3075	-0.3325	2.0426	0.2915	7.4662	0.3646	2.0797	-0.4324	-0.4752	1.7006
4488.0184	0.1518	-0.8580	-0.8679	-6.7210	-9.6851	-1.5919	-0.0218	0.5133	-0.6958	0.7265	19.2691	0.2808	2.8129	0.0009	-1.0325	16.3569
4496.0184	0.7056	-0.7276	-0.7405	-1.6582	-28.2534	0.4619	0.8021	0.9186	-4.5176	0.7008	7.6195	0.5218	2.3314	0.1894	-0.5188	16.0231
4504.0184	0.5793	-0.0625	-0.0621	7.6343	-10.7060	1.6205	0.5823	0.5726	-5.9136	0.2134	0.5387	-0.5493	1.9911	0.6053	0.1382	7.3544
4512.0185	0.0346	-0.3737	-0.3778	13.0642	-18.1636	0.4836	-0.3794	0.5615	-0.6715	0.4707	-5.6416	-0.2132	2.2658	0.5787	-0.4306	8.4643
4520.0185	0.0209	-0.3203	-0.3333	-1.1438	-32.5922	2.3812	0.9039	0.4897	-1.2886	0.3021	-8.3705	1.1679	1.2860	-0.3385	-0.0367	7.8164
4528.0185	-0.0337	0.0837	0.0865	-3.0378	-1.3278	3.0801	0.7034	0.0656	-0.6185	-0.1167	-4.0792	0.7055	1.7324	-0.3723	0.1754	6.1235
4536.0186	0.8992	-0.2791	-0.2700	-3.8430	11.7311	1.7296	0.4866	0.1491	11.0681	0.1528	-4.1468	2.2143	3.8079	-0.6082	-0.0770	15.5997
4544.0186	0.7809	-0.4118	-0.4081	-10.7192	2.6667	2.3360	0.8142	0.2997	12.7430	0.0832	-4.7677	3.1105	1.6824	-1.0559	-0.1850	17.2344
4552.0186	-1.1145	-0.2130	-0.2110	-7.5817	0.7086	3.4616	-0.3202	-0.0831	12.9503	-0.2770	-13.2454	2.6266	-1.0011	-1.2948	-0.5974	9.8237
4560.0187	-1.9815	-0.1281	-0.1401	-21.6082	-12.9556	3.8588	-0.3176	-1.0853	10.4306	-0.2370	-17.9300	3.2775	0.7200	-2.4398	-0.7143	-2.2051
4568.0187	-1.1516	-0.2530	-0.2750	-26.6047	-25.5403	2.3580	-0.3692	-1.3563	-2.7346	0.2059	-14.9999	2.3683	2.4058	-2.2820	-0.9622	-11.6764
4576.0187	-0.6353	-0.6595	-0.6777	-20.4074	-24.2506	2.0477	-0.6952	-0.6789	2.6467	0.4394	-10.3377	2.7529	2.1119	-1.8681	-1.4555	0.9144
4584.0187	-1.9231	-0.8383	-0.8530	-29.1985	-9.7360	2.8324	-1.3782	-0.8606	5.0779	0.2407	-6.2622	3.1893	1.0377	-2.4808	-2.2221	6.3955
4592.0188	-2.2483	-0.7897	-0.8055	-26.7744	-8.0392	1.4908	-2.3000	-1.1460	-6.6521	0.3318	-13.5123	1.7313	0.4958	-2.1153	-2.5647	-4.7474
4600.0188	-1.6842	-0.7128	-0.7348	-29.4025	-17.1237	0.7082	-1.6425	-1.3745	0.5936	0.4017	-11.3575	2.6198	1.5059	-2.4478	-2.0310	-7.5483
4608.0188	-1.7517	-0.6889	-0.7046	-34.1400	-0.0768	0.2064	-1.4249	-1.4039	-3.5472	0.3377	-5.3362	2.1012	2.3306	-2.3884	-1.9733	-4.9396
4616.0189	-1.0946	-0.9866	-0.9940	-30.2212	7.2777	0.1979	-0.5515	-0.0983	-25.8494	0.5643	-5.6477	0.1526	2.0669	-1.0968	-1.9492	7.5117
4624.0189	-1.6082	-0.8306	-0.8400	-34.9346	3.1252	1.7942	0.1206	0.0038	-23.9143	0.2482	-1.2354	0.5151	0.1988	-1.4104	-1.6634	9.5249
4632.0189	-2.6390	-0.1244	-0.1353	-24.1948	-4.0021	2.8948	-0.5560	-0.7734	-13.1528	-0.2651	-5.0270	0.2336	-1.3879	-1.5236	-1.1303	-5.4787
4640.0190	-2.4689	-0.1326	-0.1560	-20.6999	-31.7035	3.2074	0.5097	-0.4562	-13.7744	-0.0524	-1.1883	0.1544	-0.2472	-1.3170	-0.5837	-4.0736
4648.0190	-1.6506	-0.1011	-0.1191	-32.5810	-13.8075	2.6703	0.7079	-0.8072	-12.4970	-0.1340	6.2372	0.7933	0.0190	-1.7866	-0.6013	-5.1118
4656.0190	0.3187	0.5803	0.5819	-22.3491	10.5351	2.8396	0.7336	-0.9109	-9.0063	-0.5778	5.2604	0.3022	-1.5949	-1.0634	0.2840	-13.6602
4664.0191	0.2716	0.5528	0.5436	-18.7662	-15.4316	3.3660	1.9981	-0.2485	-7.6145	-0.5403	11.3614	0.3369	-2.7329	-0.7795	0.8920	-8.2386
4672.0191	-1.2619	0.2442	0.2310	-28.7147	-12.5134	2.9339	1.9230	-0.2212	-8.7883	-0.5896	7.2292	0.8220	-3.8615	-1.3964	0.4770	-3.5754
4680.0191	-1.3085	0.3221	0.3080	-31.4207	-16.2675	3.6619	2.6371	-0.0199	-14.3907	-0.6976	1.3198	0.7816	-4.6343	-1.4263	0.8478	-3.8591
4688.0192	-1.8315	0.0793	0.0485	-34.1370	-45.4408	3.8202	3.1092	0.1309	-16.2555	-0.4246	3.0737	1.0208	-4.2758	-1.6536	0.7525	-2.9478
4696.0192	-1.6590	-0.1795	-0.2028	-34.0414	-28.6568	2.6450	2.3206	0.1557	-13.2313	-0.3029	2.9436	1.2678	-3.8919	-1.6226	0.2012	1.7162
4704.0192	-1.0713	-0.0464	-0.0601	-29.3412	-14.8446	2.3641	2.2455	0.4382	-16.6878	-0.4394	5.4651	0.4390	-5.2067	-1.0109	0.3326	2.2224
4712.0193	-2.0198	-0.0015	-0.0202	-22.8678	-23.9022	1.8900	1.6268	0.3779	-20.6459	-0.4219	2.7070	-0.6329	-5.9985	-0.6860	0.1551	-3.1144
4720.0193	-2.3915	-0.3672	-0.3898	-19.2936	-30.5280	1.4031	1.0113	0.5257	-15.3336	-0.1302	5.4654	-0.2995	-4.9053	-0.6796	-0.4486	3.5819
4728.0193	-2.2121	-0.5833	-0.6133	-16.1713	-49.1679	2.0295	1.2349	0.8397	-9.5057	0.0806	9.0742	0.3955	-4.4535	-0.7016	-0.5649	9.6327
4736.0194	-1.6058	-0.4369	-0.4626	-15.6139	-42.0071	1.9874	1.3326	0.7042	-14.3308	0.1073	9.2323	-0.1385	-3.1030	-0.4803	-0.3857	6.6370
4744.0194	-0.8698	-0.4268	-0.4401	-26.2087	-11.3196	1.4967	1.0468	0.4702	-21.4186	0.0092	17.8448	-0.5714	-3.0813	-0.5405	-0.7665	6.3806
4752.0194	-2.0047	-0.3207	-0.3345	-29.8517	-9.5255	2.3322	1.2405	0.4424	-15.9530	-0.3423	19.9241	-0.1424	-5.1053	-0.9526	-0.6423	8.5416
4760.0195	-3.2318	-0.4012	-0.4251	-30.1197	-22.7546	2.0502	1.6853	0.3960	-15.9554	-0.1962	24.8300	-0.4883	-2.8829	-1.0663	-0.4805	11.4952
4768.0195	-2.8152	-0.7544	-0.7840	-39.1726	-24.2668	1.0416	0.9725	0.0823	-30.5381	0.2862	28.1531	-1.2517	-0.8426	-1.1337	-1.4478	6.8424
4776.0195	-1.8694	-0.7715	-0.7918	-38.0569	-10.8702	1.1147	0.7417	0.2497	-33.0650	0.2839	27.2014	-1.3585	-1.1992	-0.8472	-1.6053	8.3739
4784.0196	-1.4965	-0.8147	-0.8264	-33.3835	2.6909	0.4346	1.0125	0.5636	-23.5102	0.2520	32.5581	-0.9219	-0.4251	-0.6111	-1.3095	17.8821
4792.0196	-2.4771	-0.5128	-0.5294	-33.0332	-7.1023	1.7442	0.8253	0.0266	-13.3742	-0.0851	23.1914	0.0994	-1.6600	-1.3195	-1.0422	10.5604
4800.0196	-3.1388	-0.0523	-0.0657	-21.2576	-9.6980	3.0577	1.1195	-0.0468	-3.8221	-0.4351	19.9121	0.0385	-1.3965	-1.1418	-0.2293	9.7392
4808.0197	-1.8344	-0.1241	-0.1195	-3.5948	14.1834	1.2295	0.8622	0.5384	-0.5605	-0.1915	20.8697	-0.8169	1.4695	0.1152	0.0257	19.9022
4816.0197	-0.6061	0.2966	0.3098	7.0262	20.2154	1.2253	0.7549	0.3507	5.3109	-0.3481	14.0028	-0.7658	1.5554	0.5032	0.6668	12.5891
4824.0197	-0.0918	0.9164	0.9296	12.4828	18.9371	0.7165	0.8477	-0.2770	15.6348	-0.6685	19.9751	-0.8158	0.8925	0.5304	1.5261	-0.4441
4832.0198	0.5829	1.2076	1.2284	20.0101	29.6911	-0.3180	0.6445	-0.5330	25.1421	-0.8177	14.1674	-0.4496	0.9895	0.6760	2.0753	-5.4840
4840.0198	0.7949	1.6593	1.6819	32.8159	17.9190	1.4242	2.0090	-0.1038	33.9254	-1.1144	11.1483	-0.2034	1.0711	1.0826	3.4250	-2.0176
4848.0198	1.1538	1.8738	1.8967	41.3886	11.5207	1.4510	3.0111	0.3864	31.2641	-1.1401	17.8348	-1.2378	1.5100	1.8655	4.2361	0.7459
4856.0199	1.6317	2.0621	2.0949	39.1653	32.8213	0.7548	2.8234	0.0035	27.9529	-1.2303	12.0213	-1.4822	2.6690	1.8493	4.4117	-4.3213
4864.0199	1.2890	2.3349	2.3682	36.9313	36.5624	1.0172	3.3012	-0.3214	35.9812	-1.4868	15.9979	-0.9750	3.0511	1.4746	4.9604	-5.5322
4872.0199	0.8776	2.4236	2.4505	37.7872	23.1476	1.1353	3.9458	-0.1741	38.9831	-1.5957	14.2149	-0.6949	1.8492	1.3837	5.4506	-6.1489
4880.0200	1.0986	2.6412	2.6679	38.1466	20.1426	1.8263	4.5314	-0.3203	40.8350	-1.6853	9.9034	-0.3420	2.8798	1.2322	6.0051	-8.3795
4888.0200	1.5623	2.7841	2.8162	41.1811	26.9420	2.2852	4.8510	-0.3467	49.0138	-1.7603	16.1750	0.0767	4.3684	1.2629	6.3593	-4.1717
4896.0200	1.2783	2.5920	2.6199	44.5157	17.1887	2.2732	4.8510	-0.1223	50.3751	-1.5820	14.0180	0.2333	5.0943	1.3296	6.2382	0.0474
4904.0201	1.4710	2.1057	2.1150	45.8381	-15.1041	0.5780	4.8427	0.0748	44.7452	-0.8942	11.5552	0.1242	6.9553	1.4718	5.8590	-1.0319
4912.0201	2.0993	1.9046	1.9111	37.6716	-15.9998	-0.2729	4.4647	-0.1357	40.5733	-0.7379	2.7581	0.7773	5.9718	1.0675	5.4353	-7.0053
4920.0201	1.2880	2.3158	2.3365	29.1460	17.6666	0.9062	3.8585	-0.9567	44.1208	-1.3245	2.5446	1.0071	5.4248	0.3684	5.3619	-11.8258
4928.0202	1.6828	2.4822	2.5103	39.6656	27.5877	0.3530	3.8994	-0.9137	50.8575	-1.2904	11.5457	0.4685	8.0028	0.9440	5.7595	-7.5356
4936.0202	2.6024	2.3046	2.3319	46.2124	17.2125	0.3315	4.4300	-0.3427	48.2627	-0.9974	6.0447	0.5153	9.1772	1.4315	5.9799	-2.2153
4944.0202	1.8261	2.2883	2.3131	45.5460	14.6148	0.8683	3.9449	-0.5168	46.0341	-1.0261	5.3683	0.2122	8.9655	1.2998	5.6161	-4.0249
4952.0203	1.8496	2.2840	2.3102	49.7202	14.9473	0.4256	3.3435	-0.5599	47.1869	-1.0348	-2.8566	0.2620	7.8599	1.3878	5.4577	-7.6753
4960.0203	1.9711	2.2389	2.2626	42.1009	14.8165	0.4394	3.4690	-0.8592	43.8919	-0.9600	-7.8903	0.7067	8.8290	0.9350	5.3942	-10.9543
4968.0203	2.1304	2.3211	2.3390	40.0942	6.7902	0.7856	3.5645	-1.2057	49.6201	-0.8984	5.9372	0.9335	10.3227	0.6980	5.3914	-12.1437
4976.0204	2.4503	2.2938	2.3061	44.0112	-9.8563	1.4354	3.9755	-0.8821	52.6842	-0.8394	8.1300	1.2349	9.6458	0.8413	5.5685	-9.9062
4984.0204	1.6803	2.0796	2.0877	35.5372	-5.4599	0.2386	3.8502	-1.0211	39.1025	-0.6199	14.5212	-0.0210	11.1158	0.8591	5.1064	-10.5175
4992.0204	1.5482	2.1290	2.1470	31.7278	16.9059	0.0032	3.7397	-0.9379	31.1232	-0.7906	19.4854	-1.0020	10.3842	1.1172	4.9612	-8.7616
5000.0205	1.6754	1.9687	1.9886	23.6256	21.0285	0.7166	4.4919	-0.6349	29.0241	-0.8296	16.2255	-0.2259	10.1129	0.7821	5.0467	-1.8769
5008.0205	3.1998	1.5374	1.5459	9.9590	11.3161	-1.7170	5.1915	-0.8974	27.1790	-0.1669	23.3654	0.7768	14.1276	0.2793	4.9522	-2.1045
5016.0205	5.1079	1.7683	1.7765	4.8423	4.1207	-0.8851	6.2060	-0.7875	25.6997	-0.2923	21.9716	1.5657	12.0674	0.1853	5.5677	-7.9906
5024.0205	3.5239	1.8086	1.8098	-6.8055	-2.5368	0.9160	6.4300	-0.9771	19.5509	-0.5822	19.8907	1.6446	10.0380	-0.5300	5.3566	-10.0797
5032.0206	2.6443	1.4261	1.4161	-19.4718	-8.7302	-0.4619	6.4753	-1.3719	18.9794	-0.2712	17.1557	2.4741	12.3094	-1.3882	4.9836	-9.5340
5040.0206	3.9569	1.7353	1.7315	-11.6383	-9.6053	-0.3318	7.7493	-0.7433	9.7957	-0.3743	7.3702	1.6547	11.4533	-0.5173	6.1085	-11.4381
5048.0206	4.5904	1.6547	1.6612	6.9944	-2.2036	-1.9548	8.4816	0.5764	-9.1383	-0.0807	7.7869	-1.3832	12.7232	1.5536	6.6834	-1.6391
5056.0207	4.7660	0.7925	0.7985	3.5064	-1.6629	-3.6129	8.9506	1.6591	-15.9634	0.4681	-0.3240	-0.8606	13.5954	1.7757	6.1808	16.7296
5064.0207	4.5005	0.6829	0.6824	-9.5441	-8.7821	-3.4798	9.2924	1.6707	-33.0711	0.4408	-17.4522	-0.9247	10.9965	1.3493	6.0461	8.5932
5072.0207	4.1837	0.6823	0.6816	-4.0890	-7.5382	-5.3233	9.0160	1.8741	-54.3622	0.6375	-26.8521	-3.3943	11.0182	2.2945	6.0425	0.9153
5080.0208	3.8527	0.1541	0.1564	-3.3550	-2.7739	-5.9048	8.8442	2.5648	-55.2021	0.8618	-31.6869	-3.0588	10.7788	2.4517	5.5074	14.2211
5088.0208	4.3944	0.3505	0.3600	1.8273	5.2928	-5.5114	8.6807	2.6220	-57.2324	0.7535	-30.0026	-3.7037	10.4509	2.8944	5.6160	12.5956
5096.0208	4.3059	0.4458	0.4593	9.2708	9.0678	-5.4156	8.4671	2.7153	-61.5184	0.7889	-29.2314	-4.7805	11.5778	3.4451	5.6517	12.8927
5104.0209	3.2300	0.0711	0.0703	-10.5726	-1.7352	-5.2044	7.7666	1.9200	-57.9428	0.9022	-33.4089	-2.9098	11.2123	1.8429	4.6398	8.2668
5112.0209	4.2269	0.6579	0.6538	-11.6397	-6.3588	-5.3702	6.9413	0.7511	-55.2687	0.6904	-35.4415	-2.8612	9.9483	1.4851	4.8078	-16.3371
5120.0209	3.3679	0.9689	0.9718	-0.6492	0.1643	-4.1404	6.5026	0.8781	-55.4827	0.3728	-30.7549	-4.1933	8.8709	2.0970	4.8790	-15.6579
5128.0210	2.3283	0.7146	0.7119	-12.0470	-0.1976	-3.6483	6.7193	0.7450	-54.4174	0.4284	-21.0944	-3.6755	10.1412	1.4264	4.4648	-8.5252
5136.0210	4.1776	0.9058	0.9046	-5.1199	-6.1706	-3.8122	6.9699	0.8021	-49.1600	0.5177	-15.1259	-3.4856	10.4033	1.8551	4.8837	-11.8831
5144.0210	3.3657	0.6245	0.6275	-1.9195	-0.2989	-3.4186	5.9009	1.2051	-47.2751	0.4201	-16.2720	-3.4949	7.2387	1.9869	4.0159	-5.2568
5152.0211	2.4285	0.3936	0.3910	-19.0700	5.0963	-4.2753	5.4975	0.5967	-45.3605	0.3821	-20.6480	-2.2541	6.4708	0.8041	3.4667	-8.7973
5160.0211	1.9822	0.3944	0.3852	-21.7392	-2.9861	-4.5056	5.1434	0.2185	-37.5849	0.3365	-20.4014	-1.4631	5.6820	0.2795	3.3188	-12.9488
5168.0211	0.8714	0.2370	0.2300	-26.4619	7.0877	-3.9612	3.9291	0.0238	-35.1328	0.1563	-15.6155	-1.3483	3.3707	-0.1055	2.3337	-11.3220
5176.0212	1.7049	0.5164	0.5148	-26.5359	15.4048	-3.7044	3.6576	-0.3144	-32.4763	-0.0264	-12.2821	-1.2852	2.5540	-0.1187	2.4311	-17.8807
5184.0212	0.6963	0.1820	0.1708	-20.3369	-2.0431	-4.2986	2.5399	-0.1834	-27.8847	0.1759	-12.1148	-1.2907	1.0456	-0.0587	1.6240	-16.6942
5192.0212	0.2472	-0.5300	-0.5435	-25.7935	2.8219	-6.3116	1.5813	0.1269	-28.9203	0.5516	-10.8594	-0.9507	0.3283	-0.1885	0.4465	-8.1370
5200.0213	1.2542	-0.8478	-0.8547	-20.2403	7.5407	-6.5327	1.0710	0.7238	-22.7816	0.6804	-8.8139	-0.3243	-1.3271	0.1782	-0.0550	0.8171
5208.0213	0.7154	-1.3435	-1.3622	-22.9183	-16.7394	-5.1244	-0.0747	0.7772	-13.7983	0.8426	-15.1167	1.5114	-4.0767	-0.5951	-1.2890	3.4604
5216.0213	2.0017	-1.4267	-1.4453	-27.6823	-15.9335	-5.2959	-0.7064	0.4125	-16.7982	1.0416	-18.0522	1.9544	-3.8180	-0.8162	-1.7998	-3.6567
5224.0214	1.6395	-1.4777	-1.4806	-11.1236	6.5017	-5.6263	-3.2106	0.6116	-17.4850	0.9235	-16.4382	0.2895	-6.8568	0.2177	-3.0210	-3.4629
5232.0214	-0.2666	-1.9158	-1.9202	-18.5378	10.5152	-4.7941	-5.0843	0.4614	-12.2700	0.7415	-22.5144	1.3293	-11.2477	-0.6500	-4.6162	-0.6747
5240.0214	0.0280	-2.1504	-2.1614	-21.7188	-0.8073	-4.7603	-5.5640	0.4092	-15.2128	0.9684	-23.6214	1.5974	-11.7332	-0.8247	-5.2178	-3.1489
5248.0215	-0.3995	-2.4779	-2.4905	-6.5787	-12.3049	-4.5658	-7.5619	0.8090	-15.9281	1.1921	-23.3689	0.6212	-14.2123	-0.0555	-6.5313	-1.7857
5256.0215	-0.6273	-2.8574	-2.8735	-16.2534	-16.9337	-3.2701	-8.7519	0.7192	-14.5980	1.1713	-29.7959	2.0029	-17.8772	-0.8558	-7.8176	-2.2563
5264.0215	-1.7096	-3.1232	-3.1401	-13.2171	-19.3794	-2.7279	-11.1666	0.6494	-20.6779	1.1198	-40.6871	1.4345	-22.8051	-0.8270	-9.4472	-9.1578
5272.0216	-3.6097	-3.4333	-3.4532	-13.0840	-20.9945	-2.0790	-13.0426	0.5664	-14.5848	0.9705	-40.3233	1.7146	-26.6573	-1.2299	-10.8420	-7.1405
5280.0216	-2.9881	-4.1152	-4.1426	-24.4031	-23.9690	-3.4212	-12.9768	0.6142	-4.9975	1.5398	-17.2484	3.1287	-23.3731	-1.7863	-11.6645	7.0170
5288.0216	-1.8271	-4.6455	-4.6677	-5.5848	-23.0506	-5.5843	-14.4867	1.3923	-9.7089	2.2021	-10.4524	1.5243	-22.3353	-0.2562	-12.7151	14.8345
5296.0217	-1.3981	-4.4671	-4.4773	-6.7802	-8.5392	-3.6052	-14.3159	1.6934	-13.4816	1.8266	-16.0524	1.6086	-24.9505	-0.1686	-12.6365	16.8958
5304.0217	-2.3724	-4.8134	-4.8281	-18.1008	-5.4522	-3.4743	-15.1047	1.2363	-15.3283	2.0070	-14.2160	2.0627	-23.4497	-0.9339	-13.6286	18.5359
5312.0217	-3.4136	-5.2723	-5.2970	-13.0067	-18.4740	-4.9440	-17.1167	0.8418	-11.8536	2.4566	-20.3143	2.1216	-22.5551	-1.1143	-14.9321	14.9955
5320.0218	-3.2636	-5.2652	-5.2871	-18.3524	-15.5118	-3.1105	-17.0484	0.8544	-6.9371	2.2531	-16.6446	3.0904	-23.8463	-1.5590	-15.1404	18.8844
5328.0218	-3.6966	-5.7809	-5.7943	-7.2343	-6.2784	-2.7965	-18.4182	1.5661	-13.3147	2.5824	-15.9246	1.9287	-23.1244	-0.6921	-16.3829	32.4780
5336.0218	-3.5182	-6.1809	-6.1955	-5.4036	-10.2653	-2.9126	-18.6255	1.8954	-13.1121	2.9325	-17.3008	2.2819	-21.4318	-0.6050	-16.8638	40.9115
5344.0219	-3.9328	-6.2286	-6.2502	-21.4376	-13.0110	-1.6567	-19.0459	1.2582	-10.1899	2.8019	-4.8601	3.2048	-22.6442	-1.6475	-17.5991	37.2235
5352.0219	-5.0537	-6.0792	-6.0995	-19.5523	-6.6751	-1.3625	-20.4927	0.7067	-13.8010	2.6371	-6.4233	2.2100	-23.7032	-1.6760	-18.2707	28.3439
5360.0219	-4.4791	-5.7908	-5.8030	-17.9441	7.1576	-1.4431	-19.9077	0.5539	-10.7911	2.5137	-3.1042	2.1302	-21.6487	-1.5467	-17.5915	28.8238
5368.0220	-4.1946	-5.8160	-5.8189	-4.7383	15.9840	-1.1861	-21.2843	0.7434	-7.0628	2.5207	1.1747	1.4293	-22.5645	-0.8415	-18.2458	31.2288
5376.0220	-4.1396	-5.3828	-5.3847	8.1343	7.9824	-0.4305	-21.2078	0.6699	-4.6855	2.3444	-5.9512	0.8799	-22.5432	-0.3910	-17.5621	24.5201
5384.0220	-4.0407	-4.7444	-4.7435	11.4535	15.7544	-1.2341	-20.3459	-0.0068	0.0965	2.1252	-3.3753	0.4038	-19.3054	-0.3602	-16.2308	15.5692
5392.0221	-4.6459	-4.3042	-4.2873	23.8903	44.8802	-1.9867	-22.0929	-0.6097	5.6374	1.7501	-5.1982	-0.7877	-19.9985	0.0978	-16.4062	7.0065
5400.0221	-4.7220	-3.6864	-3.6686	21.3167	49.1258	-1.1928	-21.2784	-1.2123	9.8368	1.3499	2.9187	-0.9428	-19.1735	-0.1672	-15.4412	-0.7726
5408.0221	-4.8138	-3.3070	-3.2936	26.7530	39.3058	-0.9154	-20.3996	-1.4065	11.1157	1.3222	11.6988	-1.7031	-16.4729	0.1057	-14.5629	-3.6049
5416.0222	-5.2427	-3.0646	-3.0477	32.5220	42.4235	-0.4861	-19.9360	-1.3855	13.4636	1.1700	9.6315	-2.0120	-15.2023	0.2951	-13.9499	-2.0739
5424.0222	-5.1856	-2.9904	-2.9830	16.6800	38.7142	-1.3646	-18.6137	-1.9329	9.3230	1.2963	17.5115	-1.7316	-11.8979	-0.4028	-13.3564	-6.0279
5432.0222	-4.0488	-2.6922	-2.6846	17.5598	35.9453	-1.7771	-17.8788	-2.1390	8.1753	1.2914	10.3767	-1.5719	-10.8727	-0.3471	-12.5282	-13.9993
5440.0222	-2.4648	-2.1406	-2.1254	13.2276	46.5903	-1.5978	-15.9546	-2.2899	15.7082	0.9322	8.4308	-0.4012	-10.1203	-0.6211	-10.8530	-16.9445
5448.0223	-1.6200	-2.0750	-2.0676	7.8233	35.7794	-2.4639	-14.7142	-2.3777	12.6471	1.1418	14.8681	-0.3799	-7.8093	-0.6783	-10.1697	-19.4554
5456.0223	-1.7446	-1.5665	-1.5636	16.9292	13.3715	-0.1589	-13.1578	-2.0433	17.6584	0.7833	8.9105	-0.1391	-8.7958	-0.5006	-8.7804	-20.5005
5464.0223	-2.7080	-0.9554	-0.9468	12.7083	30.1030	0.2199	-11.9256	-2.4948	31.3132	0.1239	17.2912	0.4311	-8.6401	-1.0496	-7.4570	-20.3814
5472.0224	-2.8557	-0.7847	-0.7705	17.0750	42.0418	-1.2029	-11.3998	-2.4599	33.4873	0.0505	16.0894	0.0052	-7.1646	-0.7453	-6.7201	-18.9674
5480.0224	-2.3397	-0.3076	-0.3038	22.7880	9.1505	0.1956	-8.0220	-1.7504	38.8928	-0.1601	9.8257	0.8314	-6.5072	-0.5920	-4.2895	-15.4139
5488.0224	-1.9930	-0.1993	-0.2041	18.8272	-3.1825	-1.2486	-6.3677	-1.6648	36.3728	-0.0558	9.2254	0.8882	-5.1051	-0.6196	-3.1747	-17.7289
5496.0225	-1.5135	-0.0884	-0.0833	23.4282	8.8254	-1.7455	-5.4159	-1.0940	28.7803	-0.1472	-4.1491	0.3450	-5.1352	-0.0247	-2.3429	-14.5143
5504.0225	-2.0011	0.4615	0.4680	28.2115	5.6940	-0.8206	-3.6131	-0.8702	37.5540	-0.6581	-5.5367	0.6563	-5.7965	0.0079	-0.6732	-12.6249
5512.0225	-2.1179	0.6116	0.6151	35.2666	-0.7488	-1.8668	-4.0882	-1.1405	42.6120	-0.6602	-9.8818	0.5431	-6.1345	0.1269	-0.4971	-20.0725
5520.0226	-1.7431	0.5106	0.5114	38.9605	-14.0323	-1.0570	-3.0757	-0.5575	42.7958	-0.5412	-15.4604	1.0192	-5.4460	0.3079	-0.0177	-12.8361
5528.0226	-1.5919	0.4453	0.4447	42.5972	-20.7654	-0.7502	-2.2833	-0.1398	44.3596	-0.4236	-10.7162	1.0159	-3.9326	0.5776	0.3523	-4.9336
5536.0226	-0.9001	0.5304	0.5379	45.6024	-13.7902	0.6879	-2.5845	0.0233	39.8759	-0.5142	-13.6768	0.7265	-4.7498	0.8760	0.1454	-4.8884
5544.0227	-1.4396	0.6261	0.6327	38.3626	-13.9070	2.6691	-2.1863	-0.0687	39.8149	-0.7404	-6.7785	1.0055	-5.1147	0.4356	0.1082	-2.1737
5552.0227	-1.3659	0.7760	0.7837	40.5275	-8.7806	1.9170	-2.4844	-0.4910	43.6412	-0.7132	-1.9444	0.7723	-3.3647	0.4512	0.2067	-5.9874
5560.0227	-0.6076	0.8238	0.8339	38.7641	-8.5361	2.7004	-1.3865	-0.1593	44.9159	-0.7468	1.9408	1.2371	-2.6624	0.4888	0.7443	0.1873
5568.0228	-1.5712	0.3407	0.3445	31.6006	-15.3808	3.0758	-0.9706	0.3962	41.7494	-0.5732	10.1736	1.3943	-2.7411	0.3066	0.2322	13.6386
5576.0228	-1.4092	0.0640	0.0686	26.9492	-8.5864	1.9740	-1.3130	0.3335	36.2250	-0.3179	5.6862	1.3906	-1.4720	0.2104	-0.2037	14.3040
5584.0228	-1.2280	-0.0629	-0.0660	8.5753	-8.1403	0.5435	-0.6329	-0.2050	38.5233	-0.2399	5.2349	2.8519	-0.6526	-0.8704	-0.0340	10.3685
5592.0229	-1.9421	-0.0392	-0.0494	2.4791	-14.1222	-0.5142	-0.5313	-0.4840	38.8184	-0.3455	-4.1151	3.3252	-2.3492	-1.3841	0.1574	3.1966
5600.0229	-1.5268	0.2587	0.2509	4.3548	-13.3279	-0.4312	0.5135	-0.4110	34.7918	-0.4505	-9.1934	2.9483	-1.3525	-1.1416	1.0909	0.6797
5608.0229	-0.9496	-0.0293	-0.0426	-6.5079	-12.8860	-1.9619	0.7898	-0.7088	38.3638	-0.1219	-1.3925	3.9282	1.1943	-1.7091	0.9149	2.7741
5616.0230	-0.2223	0.1701	0.1557	-12.8595	-16.5637	-0.8654	0.9173	-1.0291	33.6446	-0.2515	-8.8590	4.3506	-0.0508	-2.0804	1.0023	-6.6464
5624.0230	-0.0429	0.8052	0.7928	-10.2143	-16.2686	0.4657	1.6379	-1.3373	25.3576	-0.5411	-3.2886	2.8584	0.7961	-1.6885	1.8476	-16.0673
5632.0230	0.0422	0.6585	0.6533	-1.7379	-2.4132	-0.9716	0.7884	-1.3892	35.6038	-0.3616	3.1499	2.8706	3.0557	-1.3854	1.5380	-9.8955
5640.0231	0.4948	0.8541	0.8539	-3.7320	-2.8437	2.0227	1.7379	-1.1987	40.4176	-0.6485	-1.4354	4.1045	2.8687	-1.7569	2.0340	-4.4118
5648.0231	0.3464	1.4082	1.4054	-5.2873	-9.1574	4.0849	2.6586	-1.6565	35.4483	-0.8907	3.5519	3.3771	4.8229	-1.8489	2.8173	-11.7652
5656.0231	0.3597	1.4347	1.4384	4.5192	-1.7878	3.8182	2.5206	-1.5101	42.3387	-0.8544	4.0060	3.2947	6.6155	-1.4705	3.0103	-5.9958
5664.0232	-0.5039	1.0862	1.0767	-1.7871	-25.5902	5.1525	3.5467	-0.9724	41.5801	-0.7119	8.6363	3.9637	6.5468	-1.8394	2.9399	4.8943
5672.0232	-0.4914	1.1508	1.1294	-11.4623	-38.8743	4.5317	3.7047	-1.6269	35.3940	-0.5630	5.9038	4.0223	7.6200	-2.3945	2.9841	-7.2918
5680.0232	0.7584	1.7565	1.7534	-17.1725	-5.5582	4.7945	4.6865	-2.0618	38.2545	-1.0749	-1.3302	4.6747	8.1046	-2.6783	4.1853	-12.7146
5688.0233	0.9444	1.7663	1.7669	-21.8761	2.4434	4.7128	5.8001	-1.6544	32.4502	-1.1513	2.9778	4.3378	8.1848	-2.4978	4.6782	-6.7111
5696.0233	2.5873	1.8253	1.8265	-18.6575	0.3032	2.9368	6.2852	-1.6074	36.0110	-0.9774	-0.8428	4.8244	8.7480	-2.2557	5.2893	-10.7691
5704.0233	3.3115	2.2329	2.2354	-26.4478	6.0618	3.0372	7.4869	-2.0122	49.0658	-1.3405	6.7620	6.2464	8.5333	-2.9121	6.3257	-13.5825
5712.0234	2.3285	2.1386	2.1293	-33.1806	-11.3247	3.8054	8.1070	-1.8173	33.5466	-1.2507	10.7784	5.0825	8.2816	-2.8775	6.2133	-14.2843
5720.0234	2.7983	2.4242	2.4203	-30.6396	-11.1148	5.1652	9.6515	-1.2057	13.2940	-1.3548	-0.2791	3.5447	8.7904	-2.1103	7.1948	-14.3900
5728.0234	2.0776	2.5324	2.5322	-29.6740	-2.4379	5.2094	10.2416	-0.9482	5.6732	-1.4620	5.4043	2.2377	9.6297	-1.6769	7.5470	-9.9535
5736.0235	1.1496	1.7694	1.7616	-26.1859	-16.8792	4.6402	9.6009	0.0204	-16.4963	-0.8543	1.7786	0.3544	9.6717	-0.8161	6.3105	-0.1876
5744.0235	0.6835	1.5077	1.5018	-28.7290	-15.3403	5.1917	10.1378	0.8149	-42.7224	-0.7042	-9.7829	-1.3889	9.2924	-0.1729	6.1143	4.8249
5752.0235	-0.1478	1.5498	1.5475	-27.8810	-2.2815	4.1177	9.7011	0.7117	-59.5304	-0.6345	-9.7393	-3.6353	10.5942	0.4044	5.9006	0.9515
5760.0236	0.4843	1.0795	1.0835	-20.1831	0.6852	3.8776	9.9825	1.9234	-76.8686	-0.1965	-10.6437	-5.2322	11.6979	1.6509	5.5416	15.1306
5768.0236	0.2380	0.7934	0.8025	-16.2117	4.2931	4.6450	10.2047	2.8836	-87.7046	-0.1091	-6.0759	-6.4246	10.9041	2.4387	5.2000	28.1062
5776.0236	-0.2424	1.0370	1.0453	-13.3533	7.3674	4.5575	8.4889	1.9948	-88.5635	-0.1701	-0.5796	-7.4658	10.8256	2.4277	4.4785	14.2791
5784.0237	0.3773	1.0970	1.1035	-20.8470	4.3260	5.5778	8.2543	1.6023	-93.8666	-0.1830	-8.0697	-6.9793	10.2354	1.9632	4.2066	5.8592
5792.0237	0.5271	1.0992	1.1007	-32.5065	-4.6381	6.9354	9.0804	1.5632	-103.3946	-0.2434	-22.3031	-6.2633	9.3995	1.3520	4.4071	1.5758
5800.0237	1.7838	1.3581	1.3617	-35.5226	-1.2907	6.9771	9.4457	1.1761	-103.0180	-0.2659	-21.4091	-5.9532	10.5239	1.2152	4.8264	-5.3285
5808.0238	2.4186	1.2525	1.2555	-36.2199	-4.7256	7.1402	9.4161	1.3392	-94.8101	-0.2708	-14.7891	-5.0440	9.0759	1.0856	4.6675	-1.9137
5816.0238	1.0674	1.1838	1.1663	-47.9362	-38.8200	9.1759	9.8408	0.9907	-89.5327	-0.3925	-23.0038	-3.2280	7.0822	-0.2437	4.5703	-6.5522
5824.0238	0.6001	1.4912	1.4716	-59.8114	-31.5308	8.8149	10.0469	0.0163	-82.6715	-0.6744	-28.4150	-2.0540	7.6218	-1.3432	5.0149	-16.8688
5832.0239	0.4756	1.5968	1.5991	-48.8590	9.1314	6.6399	8.8542	0.0568	-67.5213	-1.0084	-26.3365	-2.1103	6.0562	-0.8663	4.9814	-11.6102
5840.0239	-0.4019	1.6249	1.6224	-45.7949	-0.4268	7.6660	8.8961	0.0676	-51.0625	-1.1800	-13.4900	-1.2301	5.5418	-1.1841	5.0079	-4.7225
5848.0239	-0.2825	1.6089	1.5924	-53.2627	-17.2886	6.9852	8.9362	-0.5811	-41.9752	-1.0033	1.6015	-0.3867	6.9491	-1.8632	4.9098	-10.0676
5856.0240	0.6927	1.4924	1.4792	-45.5048	-14.2262	5.1792	8.3677	-0.3959	-38.6921	-0.8035	2.5723	-0.5571	6.5606	-1.3255	4.7659	-10.5465
5864.0240	0.6341	1.4317	1.4172	-46.9570	-15.2178	4.9939	8.9134	-0.1741	-33.1234	-0.8306	11.5304	-0.1793	6.4774	-1.3782	4.9769	-4.2674
5872.0240	0.9051	1.2568	1.2396	-49.7437	-12.7700	3.0223	8.2959	-0.4234	-28.5948	-0.6619	18.7797	0.0536	6.2651	-1.5071	4.5749	-6.6538
5880.0240	2.0189	1.0754	1.0548	-46.7626	-23.4374	2.3980	8.0327	-0.2478	-32.5418	-0.3461	14.7408	0.0326	6.1765	-1.2045	4.3147	-9.4926
5888.0241	2.2680	1.3436	1.3237	-45.3196	-26.3432	3.2211	8.9563	-0.1120	-31.0226	-0.5379	17.4269	0.0298	6.0385	-1.0968	5.0381	-9.0121
5896.0241	2.0708	1.6055	1.5913	-35.5334	-20.7718	3.0797	8.9071	-0.0414	-22.1088	-0.7827	18.5677	-0.1084	5.2871	-0.7621	5.5145	-8.3468
5904.0241	0.7965	0.9838	0.9597	-40.2071	-34.4040	3.1780	8.2106	0.1323	-22.0933	-0.4594	12.3794	0.6882	5.3378	-1.2894	4.4572	-0.8360
5912.0242	-0.0452	0.3526	0.3331	-42.1502	-23.8426	3.0499	7.0051	0.5816	-20.9714	-0.3246	5.5978	1.3527	3.6082	-1.4744	3.1866	11.1028
5920.0242	1.5640	0.3562	0.3506	-27.1177	-13.2281	3.2265	6.9303	1.3154	-15.3776	-0.2754	11.6297	1.0868	3.4950	-0.4346	3.3238	20.6271
5928.0242	2.0714	0.4324	0.4230	-20.0964	-27.1456	3.7422	7.4352	1.5274	-12.3452	-0.1568	16.3258	1.0141	4.7309	-0.0994	3.7060	22.5895
5936.0243	1.0092	0.8436	0.8479	-5.2207	-9.5323	4.5298	6.1860	1.4048	-1.6474	-0.7197	9.2415	0.6185	1.7920	0.2399	3.7435	20.0248
5944.0243	1.0956	1.2553	1.2727	3.8197	13.4784	4.0414	4.8695	0.8149	2.8817	-0.9873	10.2297	-0.2416	1.6965	0.5938	3.6591	11.3087
5952.0243	1.9801	1.4413	1.4594	7.3829	15.5323	2.6256	4.7890	0.4642	-1.2388	-0.8090	9.6191	-1.0151	3.8408	0.9524	3.9694	2.6057
5960.0244	2.1531	1.7917	1.8228	31.8608	20.1830	3.6983	4.9366	1.1982	13.7768	-1.1406	13.0787	-1.3740	2.7720	2.0396	4.7615	12.3434
5968.0244	1.6031	1.8930	1.9271	44.6714	20.5971	3.5079	4.5135	1.2064	29.3197	-1.2376	13.1000	-0.9719	3.3108	2.2112	4.9867	16.3184
5976.0244	1.3308	1.9802	2.0087	48.3736	10.9839	2.0559	4.6517	1.0906	22.5036	-1.1301	-4.5874	-1.4899	3.6129	2.3725	5.4557	6.8938
5984.0245	0.1488	2.0490	2.0737	53.4155	-1.2990	3.0733	5.3097	1.6494	18.3737	-1.3211	-8.5195	-2.1657	1.7281	2.6995	5.8601	10.7481
5992.0245	-0.9789	1.9131	1.9397	47.5971	10.7179	2.7945	5.0365	1.4295	28.0889	-1.4616	-5.1636	-1.2621	1.8808	2.0658	5.5994	16.8778
6000.0245	-0.2175	1.9833	2.0184	54.6685	26.3208	1.2345	4.8290	1.4250	36.3649	-1.4032	7.1836	-1.5632	3.4786	2.5581	5.7866	20.3914
6008.0246	-0.2639	1.8919	1.9187	58.3676	10.0941	1.2618	4.7537	1.5631	35.7369	-1.1952	20.6316	-2.2257	3.9511	2.8891	5.5483	21.6628
6016.0246	-0.8796	1.7687	1.7922	47.4777	12.1078	1.4354	4.1278	1.0311	30.6454	-1.1900	9.2736	-1.6917	3.6338	2.1118	4.9637	15.0675
6024.0246	-0.6410	1.8144	1.8428	47.9875	22.4725	1.1813	3.5721	0.8493	30.0676	-1.2121	12.6768	-2.0422	3.6846	2.2270	4.6981	13.1153
6032.0247	-0.8019	1.6544	1.6711	44.8233	3.4772	1.5241	3.5170	0.7800	33.3983	-1.0460	25.0417	-1.7342	3.6170	1.9697	4.3159	13.7657
6040.0247	-0.3307	1.6089	1.6274	45.6607	6.4998	1.0304	3.2632	0.7507	34.5931	-0.9719	25.4941	-1.6323	3.7105	2.0401	4.1901	13.1679
6048.0247	0.4208	1.7019	1.7342	59.8368	25.5442	-0.3221	2.1771	0.8931	31.9068	-0.9182	23.5693	-3.0279	3.7666	3.0813	4.0080	11.1437
6056.0248	-0.0853	1.4084	1.4361	54.9940	20.0614	-0.2643	1.7091	0.9020	22.9013	-0.7350	12.1862	-3.0411	3.4318	2.8438	3.3842	9.7268
6064.0248	-0.3447	1.0940	1.1140	45.5338	12.5151	-0.5211	1.4145	0.7498	22.3836	-0.5729	10.9579	-2.2372	2.8563	2.2361	2.7811	9.3512
6072.0248	0.0022	1.4845	1.5104	48.9697	22.2424	-0.4832	0.8451	0.2188	35.4525	-0.9164	15.0243	-1.6955	1.4843	2.0496	2.9952	2.2901
6080.0249	0.0477	1.4855	1.5170	47.5659	33.8113	-0.2016	0.8570	0.2386	33.2607	-0.9399	19.3494	-2.0031	2.4508	2.1370	2.9084	5.8078
6088.0249	-0.1385	0.8485	0.8701	41.8760	21.3630	-1.0841	0.2572	0.5149	23.5985	-0.4153	22.4757	-2.2902	2.8069	2.1403	1.7795	10.1771
6096.0249	-1.1860	1.0167	1.0282	32.2172	8.1856	0.1246	-0.3446	-0.2042	22.8555	-0.7095	10.5729	-1.5326	-0.4298	1.1412	1.4476	-4.1753
6104.0250	-1.5930	0.9913	1.0011	19.5837	17.7778	-0.4196	-0.8038	-0.8561	17.4044	-0.7095	14.3922	-1.6676	0.1387	0.5586	0.9680	-10.5106
6112.0250	0.1762	0.6548	0.6563	11.3068	7.9036	-2.1508	-0.6815	-1.1079	24.4542	-0.2266	21.9782	-0.1287	2.0028	0.0720	0.7152	-11.4522
6120.0250	1.2429	0.9856	0.9837	12.9103	-6.1135	-1.1413	0.2711	-1.2410	38.0259	-0.4085	21.4670	1.4217	1.5810	-0.2901	1.6271	-14.8152
6128.0251	1.1017	0.9395	0.9499	17.5540	18.6174	-2.2432	-0.6518	-1.1497	35.8221	-0.4550	25.6803	0.3660	1.3158	0.2542	1.1948	-11.8582
6136.0251	0.5596	0.8790	0.8898	1.0831	30.4537	-2.1204	-1.0879	-1.7615	38.5278	-0.7028	17.5098	1.8328	-0.6745	-0.9395	0.7544	-16.9310
6144.0251	-0.5237	1.0006	0.9934	-14.1883	8.6113	-1.5892	-0.1640	-2.4196	39.9805	-0.8083	16.9449	2.8707	-0.4817	-2.1391	1.1522	-24.9964
6152.0252	0.1047	0.9283	0.9178	-10.5099	1.5803	-3.0029	0.4046	-2.1730	38.1896	-0.5426	19.1418	2.5038	1.0661	-1.7153	1.5480	-23.8599
6160.0252	1.1510	1.0796	1.0741	-15.7202	4.0370	-1.2873	1.9797	-1.8363	43.4977	-0.7763	16.3256	3.9963	0.8434	-2.0627	2.4188	-17.2266
6168.0252	1.2922	0.9414	0.9277	-17.5790	-11.8645	-0.9829	2.6847	-1.5201	36.7178	-0.5555	21.8438	3.5975	1.6406	-1.8898	2.4852	-14.4560
6176.0253	1.1362	1.0709	1.0520	-12.6047	-27.0977	-0.3888	2.9962	-1.2859	32.0682	-0.5993	19.0589	2.9638	0.3733	-1.5492	2.7688	-17.7531
6184.0253	-0.1164	1.4735	1.4600	-12.1911	-17.5355	1.4899	3.6096	-1.3431	35.2880	-1.1066	24.2789	2.6238	0.0837	-1.6599	3.3602	-14.4174
6192.0253	0.2432	1.6046	1.6022	-6.9143	3.0469	0.4993	3.6559	-1.2637	31.4535	-1.0881	31.5112	1.3502	2.2239	-0.9746	3.6188	-11.5946
6200.0254	1.5844	1.9215	1.9256	-5.8057	7.4851	1.3524	4.7642	-1.0692	32.0199	-1.2646	32.3672	1.5700	2.3311	-0.7509	4.4924	-11.4225
6208.0254	1.7087	1.6739	1.6737	0.2770	-3.7586	0.8446	4.8109	-0.6349	30.0369	-0.9441	36.8543	1.0654	3.4528	-0.2524	4.3270	-5.7720
6216.0254	1.8703	1.3681	1.3668	6.5543	-9.5160	-0.2388	4.5266	-0.1606	28.3176	-0.6833	28.8240	0.9806	3.0275	0.1570	4.0931	-2.1463
6224.0255	1.0563	1.2603	1.2583	-2.3211	-6.6818	0.6467	5.0049	-0.0502	32.6928	-0.8966	30.1539	1.9789	1.7505	-0.4710	4.0741	4.6752
6232.0255	1.1359	0.7074	0.6988	-6.9415	-12.0544	-0.9573	4.4458	0.0582	24.7718	-0.3645	29.9996	1.7774	3.2131	-0.4604	3.2024	7.2893
6240.0255	2.1224	0.7597	0.7525	-4.6848	-16.2759	-0.6340	4.5398	0.2112	16.4224	-0.2839	18.8939	1.5230	2.6844	-0.1610	3.3151	2.1844
6248.0256	2.0382	0.6497	0.6517	5.7615	-6.1898	-0.5809	4.1170	0.8269	10.4892	-0.2320	20.0579	0.2076	2.4855	0.7616	3.0425	9.7507
6256.0256	2.2498	0.0657	0.0689	5.6313	-6.1194	-1.2860	3.7614	1.6005	-10.2168	0.2312	6.8766	-0.8638	2.3894	1.3911	2.2228	15.5761
6264.0256	0.9488	-0.0411	-0.0438	-7.0426	-13.4209	0.6007	4.0765	1.7334	-34.2933	0.1261	-10.7576	-1.6594	0.3719	1.0336	1.8590	11.3273
6272.0257	0.4121	-0.3943	-0.3942	1.8961	-11.4312	-0.5640	3.2713	2.2741	-52.1013	0.4851	-26.9575	-3.4439	0.8898	1.9400	1.2721	13.0427
6280.0257	2.1878	-0.6858	-0.6828	-0.0682	-12.2677	-1.1831	3.8204	2.8316	-64.5683	0.8427	-42.4043	-3.2437	1.2093	2.2818	1.3188	14.3339
6288.0257	2.6695	-0.7005	-0.6958	-7.8398	-6.3121	-0.8508	3.7629	2.7185	-69.3752	0.7955	-39.9635	-3.1640	0.2471	2.0748	1.0524	12.0054
6296.0258	2.9893	-0.6401	-0.6320	0.8812	-3.3636	-2.2222	2.9595	2.6453	-73.5239	0.8827	-53.6451	-3.8682	-0.2543	2.5626	1.0082	3.8678
6304.0258	2.3335	-0.4866	-0.4908	-10.2843	-20.2271	-1.4868	3.7553	2.2648	-79.1666	0.7583	-60.9070	-3.4661	-0.9573	1.8253	1.3938	-5.0248
6312.0258	1.6267	-0.7945	-0.8018	-10.0256	-21.8055	-1.5950	3.1706	2.3311	-72.6392	0.9236	-46.4773	-3.3622	-0.1056	1.7485	0.6909	3.6857
6320.0258	2.8127	-0.6455	-0.6383	7.3229	-8.7794	-1.5475	2.5240	2.6060	-64.3279	0.9092	-47.3310	-3.5812	0.4267	2.5968	0.8060	7.1449
6328.0259	2.6019	-0.1498	-0.1417	6.6821	-6.4509	-0.6680	2.5965	2.1061	-69.5921	0.6081	-44.8150	-4.5567	0.1221	2.6280	1.1969	-3.7737
6336.0259	1.5519	-0.3792	-0.3823	-3.8748	-15.2272	-0.9647	2.2924	1.6565	-64.2835	0.6880	-39.0609	-3.6629	0.3353	1.7464	0.6691	-4.1108
6344.0259	0.2383	-0.5292	-0.5473	-24.5554	-26.2492	-0.3427	1.7764	0.5580	-53.4367	0.6040	-38.5735	-1.3919	-0.0138	-0.1489	-0.0277	-10.8049
6352.0260	-0.1977	-0.6030	-0.6151	-26.4753	-7.6585	-1.0569	0.2116	0.0389	-58.2689	0.6430	-37.8695	-2.1846	0.3313	-0.1766	-0.9742	-15.8040
6360.0260	1.1008	-0.9225	-0.9190	-19.6266	12.0659	-1.2187	-0.0669	0.8307	-57.6815	0.8061	-37.2742	-2.1107	0.4214	0.5296	-1.3524	-2.0899
6368.0260	1.1057	-0.8840	-0.8930	-33.0594	-5.4797	0.1041	0.4941	0.3567	-51.1634	0.7310	-29.5147	-0.5975	-0.0253	-0.5302	-1.3476	-5.6912
6376.0261	1.3630	-0.5696	-0.5761	-30.0790	-0.0138	-0.6347	0.5928	0.0234	-43.4766	0.5534	-26.5402	-0.4879	0.1030	-0.5294	-0.7979	-10.7447
6384.0261	1.2379	-0.4827	-0.4788	-27.4334	17.1204	-0.6368	1.1804	0.4351	-29.9704	0.2115	-17.8027	0.2004	-1.1107	-0.4580	-0.2785	0.9425
6392.0261	-0.1708	-0.6945	-0.7105	-35.3061	-12.8184	0.4815	1.3770	0.3170	-26.8029	0.3065	-3.2956	0.6258	-1.5252	-1.1197	-0.7342	3.1359
6400.0262	-0.0103	-0.7507	-0.7746	-30.2130	-31.1437	0.7045	1.6753	0.4894	-25.7045	0.5311	2.3279	0.4433	-0.1951	-0.8719	-0.6320	4.9117
6408.0262	-0.0816	-0.6464	-0.6635	-31.5330	-13.7130	-0.0266	1.0866	0.1296	-23.1011	0.4052	6.5419	0.2507	-0.1416	-0.9357	-0.7980	2.4886
6416.0262	-0.3935	-0.7235	-0.7380	-30.0700	-4.9370	-1.4150	0.2178	-0.0688	-25.8385	0.4623	-1.7591	-0.1344	-0.4610	-0.8611	-1.1458	-2.0049
6424.0263	-0.0099	-0.8418	-0.8537	-27.5159	-1.9404	-2.5048	0.6862	0.2711	-18.2305	0.5055	-4.5019	0.6538	-0.4459	-0.7996	-0.7606	4.1897
6432.0263	0.2867	-0.9148	-0.9331	-36.8133	-6.8597	-2.7902	0.7499	-0.0948	-12.2620	0.5506	3.6267	1.6695	-0.5184	-1.4423	-0.9324	2.1071
6440.0263	0.6668	-0.9878	-1.0074	-35.2723	-14.7787	-1.8561	0.7795	0.1121	-16.6621	0.6580	0.0864	1.6136	-0.5298	-1.3004	-1.0864	2.7708
6448.0264	0.4127	-1.0654	-1.0787	-29.5659	-5.4083	-1.7511	-0.2373	0.1882	-18.1544	0.6591	-0.0949	0.9695	-1.0867	-0.9450	-1.6783	4.2656
6456.0264	0.5952	-1.1837	-1.1922	-26.7768	6.0938	-2.6394	-1.8859	-0.1789	-19.9789	0.8136	1.2093	0.3590	-0.9275	-0.7563	-2.6288	-0.5503
6464.0264	0.7003	-1.2601	-1.2616	-19.5563	15.6186	-2.9309	-2.2049	0.0809	-15.4885	0.8559	5.2834	0.1540	-0.2288	-0.3450	-2.7434	6.3290
6472.0265	0.4363	-1.2292	-1.2332	-15.4061	11.0926	-3.0546	-2.8905	-0.1266	-8.5037	0.8418	11.3701	0.1834	-0.7427	-0.3505	-3.0247	4.2851
6480.0265	0.7658	-1.4017	-1.4116	-8.9596	-7.2799	-2.4531	-3.3095	0.1239	-12.2770	1.1055	6.2992	-0.0233	-0.9147	-0.0345	-3.4251	3.3639
6488.0265	0.1444	-1.7213	-1.7201	6.5147	6.2699	-3.0482	-4.1224	0.9031	-9.9785	1.2391	5.5003	-0.8685	-0.4797	0.8978	-3.8899	18.0927
6496.0266	-0.2364	-1.5012	-1.4865	23.9022	27.1143	-4.3213	-5.7078	0.7398	0.7251	1.0427	6.3525	-1.7166	-1.1688	1.5974	-4.0698	16.3683
6504.0266	-0.3342	-1.0289	-1.0093	37.9711	27.4134	-3.7051	-6.0000	0.6763	4.2472	0.7662	8.6571	-2.7703	-1.9255	2.2505	-3.5974	11.0023
6512.0266	-0.4787	-0.9851	-0.9573	46.1607	38.8736	-3.7878	-6.1170	0.9643	7.6109	0.6991	14.5399	-3.3564	-1.3634	2.7783	-3.5027	17.8431
6520.0267	0.3233	-1.0816	-1.0536	46.6117	36.4419	-3.9948	-5.8724	1.0294	18.4349	0.7802	14.0115	-1.9835	-0.9029	2.5292	-3.3392	21.6576
6528.0267	-0.5445	-0.8372	-0.8188	47.6675	15.7384	-2.1040	-5.7203	0.8133	23.1821	0.5473	15.0286	-1.6830	-2.2884	2.1698	-3.1540	17.0429
6536.0267	-2.2201	-0.5578	-0.5404	50.5675	16.3306	-0.7946	-6.6665	0.3419	16.7530	0.2969	15.9846	-3.1635	-2.7679	2.2267	-3.5402	9.5093
6544.0268	-2.4711	-0.7845	-0.7710	44.1826	18.8392	-2.0321	-6.9771	0.0103	16.0821	0.5416	19.3485	-3.0264	-0.7686	1.8867	-3.9396	9.4212
6552.0268	-1.5465	-0.7289	-0.7174	41.6888	14.2020	-2.2739	-6.4336	-0.0135	19.9119	0.5674	22.0647	-2.3510	-0.8135	1.7465	-3.5904	7.9982
6560.0268	-0.7932	-0.4051	-0.3813	51.1273	24.3870	-0.7485	-6.5189	0.2048	19.6734	0.3035	18.1023	-2.7826	-1.8350	2.3014	-3.2919	7.5948
6568.0269	-1.9979	-0.9089	-0.8822	50.2194	37.8999	-1.9335	-7.9554	0.0704	23.9503	0.5371	13.8594	-2.3772	-0.5039	1.9813	-4.4075	15.0028
6576.0269	-2.2099	-1.2592	-1.2399	41.1633	32.9980	-3.3551	-8.3745	-0.1963	23.1376	0.7710	2.5254	-1.3821	-0.7366	1.3120	-4.8968	11.4383
6584.0269	-1.8912	-1.1955	-1.1843	38.5029	17.3933	-3.1397	-8.1299	-0.2477	16.3986	0.8189	-0.1115	-1.6090	-1.9009	1.2875	-4.8165	3.8832
6592.0270	-3.0520	-1.4921	-1.4900	31.8162	11.6618	-3.5618	-9.0133	-0.7183	19.1236	1.0193	7.1096	-1.3401	-0.7485	0.6821	-5.7056	4.0512
6600.0270	-2.4372	-1.4020	-1.3998	26.8087	12.8306	-3.2965	-8.8309	-0.9627	16.0354	1.0196	4.9330	-1.1137	-0.3557	0.4602	-5.6185	-0.5977
6608.0270	-2.0048	-1.0586	-1.0561	30.7427	9.4947	-3.1472	-9.0199	-1.1575	7.3075	0.9021	0.6069	-2.2470	-1.6420	0.8718	-5.3852	-12.7518
6616.0271	-3.2527	-0.9422	-0.9437	26.3120	8.1957	-2.7848	-9.6904	-1.8092	10.2852	0.7016	-8.0767	-1.7803	-2.4181	0.1531	-5.6181	-20.7237
6624.0271	-3.2773	-0.8777	-0.8736	27.8369	16.1687	-2.6293	-9.0082	-1.5037	10.1984	0.5909	-10.6984	-1.8037	-1.9932	0.3262	-5.1228	-15.2737
6632.0271	-2.6654	-1.0725	-1.0644	32.6345	19.4834	-3.2586	-8.7261	-0.8799	4.6047	0.8039	-6.5344	-2.5615	-1.3843	1.0412	-5.1319	-7.6597
6640.0272	-2.3012	-1.0657	-1.0626	14.3285	16.3372	-1.7096	-8.3298	-1.4374	9.2756	0.6405	-8.7665	-0.4725	-2.2467	-0.2980	-5.2590	-11.5907
6648.0272	-1.7793	-0.6288	-0.6256	7.9095	20.3898	-1.3951	-8.1540	-2.1609	13.8159	0.3508	-3.1969	-0.0521	-2.7124	-0.7914	-4.8389	-22.5631
6656.0272	-1.1152	-0.6171	-0.6170	10.0268	15.0296	-2.5962	-7.9780	-2.1516	11.1407	0.5432	0.6758	-0.5583	-1.9059	-0.4560	-4.6490	-25.8470
6664.0273	-0.9609	-0.7937	-0.8005	-5.6812	6.3028	-1.6588	-6.5261	-2.0075	16.9943	0.4703	0.2481	1.5822	-2.5076	-1.4862	-4.2784	-19.0702
6672.0273	-1.0116	-0.3499	-0.3535	-6.4881	8.7612	-0.2927	-5.0798	-1.9390	20.1078	0.0728	3.2391	1.7283	-2.4623	-1.5553	-3.1379	-17.6321
6680.0273	-0.6292	-0.2523	-0.2565	-6.1314	4.6075	-0.0780	-3.9240	-1.6732	6.9463	0.2097	-2.5704	0.8032	-0.1481	-1.1449	-2.4638	-17.6927
6688.0274	-1.0159	-0.6759	-0.6845	-16.7023	5.7902	-1.2057	-4.0638	-1.6961	7.1102	0.3947	-6.6393	1.7710	-0.3158	-1.7617	-2.9742	-14.1972
6696.0274	-2.2830	-0.6898	-0.7052	-19.7603	-4.0008	-0.5026	-4.1931	-1.8108	15.4663	0.1608	-8.4379	2.6865	-2.6484	-2.3807	-3.0836	-14.0525
6704.0274	-2.5867	-0.9694	-0.9977	-24.7754	-26.2182	-0.4282	-3.4068	-1.5090	7.7965	0.4473	-12.7702	2.8076	-1.9794	-2.5422	-3.0544	-11.8406
6712.0275	-0.9847	-1.0288	-1.0517	-24.8433	-14.2596	-2.6660	-3.3232	-1.5061	6.9437	0.6865	-9.1214	2.6956	-0.6773	-2.1858	-2.8902	-13.2322
6720.0275	-0.5650	-0.6784	-0.6958	-26.9344	-8.7499	-0.9865	-2.8693	-1.6328	12.9700	0.2819	-8.7520	3.4508	-2.2937	-2.4846	-2.4196	-15.0413
6728.0275	-1.6751	-1.1380	-1.1593	-26.5114	-15.1511	-1.0091	-3.4194	-1.2983	11.7764	0.4780	-19.0885	3.8131	-2.6620	-2.6434	-3.1097	-7.8998
6736.0276	-0.8843	-1.2186	-1.2301	-14.5594	-1.6550	-3.2481	-4.0627	-0.9872	7.5231	0.6924	-27.4150	2.7766	-2.1644	-1.6968	-3.1209	-8.4375
6744.0276	-0.9883	-0.9480	-0.9603	-20.4701	-6.3524	-1.0100	-3.4429	-0.9833	2.9029	0.3346	-29.3615	2.9004	-4.5714	-1.9842	-2.8374	-12.0262
6752.0276	-1.5268	-1.1995	-1.2143	-23.3959	-9.9850	-0.0779	-3.8378	-1.0670	10.9075	0.3981	-30.7528	4.1319	-4.0275	-2.5758	-3.3624	-6.0865
6760.0276	0.1654	-0.9924	-1.0011	-11.2196	-9.0596	-0.4206	-3.3542	-0.9144	16.6889	0.5664	-26.9718	4.0201	-1.1012	-1.8854	-2.6529	-4.5451
6768.0277	0.5554	-0.7680	-0.7813	-6.3766	-22.3413	-0.0287	-3.1011	-0.7290	9.9378	0.5313	-16.9979	2.7066	-2.5391	-1.2568	-2.4344	-9.8186
6776.0277	0.7881	-0.7076	-0.7194	-3.9822	-18.5633	-0.8036	-3.5688	-0.8516	10.9713	0.5216	-12.7445	2.3217	-3.1789	-1.0525	-2.5589	-13.2681
6784.0277	1.1709	-0.5645	-0.5770	-7.2882	-21.3187	-0.1586	-2.6095	-0.8380	13.1751	0.4255	-13.4044	2.9488	-2.6194	-1.2919	-1.9535	-12.4392
6792.0278	0.1908	-0.7208	-0.7358	-6.3831	-27.6557	0.8673	-2.5496	-0.4642	13.3362	0.3707	-12.3126	2.9362	-3.6189	-1.2995	-2.1817	-5.2144
6800.0278	0.5453	-0.7593	-0.7652	-0.1256	-15.7458	0.9050	-2.2472	0.0025	11.2126	0.4373	-7.8833	2.2500	-1.9700	-0.6632	-2.0137	3.8927
6808.0278	0.7552	-0.7294	-0.7283	6.3358	-7.6575	0.5351	-1.7095	0.5495	8.2604	0.4107	-7.7446	1.5253	-1.7818	-0.0001	-1.5731	10.1994
6816.0279	-0.3991	-0.7634	-0.7597	12.3518	-3.9375	0.3184	-1.9707	0.8412	13.0734	0.2333	-9.4603	1.3356	-3.3502	0.1847	-1.5772	15.4089
6824.0279	-1.4910	-1.0035	-1.0190	-6.8405	-24.4716	0.5277	-0.9564	0.5549	10.2774	0.3724	0.1181	2.1034	-2.3576	-0.8762	-1.6619	16.4237
6832.0279	-1.7545	-1.2617	-1.2905	-23.0675	-38.0294	0.2751	-0.3323	0.3640	6.6131	0.5398	4.2849	2.8974	-2.2280	-1.6877	-1.8645	15.6379
6840.0280	-0.6452	-1.0511	-1.0615	-21.2183	-7.2242	-0.1755	-0.3490	0.3756	2.4251	0.3824	-2.8668	2.5029	-1.6811	-1.2916	-1.5346	14.9333
6848.0280	0.0311	-0.8790	-0.8827	-26.3940	8.2677	-0.8872	0.0733	0.2542	-3.3741	0.2672	-4.7990	2.2160	-1.7079	-1.2504	-1.1465	10.9985
6856.0280	-0.4461	-0.6133	-0.6184	-24.2883	3.6243	-0.3867	0.6765	0.2689	9.0432	-0.0889	-1.9190	2.9891	-3.4556	-1.4924	-0.4633	11.8825
6864.0281	-0.8473	-0.4506	-0.4618	-27.8270	-3.6200	-0.3666	1.5198	0.0605	7.2660	-0.1072	-0.1230	2.8413	-1.8199	-1.6985	0.1071	9.5062
6872.0281	0.3738	-0.5922	-0.6115	-34.1750	-15.8717	-1.6976	2.3947	0.1235	-2.1141	0.2698	-2.0236	2.8174	-0.3168	-1.6627	0.4082	5.4225
6880.0281	1.5861	-0.4626	-0.4726	-30.2398	-8.3397	-0.8567	3.1023	0.5339	3.8411	0.1272	-1.1238	3.4680	-0.6599	-1.4149	0.9530	11.5805
6888.0282	0.7105	-0.5239	-0.5389	-40.0040	-5.4695	-1.2257	2.0598	-0.1663	-6.1310	0.1843	-1.0451	2.7559	-0.6287	-1.8616	0.1165	1.6794
6896.0282	0.3014	-0.5515	-0.5735	-41.9763	-13.4579	-1.8235	1.0189	-0.6219	-8.1430	0.2279	-2.8777	2.5280	-2.1963	-2.0874	-0.4830	-8.5580
6904.0282	-0.1218	-0.6667	-0.6841	-33.1216	-13.2135	-0.5864	0.7570	-0.1082	-2.2088	0.1693	-0.4770	2.5927	-2.7769	-1.7524	-0.7167	2.0216
6912.0283	0.0253	-1.0851	-1.1051	-29.4870	-18.3922	-1.1891	-0.4103	-0.0151	-10.3462	0.6464	-3.7032	1.9239	-1.4279	-1.4059	-1.7523	2.6496
6920.0283	1.3522	-1.1751	-1.1861	-21.3650	-11.7714	-0.8984	-0.6661	0.4222	-8.3970	0.7701	-2.1733	1.9452	-1.2623	-0.8198	-1.9142	8.4206
6928.0283	0.8496	-1.5381	-1.5427	-25.6998	3.7052	-0.8248	-1.5147	0.5911	-8.0925	0.7821	-1.3071	2.2648	-2.2511	-1.0110	-2.8324	16.5803
6936.0284	1.2672	-1.6119	-1.6237	-33.4994	-2.7228	-1.6363	-2.4800	-0.1895	-4.4408	0.9044	-7.8222	3.3808	-2.8971	-1.8002	-3.4021	4.2169
6944.0284	1.7860	-1.5449	-1.5628	-30.6017	-17.1963	-1.5178	-2.3844	-0.2225	1.0050	0.9615	-1.1969	3.6589	-3.2727	-1.7599	-3.2844	1.7447
6952.0284	1.4020	-2.1753	-2.1963	-31.5018	-17.6352	-3.0389	-3.5625	0.1364	-8.7777	1.4146	0.3650	2.8420	-3.6631	-1.4227	-4.5785	6.7378
6960.0285	2.6827	-2.3143	-2.3319	-31.4954	-14.4708	-3.5093	-3.7018	0.2184	-6.7081	1.5863	-3.0954	3.5485	-3.4310	-1.4017	-4.7154	7.3530
6968.0285	2.3677	-2.4243	-2.4459	-30.6231	-21.3204	-3.8653	-3.8295	0.3233	-4.6182	1.6267	-3.0223	3.6928	-4.3151	-1.4273	-4.8429	8.1387
6976.0285	2.0019	-2.4820	-2.5031	-30.4401	-16.1797	-4.8320	-4.7315	0.0150	-4.9714	1.6605	-8.4227	3.5569	-4.7097	-1.5260	-5.2582	3.1660
6984.0286	1.8659	-2.3496	-2.3639	-26.8758	-3.8475	-4.6092	-5.1049	-0.2248	3.0477	1.5401	-4.0446	3.7162	-3.5206	-1.5586	-5.2479	5.2523
6992.0286	1.6189	-2.7311	-2.7489	-17.5791	-11.1866	-5.9681	-6.4715	-0.0035	3.2263	1.9102	-0.2840	2.9904	-3.7286	-1.0106	-6.1951	7.4173
7000.0286	3.9219	-2.2773	-2.2834	1.7455	-6.3697	-5.9092	-7.0088	-0.0208	8.8292	1.9068	2.2839	2.3132	-3.2278	0.0638	-5.7554	0.2338
7008.0287	2.8357	-2.0552	-2.0492	16.0261	11.9893	-5.3245	-9.0340	-0.2661	10.3502	1.6427	5.2992	0.7094	-4.4234	0.7080	-6.5188	-2.6485
7016.0287	1.5132	-2.3232	-2.3174	22.0164	14.9790	-5.8604	-11.6172	-0.7466	21.5354	1.6619	0.0354	1.1796	-6.3323	0.3724	-7.9579	-5.7175
7024.0287	3.2814	-1.5045	-1.4844	40.7634	24.8533	-4.8259	-11.4640	-1.2994	50.5955	1.2569	0.9316	2.6231	-4.3192	0.5099	-6.5876	-10.5079
7032.0288	2.3349	-1.4264	-1.3923	64.8022	37.2130	-4.3749	-12.4502	-0.4951	40.3286	1.1919	-2.5225	-0.2346	-4.7697	2.1975	-6.8174	-3.8394
7040.0288	2.2288	-1.7966	-1.7589	72.3242	33.7377	-3.0117	-12.4372	0.6431	20.3204	1.4729	-0.3665	-2.2589	-4.8065	3.3764	-7.4463	8.7038
7048.0288	0.8760	-1.7567	-1.7232	72.5489	29.2178	-2.2204	-12.7589	0.3311	22.0079	1.4161	-0.1206	-2.4115	-3.6925	3.0789	-7.6295	8.4597
7056.0289	-1.7918	-2.2414	-2.2175	65.5779	23.5929	-2.5291	-14.1560	0.1046	15.9116	1.5127	-14.3705	-2.4248	-5.0568	2.3863	-8.8938	8.0216
7064.0289	-0.0395	-2.3167	-2.2939	50.2277	23.1431	-1.5978	-12.5553	0.0166	16.1948	1.6901	-11.1697	-0.7119	-1.9547	1.6484	-8.4084	12.3934
7072.0289	0.6655	-2.1949	-2.1625	58.2212	38.4195	-3.0458	-13.1703	-0.1474	17.3907	1.7339	-18.8171	-1.0898	-0.9967	2.0788	-8.2752	8.0852
7080.0290	0.9297	-2.2363	-2.1957	66.4991	42.9900	-2.1878	-12.9933	0.5456	15.5554	1.6642	-24.9593	-1.3445	-2.0778	2.6651	-8.1529	15.7380
7088.0290	0.8475	-1.9352	-1.9054	52.6224	24.4559	0.5085	-10.3424	0.4583	19.7552	1.4435	-14.7749	0.0143	0.1983	1.7388	-6.8625	20.5091
7096.0290	-1.8338	-1.3348	-1.3146	54.0355	13.0828	0.6142	-9.6094	0.0708	16.9366	0.8852	-19.7091	-1.2699	-1.6475	1.5934	-5.7732	9.3545
7104.0291	-1.5847	-0.3419	-0.3231	45.2031	8.7502	3.2090	-5.2410	0.2081	17.1541	0.2139	1.7485	-1.5307	0.8670	1.4772	-2.8394	13.0025
7112.0291	-0.7510	0.3637	0.3705	24.6565	-6.1042	4.4545	-0.3893	-0.0054	15.5991	-0.0398	19.3282	-0.7291	6.1387	0.6759	0.0576	13.9247
7120.0291	0.0004	1.4601	1.4764	32.7229	-1.0491	4.9690	3.4013	0.6900	9.1017	-0.7698	16.7791	-2.1709	5.6422	1.7060	3.3709	11.6069
7128.0292	1.0490	3.2332	3.2644	26.6540	14.7081	9.3011	9.6049	0.9500	8.1377	-2.0695	30.8338	-2.6326	8.2525	1.8748	8.0957	13.7830
7136.0292	-0.2275	4.0027	4.0236	13.5635	3.1701	10.9069	12.3087	0.2729	4.0165	-2.5811	24.6044	-2.4475	10.5380	0.9350	10.1296	3.8286
7144.0292	1.5977	4.3303	4.3520	26.4508	-7.3068	9.9245	13.7441	0.7650	3.8880	-2.4628	25.9542	-3.0959	11.8729	1.9476	11.5241	2.1687
7152.0293	4.1016	4.6751	4.6968	23.0609	-13.2785	9.9337	15.8224	0.8032	4.8045	-2.3982	29.4754	-2.3387	14.2447	2.0003	12.9636	-0.7442
7160.0293	4.1411	4.7602	4.7792	15.5655	-16.9345	10.7517	15.5532	0.3337	3.3865	-2.5317	13.8857	-1.3572	12.7985	1.2702	12.8369	-10.3588
7168.0293	4.6202	5.2070	5.2417	24.7994	3.5950	11.7984	15.4442	0.3744	6.0205	-2.9050	18.4431	-2.1320	12.4038	1.8636	13.2594	-10.0913
7176.0293	3.1642	5.1041	5.1359	21.6873	4.2362	11.7322	15.2074	0.3004	0.2309	-2.9366	12.6122	-2.6054	12.3514	1.6698	13.0015	-9.9757
7184.0294	3.2976	4.4432	4.4610	12.9800	-16.9486	11.0782	15.4094	0.5797	-3.9903	-2.3689	8.1308	-1.5996	13.6102	1.2191	12.3548	-4.2152
7192.0294	5.3078	4.3286	4.3455	7.9579	-18.9841	10.2741	15.8051	0.4264	-2.1935	-2.0399	8.7194	-0.5499	15.6833	1.0169	12.4640	-6.1492
7200.0294	5.0188	4.1890	4.2067	1.6617	-15.2519	10.8346	15.1882	0.3389	-4.3566	-2.1354	2.5536	-0.0704	13.4728	0.6072	11.8569	-7.7129
7208.0295	4.2771	3.9401	3.9582	-10.0497	-5.7258	11.6480	15.3137	0.3836	-4.6753	-2.1720	17.7303	0.1744	13.8591	0.1417	11.2939	2.3737
