Time	Fz	Fpz	C3	C4	T5	T4	O1	O2	F7	F8	F3	F4	T3	T6	P3	P4
0.0000	0.3357	0.6479	0.3136	-61.6048	-12.5167	2.8685	7.7137	2.3124	-2.3345	-0.2729	60.1790	0.9400	21.0479	-38.7346	4.8956	-4.9812
8.0001	-0.5952	0.7557	0.4387	-48.6082	11.8278	1.0402	6.6890	4.0586	-2.7627	-0.7398	67.3540	-6.8575	19.9896	-52.2891	5.4259	-13.3475
16.0001	-0.1299	0.4614	0.3483	-50.0684	-8.2868	0.8262	8.0182	-0.7167	-4.0338	-0.1852	73.9169	-5.3096	21.7046	-35.5244	5.1082	0.8878
24.0002	0.1944	0.2038	-0.2874	-52.1788	-4.3382	1.0551	8.4841	-2.4043	-4.3678	-0.1996	77.0694	-2.8252	23.0415	-45.3440	5.4004	6.3119
32.0002	-0.4500	0.0240	-0.0305	-48.2800	2.5816	2.3773	7.5472	4.6866	-4.6407	-0.5285	69.0242	-7.5344	21.4179	-61.4504	5.4309	4.0143
40.0003	0.7182	0.6353	0.3212	-59.8630	0.5697	5.6970	8.5009	3.5152	-5.1061	-0.4401	69.6544	-8.6575	22.6526	-37.3827	5.0101	6.3602
48.0003	1.0602	0.7058	0.3624	-52.3401	29.5104	7.5491	8.3829	-2.1560	-6.9930	-0.9657	56.2526	-16.6108	22.9291	-41.9711	5.3963	3.0660
56.0004	0.8987	0.1036	0.0551	-41.5349	23.3042	8.8974	6.9025	-2.6991	-6.4053	-1.1830	41.0520	-20.8852	19.4829	-58.6250	4.8917	-0.8806
64.0004	0.9231	0.3614	-0.1732	-32.6692	13.5636	10.0353	6.8355	-6.3076	-6.7203	-1.1598	41.8429	-24.1748	18.6595	-46.4037	4.5921	-0.9368
72.0005	0.9599	0.8127	0.7669	-1.6804	44.4388	8.3638	6.7869	-2.1431	-9.6577	-1.2405	35.4228	-33.2243	18.6296	-32.0085	5.2645	9.3245
80.0005	1.3659	0.3193	0.1443	12.2059	33.1707	5.8372	5.3771	-1.7945	-7.5896	-0.9185	33.6503	-29.3981	14.9465	-35.5281	4.5362	11.7125
88.0006	1.2040	0.4534	0.1077	25.4186	0.1533	3.6666	4.1257	0.8831	-6.8241	-0.7000	35.2168	-25.6845	12.0452	-39.4073	4.4267	-3.0925
96.0007	3.1783	2.1991	2.5926	49.6461	18.4002	0.9777	3.7812	22.6410	-7.7291	-0.3830	42.0112	-17.2075	11.6964	-12.4165	5.3132	-2.7225
104.0007	4.3137	2.4390	2.3410	51.5929	49.2713	0.3292	2.7828	15.7724	-4.6009	-0.4134	57.4608	-4.2236	9.3594	0.2655	4.3038	6.0250
112.0008	1.7890	1.1506	1.4670	57.1310	35.1471	2.4021	2.0493	-7.7459	-5.4159	-0.8747	56.2694	-9.8591	7.2798	-16.3153	3.4069	4.9605
120.0008	1.6147	1.4002	2.1943	62.8819	14.8954	3.4456	1.8772	-0.1475	-7.1181	-0.8476	58.6317	-11.3010	6.8713	-19.4434	3.6416	-0.3534
128.0009	2.5852	1.8763	1.8538	57.3129	6.5471	3.7317	1.2855	8.2313	-6.1344	-0.5833	68.6506	-3.1645	5.1134	-11.4910	2.9947	0.4202
136.0009	2.5801	1.5086	2.0766	59.8335	-32.3774	3.8062	1.6075	11.9303	-6.5184	0.1286	64.1403	-0.0446	4.0275	4.4146	2.1512	13.5757
144.0010	3.5174	1.5471	2.3030	60.2606	-32.0869	1.7604	0.8133	20.1673	-4.6666	0.4315	60.9764	0.6183	1.9854	9.4079	1.7265	12.3097
152.0010	3.2005	1.5655	1.7665	58.1375	30.5758	0.1095	-0.9313	9.5036	-3.7363	-0.2474	53.2520	-1.3835	-0.9833	8.3286	1.0936	4.6761
160.0011	2.5745	0.9113	1.1972	53.4863	46.1033	-1.1104	-1.0518	1.5075	-4.3380	-0.1884	38.3734	3.0468	-1.6579	9.5770	0.5239	14.7013
168.0011	2.8114	0.3435	0.2947	49.7199	7.9100	-3.7503	-1.5112	13.5177	-3.0091	0.4089	32.4042	10.3263	-2.9042	-8.3307	0.4930	13.5200
176.0012	2.9355	0.7066	1.0975	59.5661	-15.6244	-5.3991	-1.8169	20.1634	-3.3533	0.7804	27.0945	13.9617	-4.0568	2.0577	0.5518	8.6356
184.0012	3.3117	1.0263	1.8316	66.3885	-2.8059	-5.7827	-2.2283	19.0396	-2.1456	1.0070	24.7552	16.2904	-6.0800	31.4367	-0.4078	19.2656
192.0013	2.4844	0.4073	0.8608	62.8176	-10.9167	-5.4567	-3.0554	12.5805	-1.1022	1.0014	24.1746	12.1427	-8.6622	29.9569	-1.5010	20.1061
200.0014	1.6835	0.1726	0.9426	58.6741	-45.0320	-4.2450	-2.1784	4.3869	-3.6989	1.0459	20.1497	7.2985	-7.1317	29.2816	-1.2819	10.4481
208.0014	2.7209	0.8792	1.2622	58.7870	-14.3148	-3.1507	-2.4561	9.3836	-2.9683	0.6672	23.5469	5.4801	-6.8676	29.4481	-0.8886	5.6595
216.0015	3.3839	1.1927	1.2579	55.1573	22.0129	-2.1773	-3.1748	10.3483	-1.5251	0.1896	22.9212	5.0445	-7.5476	23.2776	-0.8555	1.2713
224.0015	2.9907	0.8829	1.3763	47.6474	8.2280	-0.6372	-2.5305	2.6730	-1.9039	0.1155	16.8575	3.3609	-6.2750	20.4203	-0.8015	-2.7941
232.0016	2.4302	0.7846	0.9410	51.6722	1.2792	0.7026	-2.8879	5.6138	-1.2722	0.0617	19.1487	-3.2428	-7.4690	19.5270	-1.1567	0.6260
240.0016	2.0710	0.4934	0.8758	49.8295	-28.8447	-0.4868	-2.4803	7.1147	-2.3263	0.4805	12.0393	-8.6676	-7.4229	25.7170	-1.3066	-1.5136
248.0017	1.9926	0.1933	0.5614	41.6237	-46.7113	-2.5649	-2.3892	5.4854	-1.8078	0.8208	0.2380	-6.8543	-7.6627	28.3117	-1.5119	-6.9549
256.0017	2.1905	0.5346	0.2847	37.9826	-10.7694	-3.3939	-3.5364	9.1594	0.4052	0.7807	6.3553	5.8133	-10.2074	37.9754	-2.4303	4.8823
264.0018	2.3376	0.4757	0.7166	20.7468	6.3828	-4.1604	-2.9685	8.7033	-0.5390	0.9251	8.4088	9.7920	-9.1127	48.1408	-2.7899	11.7762
272.0018	1.8930	-0.0912	-0.0907	13.1874	5.8027	-3.7977	-2.5855	6.2667	-0.9438	0.8631	1.6161	-0.8739	-8.3732	40.3270	-2.8161	12.2155
280.0019	2.0181	-0.5857	-0.9457	15.8956	-1.6284	-3.3369	-2.7103	3.4440	0.1639	0.9570	7.6189	1.9374	-8.9261	32.1943	-3.1508	20.6950
288.0020	2.2134	-0.9413	-0.9258	7.0569	-10.5156	-3.1915	-2.7099	0.1899	0.7861	0.9690	13.2800	4.9797	-8.7501	22.6641	-3.2876	16.5414
296.0020	1.0302	-1.0630	-1.3610	9.1434	2.1482	-2.5118	-3.4368	-0.1329	0.7979	0.5728	18.5411	0.5172	-9.8717	11.3106	-3.3934	15.5488
304.0021	0.7418	-1.3438	-1.3606	4.3325	6.1145	-4.1609	-3.4737	1.4696	-0.1907	0.5708	33.6752	5.6429	-9.2053	-3.7060	-3.1317	16.1963
312.0021	1.4894	-0.9931	-1.0375	-8.7048	5.0726	-5.2892	-3.6512	4.0454	0.6588	0.6732	39.9723	9.0636	-9.3693	0.6286	-3.2729	5.1155
320.0022	1.1938	-0.3293	-0.8518	-3.2627	2.7262	-4.6880	-3.8306	1.0523	2.1979	0.8461	41.0705	11.5996	-10.9995	33.5930	-4.1548	10.8980
328.0022	0.7613	-0.6160	-0.7652	-5.6783	-0.8468	-5.3069	-3.6455	2.3811	1.9773	0.8853	42.1350	12.7060	-10.3536	25.2799	-3.9463	12.6231
336.0023	0.6477	-0.6356	-1.0389	-10.5928	13.5811	-5.1711	-4.0218	11.0152	2.0055	0.5813	31.1664	10.3341	-10.1290	4.7123	-3.3264	6.6138
344.0023	0.7102	-0.6733	-0.9818	-4.8845	14.3337	-5.9037	-3.1484	7.3590	1.6400	0.7940	16.2741	9.4276	-8.7178	17.6076	-3.0672	14.3157
352.0024	0.4819	-1.5894	-1.8025	-3.6487	4.4858	-7.9160	-2.7415	-0.6017	1.5646	0.8975	0.0718	-0.1056	-7.8513	5.6755	-2.7348	10.2739
360.0024	-0.8146	-2.3511	-3.0156	-2.5544	1.5169	-9.1537	-3.4519	-5.0026	1.8065	0.7412	-12.7607	-5.0413	-9.2209	-12.9338	-2.8262	5.9779
368.0025	-1.0672	-2.4187	-2.6207	-13.2962	-1.2573	-10.2995	-2.4106	-11.5007	0.4688	0.8739	-16.0939	-6.8403	-7.0516	-3.4259	-2.6312	2.4817
376.0025	-0.1007	-1.5992	-2.1032	-20.5072	1.2494	-9.3521	-1.6501	-12.2241	0.7653	0.7913	-19.7780	-16.1161	-5.3809	15.2046	-2.2790	-11.3498
384.0026	0.3252	-0.8125	-1.3076	-3.7848	-12.2345	-7.4449	-1.6723	-2.2402	1.9746	0.9232	-16.9415	-8.8861	-5.7701	25.9516	-2.0395	-3.9890
392.0027	0.0512	-0.6890	-0.7624	-5.6895	-20.8904	-5.1762	-1.4464	9.2503	1.1754	0.9556	-11.5069	5.3971	-4.9613	13.5250	-1.7308	7.9399
400.0027	-1.5149	-0.7439	-1.5008	-20.8916	-11.2791	-1.9206	-1.9217	6.5639	0.3887	0.4602	-18.2097	4.9681	-5.9152	5.8708	-2.2870	5.8428
408.0028	-1.4214	-0.4336	-0.8428	-17.5851	-9.4399	-0.6601	-1.6604	1.9159	0.4859	0.3916	-20.3530	2.2787	-5.7425	20.9754	-2.4303	5.2239
416.0028	0.1535	0.2938	-0.2784	-21.9836	3.9074	0.2020	-1.3280	2.4810	1.5005	0.2993	-12.1414	6.8521	-4.5436	29.2008	-2.1354	0.0896
424.0029	-1.0903	-0.2076	-1.0570	-31.3432	-1.7676	-0.0782	-1.6402	-2.1753	1.6314	0.1674	-13.2388	6.1320	-5.0893	17.0017	-2.4071	-4.2222
432.0029	-1.2709	-0.9304	-1.1703	-28.2402	-28.2774	-2.6809	-0.9295	3.5822	0.9603	0.6349	-20.1007	-4.2232	-3.8362	8.9525	-1.9126	-2.5208
440.0030	-0.7735	-0.7354	-1.6551	-29.7953	-14.3838	-3.9518	-0.9131	1.1305	1.8252	0.6028	-17.2671	-4.4177	-3.5131	12.3929	-1.8114	-5.0184
448.0030	-2.3322	-1.1868	-1.8028	-33.7848	-8.4379	-5.6852	-1.2843	-12.3652	1.2891	0.4387	-15.8712	-0.9903	-4.1968	10.2386	-2.1970	-8.8234
456.0031	-1.4312	-1.3164	-1.8348	-34.2469	-34.2182	-8.5729	-0.4207	0.7665	0.8028	1.1615	-26.3777	-4.4697	-2.8361	14.2845	-1.6996	-5.7559
464.0031	-1.8564	-1.6481	-2.6886	-34.6267	-21.8810	-10.3102	-0.8802	4.9584	1.7630	1.1508	-43.3167	-7.3582	-3.6347	5.4364	-1.6242	-3.8853
472.0032	-4.1242	-2.0923	-2.3486	-32.2138	21.5848	-10.6826	-1.4842	-13.2800	-0.4198	0.2725	-50.2864	-11.1298	-3.7277	-8.1527	-1.4082	-10.6980
480.0033	-3.3578	-1.4474	-2.2840	-31.8549	23.3668	-9.9611	-0.3115	-18.7935	-2.5666	0.2061	-36.2998	-7.0655	-0.7067	-1.0771	-0.6585	-13.4819
488.0033	-3.7476	-2.4422	-3.0643	-25.0546	-12.1218	-10.0526	-0.0244	-25.1228	-2.9661	0.2651	-29.1687	-6.5976	0.2829	-31.6794	-0.1154	-16.0418
496.0034	-3.5678	-3.3661	-3.5949	-13.3264	-12.2729	-11.1689	0.1429	-36.7307	-4.0148	0.0058	-18.8093	-11.6518	1.7455	-62.5785	0.7380	-20.6825
504.0034	-1.9039	-3.0373	-4.1109	-13.9729	-1.0708	-12.1306	0.6432	-29.5027	-3.8724	0.1353	12.5402	-10.2794	3.5572	-67.8038	1.2390	-15.2545
512.0035	-2.5607	-3.4137	-3.6121	-11.2030	-28.8997	-10.7630	0.1815	-2.6551	-4.7231	0.3952	20.8285	-21.3445	2.2066	-85.3269	1.1666	-5.7036
520.0035	-2.2351	-2.4967	-3.0556	-7.8816	-37.4571	-8.0958	0.8687	2.3460	-6.2488	0.6964	29.6234	-22.3559	2.1904	-47.9145	0.4961	7.2600
528.0036	-2.0685	-1.9046	-2.6273	-25.7375	-2.5306	-8.9161	1.2089	-12.8691	-5.3756	0.6467	56.7662	-12.9193	2.6422	-14.3764	-0.5744	11.6420
536.0036	-2.5712	-2.4746	-2.9281	-42.3830	16.0254	-10.6398	0.5457	-4.3864	-5.2281	0.4538	60.8716	-23.2910	2.0798	-36.2921	-0.6264	5.5676
544.0037	-1.7756	-2.6875	-4.2220	-45.5483	-6.2423	-11.6817	1.3523	-4.7208	-5.7701	0.8778	62.5056	-27.2976	3.2826	-34.2363	-0.5432	6.5205
552.0037	-2.0489	-3.5739	-3.9301	-51.5332	-18.5372	-13.2137	1.1746	-18.2918	-4.7559	0.9396	62.5196	-26.8247	2.7909	-41.7031	-0.9662	-1.0766
560.0038	-1.7266	-3.4060	-4.4382	-58.8990	2.3703	-14.0971	0.8999	-12.9742	-4.2662	0.8003	57.0910	-26.8627	2.8513	-48.2019	-0.7319	-4.1956
568.0038	-1.6030	-3.7015	-5.1312	-60.6583	8.7121	-18.0610	2.0119	-14.9897	-5.7378	1.2465	59.2924	-24.9085	5.1985	-42.1244	-0.3490	6.8558
576.0039	-2.5171	-5.2621	-5.2441	-58.1288	8.2030	-23.5886	1.2973	-18.4407	-6.3896	1.4203	51.7439	-35.9152	3.9868	-66.5185	-0.3456	2.5695
584.0040	-1.9937	-5.0111	-6.9926	-43.9074	20.6098	-26.7419	0.5191	-15.5815	-4.8999	1.3739	51.6229	-37.7255	3.0157	-75.9349	0.2220	-3.0782
592.0040	-1.7811	-4.3675	-4.4818	-13.4906	25.4180	-28.7485	1.0998	-10.8633	-5.3200	1.5219	50.9356	-32.7275	4.6928	-62.3295	1.4699	3.3131
600.0041	-0.5891	-3.0658	-1.8056	8.8327	30.4764	-28.1860	1.5136	3.0795	-5.8787	1.8198	46.4266	-24.3940	5.1453	-30.5035	1.9923	14.2737
608.0041	0.9786	-2.2412	-3.0869	15.9948	17.2714	-26.0506	1.4701	1.9137	-3.4718	1.9456	52.7694	-17.1721	4.4394	-16.3291	1.7343	14.6233
616.0042	0.7435	-2.7298	-0.3352	30.9033	5.6528	-21.9701	0.6552	-3.3162	-3.0483	1.3696	49.5238	-27.9996	3.0075	-32.7393	1.8119	1.6156
624.0042	1.8598	-0.8831	1.3955	44.6893	35.2689	-14.4125	0.2448	2.6430	-2.3248	0.7582	60.2101	-20.6781	1.9603	-4.7436	1.5211	9.4380
632.0043	2.2707	0.1898	1.4641	47.4849	36.7537	-7.2574	-0.4260	4.2586	1.1588	0.3257	62.0530	-14.1448	-0.1588	11.1240	0.6862	13.1754
640.0043	1.4402	0.1032	3.8759	50.4295	12.8146	-3.0831	-0.8326	2.5134	0.8732	-0.1007	44.8765	-18.8582	-0.9646	2.5515	0.8201	-3.4862
648.0044	2.8192	1.4604	2.6807	48.6892	16.0940	-3.8423	0.3134	-1.2166	0.4918	0.1405	57.4249	3.4786	1.7775	23.0144	1.4440	-1.1809
656.0044	3.7307	1.1649	2.3907	44.2633	-1.4607	-7.0215	0.2525	1.1883	4.0447	0.6666	54.4550	9.1453	1.3604	23.5888	1.2941	-2.9493
664.0045	3.3979	0.9768	3.4220	43.9707	-6.3085	-9.5471	0.2934	2.0057	4.9425	0.7514	44.7414	2.4182	1.7116	23.2873	1.6796	-13.4796
672.0046	3.2711	1.5544	2.4815	47.8393	40.8233	-12.8655	0.7169	-1.7766	4.0613	0.5073	56.0902	12.7668	4.0964	22.2783	2.6704	-7.4928
680.0046	2.5530	1.0288	3.3689	52.6364	40.7467	-14.0427	-0.1077	2.2151	4.8829	0.5068	49.8837	15.5703	2.5071	9.8433	2.5639	-5.6043
688.0047	2.4106	1.3841	2.1726	41.2877	0.1481	-13.7400	0.4013	6.9485	5.0015	0.9270	46.5789	24.3287	2.9877	14.2983	2.5122	-10.0082
696.0047	2.7518	1.4745	1.7016	28.0324	3.6876	-13.0017	0.5741	10.7196	4.6674	0.8683	39.0917	28.8034	3.7470	6.4080	2.6967	-12.9390
704.0048	2.6078	1.3527	3.9316	39.5275	15.5364	-8.8517	0.0753	0.2433	4.9228	0.3270	22.1973	18.2569	2.2692	15.1326	2.2691	-17.6985
712.0048	3.2439	2.2334	3.7064	53.2331	15.9276	-4.2216	0.3069	-5.1695	5.4020	0.0165	16.8556	17.5168	2.2975	31.7181	2.3073	-16.9972
720.0049	3.3365	2.5508	4.7084	51.9027	22.9819	0.4638	-0.7795	11.0306	6.1648	-0.2742	17.2664	26.4803	0.0760	20.8555	1.8703	-8.3848
728.0049	3.1238	3.2660	4.7404	44.9501	21.5854	4.8942	-1.0391	15.8608	7.3232	-0.5119	25.6885	35.0835	-0.6932	26.7624	1.3748	-4.5879
736.0050	4.8316	4.2604	3.6137	39.3166	24.8747	5.9740	0.0062	17.6693	8.1301	-0.4258	20.9796	36.0378	1.5773	42.3840	1.9107	-8.1716
744.0050	4.6550	3.8081	4.7274	38.9764	14.2844	4.9314	0.4775	5.3668	7.9028	-0.1671	21.8803	41.6004	1.9473	54.3399	1.4810	-4.7451
752.0051	3.0646	2.9760	3.3402	32.4866	-10.4025	2.5507	0.0935	-3.8698	9.2927	0.0149	21.9593	42.7566	0.7289	44.9682	0.9258	-8.9428
760.0052	3.1847	2.7215	2.5857	27.0567	5.1421	0.8463	-1.0340	12.7227	10.0657	-0.0508	-3.2920	30.7456	-1.2866	28.2730	1.0299	-15.8604
768.0052	2.3244	2.4997	2.9126	33.0201	12.8435	-0.1273	-0.1492	-2.0688	7.7310	0.1012	-1.2559	32.2556	-0.1861	50.2273	0.6813	-2.3561
776.0053	2.5559	1.9994	1.0522	22.2180	-12.6242	-2.4995	0.6106	-4.3000	8.4966	0.5943	-4.4515	30.0504	0.9598	48.0544	0.6585	-3.1675
784.0053	2.5465	0.8807	0.3774	7.4975	-5.2129	-4.4281	-0.3592	1.9658	8.4121	0.4255	-20.8002	18.7880	-0.2357	11.5486	0.7620	-16.0978
792.0054	0.0154	-0.8958	-1.1365	9.2128	19.8799	-5.1050	-0.1926	-25.9368	4.4849	-0.2140	-15.9750	8.8324	0.8530	-19.4060	0.7507	-9.8504
800.0054	0.3290	-1.8291	-3.0116	-8.6371	17.1749	-3.5795	-0.6521	-7.8416	4.7009	-0.2319	-30.9850	-9.3508	-0.0969	-51.0479	0.5406	-8.2335
808.0055	0.3011	-1.9079	-2.7716	-33.1944	-10.7169	-1.8951	-0.2530	-1.6286	3.0909	-0.0233	-35.2854	-16.2435	0.0952	-47.9275	0.0355	-18.1322
816.0055	-0.2342	-1.8771	-2.5229	-26.9398	-26.7529	-2.8116	1.2030	-28.6765	-0.6479	0.1186	-31.9301	-19.2364	2.3244	-18.7105	-0.0127	-23.3657
824.0056	1.7803	-1.1864	-2.2404	-7.1867	-10.2297	-3.7533	0.0042	-11.5341	1.5740	0.3519	-33.6743	-20.1070	-0.6150	-6.5249	-0.2199	-16.4262
832.0056	1.0589	-1.2807	-1.5242	9.7785	7.3604	-5.9842	-0.6635	-6.7856	1.6063	0.3096	-11.2956	-10.0306	-1.2998	-17.1416	0.0437	-2.9160
840.0057	0.8934	-1.8851	-0.8866	22.2311	10.0675	-8.1469	-0.6218	-6.3495	0.3315	0.3727	-13.5948	-12.4897	-0.7727	-30.2859	0.6160	1.0633
848.0057	1.8120	-1.3525	-1.5176	33.4576	-15.6186	-6.4300	-1.3025	4.6768	2.4233	0.6170	-12.6653	-12.6958	-3.0882	-23.3351	0.2435	1.5151
856.0058	0.7029	-0.8186	1.3640	51.6506	-49.4273	-3.4931	-0.3573	5.2117	1.2302	0.7430	4.6584	-7.9122	-1.7131	-3.8619	0.5018	9.8939
864.0059	1.8826	0.1908	6.3701	64.1792	-37.6269	1.1391	0.2250	20.0351	0.5949	0.8849	0.8199	-5.6635	-1.5368	36.9163	0.2049	28.5741
872.0059	2.3946	1.4342	2.9756	46.9930	-9.2822	6.5028	0.1117	11.7127	1.6160	0.5278	16.7204	3.3224	-2.6824	64.0480	-1.2451	39.5891
880.0060	2.2744	1.1976	-0.1613	9.5758	1.8481	8.3145	0.7701	2.9029	0.3937	0.1214	24.4365	-4.6699	-0.6066	47.0228	-1.4187	27.8669
888.0060	3.2159	0.2983	0.9685	-12.3026	-4.5741	8.6563	0.2982	10.4832	2.0391	0.2598	13.4005	-16.2709	-1.9022	35.8351	-2.1348	19.8135
896.0061	1.4183	-0.6742	-2.1846	-30.9039	-16.2381	8.4106	-0.6770	-3.5863	3.3862	0.1360	9.3390	-16.3694	-4.5748	21.1398	-3.4453	15.2020
904.0061	0.7809	-1.1698	-2.5565	-55.9229	-8.6383	5.6489	-0.9511	-0.6060	1.6413	0.0162	-8.6573	-23.6644	-4.2960	2.1837	-3.1881	-4.1120
912.0062	0.8591	-0.5941	-0.8494	-49.6691	-11.6964	3.1179	-1.7280	10.5693	2.8355	0.2329	-9.0474	-17.1568	-5.8305	11.3089	-3.0849	-10.5737
920.0062	-0.7136	-0.0387	-1.6129	-37.8507	-6.0853	2.0643	-1.5084	7.0885	2.3649	0.3220	2.7053	7.2337	-5.3157	20.5232	-2.9339	8.4441
928.0063	-0.3209	-0.5482	-1.1830	-52.3507	27.2356	-1.3745	0.1072	-2.2833	-1.1769	0.3616	-2.6807	20.1071	-0.4887	9.7353	-1.8297	14.9483
936.0063	-0.0927	-1.3566	-2.4980	-55.1076	21.7440	-5.8805	-0.4139	-12.3288	0.1421	0.3510	-8.9341	19.0151	-0.6282	-16.4698	-1.3337	-4.3602
944.0064	-0.4612	-1.3468	-2.7559	-40.6896	-4.4016	-9.1536	-1.0927	-1.1992	1.0898	0.6917	-9.7594	22.5366	-1.9045	-27.4419	-0.8230	-8.7771
952.0065	0.1361	-1.4201	-1.7314	-30.8366	-14.5998	-13.6368	-0.0799	1.2819	-0.6804	1.3677	0.1864	27.2485	0.0380	-14.7506	-0.3036	0.6698
960.0065	-0.3076	-1.3995	-2.5764	-28.4513	-11.2127	-15.3294	-0.7520	1.1662	1.4155	1.4921	7.9158	14.3708	-2.2307	1.1301	-1.1720	0.9074
968.0066	-0.8316	-0.9613	-1.5955	-34.2698	1.6468	-13.1370	-0.5871	13.8210	1.4575	1.4462	14.5435	2.7095	-2.4310	18.5285	-1.6493	10.7392
976.0066	-0.0263	-1.0501	-1.8107	-43.8302	4.0514	-11.4519	0.4326	-0.4140	-0.2708	1.2410	20.4444	4.4079	0.1663	15.3831	-1.3505	5.0004
984.0067	0.6314	-0.4229	-1.8004	-46.5511	19.2523	-5.9295	-1.3086	-7.7141	2.5817	0.3971	13.6550	3.6565	-3.3432	12.7488	-2.1318	-15.0175
992.0067	0.3938	0.2742	-0.0997	-41.9140	-2.5230	2.3279	-1.5319	11.9735	3.4325	0.3604	18.5979	7.5069	-5.1313	25.6401	-2.9859	4.8059
1000.0068	1.0085	0.2813	-0.9280	-48.5458	-46.9293	7.0031	-0.2813	22.1220	2.6263	0.7994	22.7620	10.6726	-3.5946	26.4401	-3.1612	20.0439
1008.0068	1.7259	1.1162	0.0459	-54.8282	3.4553	10.5978	-0.9853	17.7165	3.7551	-0.0463	12.6364	-1.2372	-4.5596	39.2908	-3.4252	6.2060
1016.0069	0.7265	1.1215	0.4859	-43.2320	35.1677	12.7059	-1.2892	11.0587	3.2425	-0.5932	7.0038	-8.5042	-5.0999	42.9302	-3.5245	13.2606
1024.0069	-0.0978	0.0813	-1.3408	-40.5157	11.5427	10.2794	-1.0361	12.0184	1.9472	-0.2288	0.8383	-3.4625	-4.5608	17.9672	-3.1860	22.8787
1032.0070	-0.2213	-0.4528	-0.9435	-47.5351	26.1521	6.2078	-1.0840	9.0661	1.1926	-0.1466	-1.8710	-1.7162	-3.9681	8.7834	-2.9190	18.4075
1040.0070	-0.3202	-1.0158	-2.0442	-50.5397	0.7520	3.4466	-1.1403	2.7518	2.0536	0.2733	-8.9186	-2.9275	-4.8181	10.4352	-3.3353	13.3939
1048.0071	-0.4554	-0.9382	-2.0982	-46.6046	-19.0405	2.3500	-1.2103	-0.9032	2.4210	0.4021	-23.0397	-2.7956	-5.2179	14.4090	-3.1756	2.2341
1056.0072	-0.1937	-0.2481	-0.3845	-28.4175	6.8270	2.2674	-0.8754	-1.2333	0.3895	0.0835	-22.2637	4.2969	-3.3838	16.2615	-1.9932	3.2594
1064.0072	0.2196	-0.2684	-1.4993	-17.4860	4.8111	2.8172	-1.4227	8.7387	1.0671	0.2150	-19.6684	15.0510	-4.5534	3.3955	-1.9625	17.9315
1072.0073	-1.1589	-0.5650	-0.9326	-15.6126	10.6956	5.7071	-2.4327	12.5995	1.8592	-0.1212	-22.6527	10.7391	-7.0427	-2.5155	-2.6980	24.3253
1080.0073	-1.5784	0.2705	0.0587	-6.5845	-13.7644	11.2076	-2.2500	18.7957	0.4413	-0.2471	-11.4145	9.3189	-7.4417	11.9554	-2.9300	27.7633
1088.0074	-0.2247	1.5068	0.3647	3.0155	-28.5093	15.9025	-1.9505	20.6455	0.4313	-0.2509	3.2965	17.3647	-7.4642	33.4891	-3.1024	30.7410
1096.0074	-0.4265	1.3176	2.1229	12.5177	21.9487	19.0537	-2.0790	0.9178	0.0990	-1.1795	-1.9465	7.6743	-7.0212	34.7908	-3.0496	29.1000
1104.0075	-0.6768	0.8545	1.0206	20.6150	7.5178	20.4775	-2.4405	1.2313	0.2555	-1.3636	-14.8892	-3.9869	-7.8108	16.9392	-2.8312	23.7259
1112.0075	-0.9948	0.8956	1.3069	36.0234	-8.5153	18.7969	-3.0649	13.7977	0.6946	-1.1017	-22.4231	-5.0527	-9.3503	13.7510	-2.5784	25.1780
1120.0076	-1.5662	0.9324	3.4624	50.3624	15.5780	16.4140	-2.8536	15.5649	-0.5213	-0.9532	-28.5828	1.0757	-8.9349	28.9286	-2.3495	40.7294
1128.0076	-1.0539	1.0537	1.4152	51.5434	-4.6887	12.2961	-2.1472	17.2822	-1.1527	-0.2824	-35.3559	11.0972	-7.7859	34.5243	-1.9348	44.4700
1136.0077	-1.1307	0.4888	1.6932	63.8781	13.1782	7.1381	-2.6055	11.5102	-1.1947	-0.2934	-51.4244	8.2696	-7.9607	23.5019	-1.2467	36.9371
1144.0078	-1.9903	-0.1707	2.9940	64.2723	22.3295	5.8731	-3.1083	12.6716	-1.3880	-0.4557	-65.6663	5.9589	-8.4985	8.3537	-1.0420	33.9767
1152.0078	-2.8465	-0.4292	0.5317	44.1128	-25.7350	4.8928	-2.4746	9.7522	-3.2363	-0.2522	-71.3707	4.4576	-7.0494	-8.9252	-0.6471	13.6877
1160.0079	-2.0288	-0.1703	1.2670	45.3431	-17.3201	4.3280	-2.3147	-12.8665	-4.1423	-0.5276	-73.9828	4.0927	-6.4642	4.3372	-0.5681	-6.8045
1168.0079	-1.2894	0.5989	2.0348	50.4466	7.6041	6.8504	-2.8643	-22.8514	-2.0093	-0.8244	-64.8800	14.1515	-7.9781	27.6196	-1.3568	-3.3448
1176.0080	-2.9735	-0.1423	-0.2821	38.7302	-2.0856	7.6173	-2.7369	-17.4094	-3.4951	-1.0623	-61.4921	3.8260	-7.0545	-6.4512	-0.9882	-3.1658
1184.0080	-2.5060	-0.7954	-0.0791	20.5542	-11.4534	8.0518	-2.1310	-11.1245	-5.6076	-1.0945	-60.4266	-11.5224	-5.1821	-28.0711	-0.5518	-13.4745
1192.0081	-1.3240	-0.1114	0.1460	11.5146	0.7614	8.7402	-2.4079	-7.1875	-3.7020	-1.1640	-54.5371	-16.8828	-5.8436	-13.6164	-0.9150	-22.1158
1200.0081	-2.0746	-0.6783	-0.8769	11.6078	21.5455	6.7774	-2.9368	-13.5919	-3.3000	-1.4811	-59.2481	-22.9989	-6.2188	-30.7993	-0.7301	-26.6996
1208.0082	-2.2744	-1.6419	-1.5811	-4.5887	-4.9182	4.6657	-2.1695	-30.0793	-4.1292	-1.2008	-57.0408	-14.4133	-4.5638	-42.8400	-0.8051	-33.5280
1216.0082	-2.8226	-1.7741	-1.9237	-7.3201	-24.0369	2.0468	-1.6221	-30.2490	-4.4737	-0.9139	-56.7926	-18.1370	-3.4402	-41.6950	-0.4607	-39.2054
1224.0083	-2.0547	-1.2380	-0.4072	11.7689	4.5116	-0.6856	-1.6157	-11.1106	-4.6233	-0.7958	-50.1139	-22.5067	-2.6480	-38.4282	0.5377	-28.8366
1232.0083	-1.3057	-0.6799	-0.3678	10.1921	6.0899	-1.9725	-0.8003	-14.2770	-4.7098	-0.5388	-28.8657	-9.3239	-0.7702	-24.8664	0.7383	-23.3375
1240.0084	-2.1451	-1.1258	-1.6606	4.9089	-8.9210	-3.8298	-0.1359	-24.4465	-5.4813	-0.4987	-33.1721	-16.9265	0.7562	-30.7587	1.0909	-32.7390
1248.0085	-0.6333	-0.9111	-0.9278	4.2367	-1.7138	-5.1673	0.1679	-19.1926	-4.2265	-0.3853	-29.4107	-20.3306	1.9038	-29.8017	1.6017	-37.7704
1256.0085	-0.4742	-0.2505	-0.3112	5.1884	20.1424	-4.3642	-0.0523	-18.7948	-2.3335	-0.6510	-12.3486	-16.7982	1.9003	-21.4795	1.5668	-36.7982
1264.0086	-2.3524	-0.3923	-0.0026	13.0403	20.9376	-2.3716	0.0406	-11.3518	-2.5512	-0.8566	-15.6984	-24.9581	1.9910	-25.7731	1.7141	-24.7928
1272.0086	-2.4536	-0.3381	-0.3149	1.8003	-6.2478	-0.5244	1.7104	-8.6880	-3.5981	-0.5106	-11.6527	-22.2537	5.0337	-19.4531	1.9362	-15.4788
1280.0087	-2.3525	-0.0248	-0.6722	-11.2758	-6.9770	1.0953	2.5108	-18.9876	-4.1546	-0.6738	-2.0153	-17.9960	6.9381	-13.9279	1.9602	-21.0286
1288.0087	-1.2683	0.6124	0.6167	-6.1996	-10.1831	3.1153	2.6138	-16.0045	-2.5565	-0.7269	11.1028	-9.5850	7.4221	-8.9801	2.1889	-21.5162
1296.0088	-0.6871	0.9993	0.9556	0.6150	-23.3111	4.4888	3.1849	-9.8839	-1.5320	-0.6490	19.6038	-3.7539	8.9345	-11.9529	2.8292	-17.4498
1304.0088	-1.6329	1.0254	1.1726	6.7034	-7.0438	5.4638	2.9914	-4.9056	-1.9547	-0.9163	16.5048	-5.5110	8.8727	-17.9376	3.0633	-9.6528
1312.0089	-1.4679	1.4531	1.5693	2.9748	-16.8987	5.6345	3.4624	-5.2304	-1.6228	-0.5409	24.3449	9.0150	9.1061	2.9143	2.5718	0.6881
1320.0089	-1.3228	1.2096	0.6615	-2.7750	-30.6291	3.3407	4.1822	-14.3384	-2.3528	-0.1896	19.8677	19.8176	10.4719	5.0131	2.6898	0.9035
1328.0090	-0.5738	0.7641	0.5839	-2.0581	-16.4325	0.9338	3.7169	-9.9611	-1.3925	-0.2114	16.4607	21.3233	10.4276	-16.1090	3.1862	-1.5061
1336.0091	0.8963	1.2706	0.9456	-5.4473	-20.1964	0.5337	3.8547	2.0623	1.0317	0.0594	25.3332	17.6051	10.6362	-7.1362	3.2474	-3.2709
1344.0091	1.3548	2.0604	1.6791	0.0116	-6.5060	0.9354	4.3761	7.6312	0.9754	0.1153	19.5130	6.4328	11.2386	20.6463	3.3362	-0.7257
1352.0092	0.7613	1.9907	1.9868	9.7245	8.7740	1.6489	3.7620	4.6061	1.7723	-0.0188	28.3262	6.6670	9.5133	28.1762	2.6738	10.7111
1360.0092	-0.8083	1.0943	0.8108	8.4892	-14.8243	3.1327	3.3398	0.8835	1.6841	-0.0849	40.9838	3.2853	8.2093	9.3259	2.0431	16.0424
1368.0093	-0.3447	1.2144	1.1128	4.8167	-23.0549	4.6463	4.2966	4.5620	-0.5324	-0.1673	36.0574	-5.6455	10.6533	3.4994	2.8566	9.3275
1376.0093	1.2476	1.6652	1.5000	-2.2432	-18.5638	6.6872	4.6530	1.4982	0.1228	-0.2011	35.0344	-7.0891	11.1443	17.4041	2.6340	4.0978
1384.0094	0.8880	1.3391	1.0564	-9.5458	-27.3705	9.2317	4.1547	2.6909	1.4254	-0.1638	35.5205	-9.0497	9.0803	20.3582	1.4988	11.7397
1392.0094	0.7047	1.2160	1.1447	-6.6017	-29.4615	8.5767	4.0078	15.3892	1.8097	0.0021	38.1178	-10.5917	8.8221	13.2893	1.6447	19.8963
1400.0095	0.1414	1.0071	0.7007	-3.5041	-4.9555	5.8805	3.4735	11.3362	2.3482	-0.2188	42.2718	-14.1381	8.3930	5.8399	1.8021	17.1085
1408.0095	-0.2104	1.3089	1.1976	-9.6224	31.9208	4.0122	4.2678	-0.7390	1.7257	-0.5675	51.3216	-13.2103	11.2253	12.1300	2.4427	12.8300
1416.0096	1.4940	1.6406	1.4439	-15.3986	24.8484	0.8100	6.1816	0.0579	2.1318	-0.0486	62.7276	-8.8313	15.8369	21.0922	3.5633	12.6661
1424.0097	2.1506	0.9710	0.5831	-17.7872	0.7670	-2.0933	6.3416	-0.9120	3.5624	0.4203	66.9152	-5.0515	16.0847	9.6205	3.6118	11.9933
1432.0097	1.4234	1.0050	0.9484	-15.2317	8.8901	-2.5465	5.8706	-7.0038	3.7766	0.0601	73.1733	2.6276	16.0683	-3.4994	3.9908	4.0271
1440.0098	0.6355	1.0439	0.7396	-9.3183	-4.2832	-2.1388	5.7058	-4.6251	3.4804	-0.0160	77.3860	2.9090	15.9123	-11.9703	4.2594	2.1326
1448.0098	0.5242	0.7478	0.4305	-26.9249	-28.2890	-1.1826	6.2427	5.8906	3.1059	0.3362	85.3260	-0.2261	16.5001	-14.9933	3.8706	7.5130
1456.0099	1.6505	1.4809	1.2487	-50.4291	-7.1102	0.4293	6.8869	14.1023	3.9905	0.2769	88.0205	-15.8555	17.6703	8.6693	3.5295	1.2360
1464.0099	1.5464	1.5961	1.2382	-47.9084	18.0058	2.1872	6.3898	6.3258	4.6249	-0.0601	76.3618	-38.1947	15.6543	32.4517	2.5805	-1.8194
1472.0100	0.7080	0.6565	0.5568	-54.0037	16.6109	2.1141	6.3114	-8.0760	2.8036	-0.2927	76.3082	-38.8062	15.7734	13.6137	2.4110	-5.9086
1480.0100	0.8580	0.1335	-0.1096	-62.9246	8.2120	0.7360	5.7915	-9.9005	2.8502	-0.2896	72.7577	-39.9139	14.9849	-3.4235	2.3319	-17.5338
1488.0101	0.6465	0.0541	-0.1824	-52.5978	1.7890	-0.1166	4.8471	-10.7366	4.2221	-0.0286	61.5131	-36.1497	11.8061	10.9602	1.4113	-11.4961
1496.0101	0.0402	-0.1813	-0.2854	-50.6357	2.5317	-2.2552	4.9074	-9.3532	3.0850	0.1449	57.5923	-24.2086	12.2230	3.3829	1.7100	-4.1955
1504.0102	0.1737	-0.3027	-0.6007	-46.0760	10.5464	-4.8948	4.8714	-3.1597	2.8893	0.2778	59.4309	-27.9670	12.5306	-2.4720	2.1274	-1.9847
1512.0102	1.6131	0.2310	0.0835	-38.3600	22.9026	-6.6354	5.6594	-4.0655	4.3765	0.5454	74.1910	-23.2106	14.2904	16.2556	2.4836	5.3973
1520.0103	2.1173	0.2809	0.0767	-40.6575	20.4177	-7.3128	6.0029	-1.4427	5.4055	0.6284	79.9270	-20.6082	15.4593	10.9773	2.8972	4.5175
1528.0104	1.0967	-0.1105	-0.3518	-36.5803	-3.9597	-6.7249	5.4755	-1.9996	5.8024	0.6820	81.1598	-25.0868	13.7219	6.1819	2.4133	3.4063
1536.0104	1.8366	0.1948	0.0316	-39.8317	-4.8471	-7.3422	6.0351	-3.7739	5.1293	0.7857	89.5739	-10.7213	15.4736	5.1413	2.9006	2.9441
1544.0105	2.0481	0.1435	-0.1346	-42.8762	15.1202	-6.6013	5.0872	-5.6464	6.0200	0.4409	87.6520	-3.1912	14.0573	-7.5986	2.6990	0.1224
1552.0105	0.4963	-0.0322	-0.0786	-33.2641	7.2422	-3.1197	4.1218	-19.8733	6.4275	0.0253	87.5975	-4.1994	11.1804	-2.6719	1.6746	-0.6716
1560.0106	1.3671	0.6730	0.6010	-28.6621	-11.3348	-2.6942	4.7722	0.4440	3.7380	0.3324	80.1793	4.8103	12.9813	-7.8352	2.8312	1.1235
1568.0106	3.1813	1.0681	0.9622	-21.8070	-16.7855	-3.3674	4.0005	28.7416	5.3413	0.9357	68.5967	19.1233	10.9173	-8.5118	2.7787	16.4133
1576.0107	2.7074	0.6703	0.6743	-22.6959	-8.9289	-1.1091	3.4436	4.2046	8.5388	0.8164	62.5311	27.4825	8.2479	14.2349	1.0017	25.8093
1584.0107	1.0715	0.4361	0.1691	-21.4749	8.5124	-0.0325	3.4185	-3.8197	6.1461	0.2206	41.3952	18.3205	8.8278	2.1476	1.5001	18.6990
1592.0108	0.7898	0.8228	0.7421	-1.0148	6.1924	-1.3464	3.0010	16.6113	4.7862	0.1681	27.0527	9.3605	8.7467	-12.0476	2.8334	13.8224
1600.0108	1.3979	0.9523	1.0051	3.4787	0.3681	-1.8006	3.6013	9.5317	5.0168	0.3217	18.2266	6.3334	9.5773	3.1159	2.9387	10.8284
1608.0109	1.2852	0.7184	0.6451	12.6301	11.8876	-1.7986	3.5708	1.4192	4.5897	0.1059	3.4293	4.6484	9.7098	-1.3586	3.2277	10.6922
1616.0110	2.4029	1.5621	1.7202	39.4090	12.7590	-1.8960	2.8678	10.9744	6.5195	-0.0001	-3.2234	11.9127	8.9509	-4.7132	4.2422	4.9531
1624.0110	2.9374	2.3195	2.4006	45.0107	16.4895	-0.9197	2.7902	12.0586	5.5873	-0.1351	-18.0998	12.7997	8.8248	6.7685	4.5734	-4.2731
1632.0111	1.7909	1.6567	1.7489	47.7874	25.2297	-0.9013	2.2974	3.2933	3.1475	-0.4367	-32.9529	5.1702	7.7543	-4.0224	4.3831	-6.8967
1640.0111	2.7382	1.4608	1.7044	54.1460	24.7638	-2.1548	1.5686	6.3161	4.2831	-0.4220	-35.6243	-2.5180	6.3584	-12.0389	4.4322	-15.4639
1648.0112	3.2214	1.3885	1.4768	50.2530	25.4382	-2.7557	1.0936	8.6150	4.3285	-0.2608	-33.8957	-7.5688	4.7562	-4.7410	3.7582	-16.1172
1656.0112	2.6777	0.6094	0.7500	44.8927	-0.1044	-3.0066	0.5418	-0.5626	4.5555	-0.0598	-33.0591	-3.9807	2.7289	-9.4221	2.7736	-17.5752
1664.0113	3.4710	1.1038	1.1887	45.5449	-14.4672	-2.7847	-0.2747	4.1847	4.6755	-0.0389	-40.8127	-2.3390	0.9098	-7.3266	2.6959	-34.0491
1672.0113	3.1389	1.8001	1.8575	63.5934	26.0352	-2.6127	-1.8560	12.6914	3.2261	-0.3123	-41.3528	4.0425	-2.5122	3.7013	2.2137	-22.4655
1680.0114	1.9517	1.0138	1.3060	67.7215	42.2239	-1.2720	-4.0939	8.4329	4.4359	-0.3126	-47.0142	19.5326	-8.8179	6.8714	-0.1055	1.8529
1688.0114	0.5911	0.2362	0.3883	47.9678	22.4809	0.8742	-5.3329	2.5034	2.3692	-0.3711	-66.7429	20.2957	-12.6823	1.1275	-1.7537	-4.7968
1696.0115	0.1898	-0.3304	-0.3380	41.8246	6.5462	0.0194	-5.2355	1.6057	-0.8703	-0.3713	-66.8013	11.5623	-12.2167	-16.5612	-1.4996	-14.8785
1704.0115	0.9827	-0.6025	-0.5247	40.1588	-6.1469	0.0563	-5.2910	2.0143	1.6947	-0.0207	-58.8644	7.6293	-13.3251	-6.2593	-2.3183	-8.6949
1712.0116	0.1435	-0.1410	-0.0210	45.3563	12.7981	2.4482	-5.0734	-11.5370	0.9815	-0.2728	-59.3817	7.9406	-13.7271	23.6727	-3.0585	-0.1170
1720.0117	-0.1171	-0.3663	-0.2059	52.3902	29.4916	2.7818	-4.9198	-22.1605	-0.9957	-0.5854	-60.5776	15.0397	-12.7277	12.7106	-2.6216	3.3303
1728.0117	-0.0073	-1.1886	-1.0477	35.2431	6.4629	2.7471	-6.0439	-12.3135	0.5687	-0.3974	-71.3143	16.3715	-15.3401	-12.1890	-3.3112	-3.0597
1736.0118	-0.4454	-1.2143	-1.0927	25.4091	-3.2100	2.6277	-6.5823	-6.3060	-0.6411	-0.3661	-83.3123	9.7080	-16.8054	-12.7260	-3.6629	-13.4578
1744.0118	0.7043	-0.8588	-0.7187	24.7677	11.3347	1.9358	-6.4286	-10.5461	-1.3221	-0.2589	-84.1503	11.2817	-16.7924	5.5572	-3.9175	-13.6472
1752.0119	0.3327	-1.1079	-1.0172	15.5358	7.6752	1.8479	-7.0047	-10.5052	-0.6777	-0.1120	-83.0159	12.9043	-18.7562	10.9923	-4.9147	-10.6451
1760.0119	-1.1376	-1.7156	-1.6630	10.8716	-17.7448	1.5463	-7.1652	-6.8670	-1.6672	-0.0922	-78.8117	10.0652	-18.9089	-10.7269	-4.8036	-13.9558
1768.0120	-1.9166	-1.7665	-1.7284	2.7207	-6.2969	1.7747	-6.7707	-12.2482	-2.5390	-0.2722	-68.2310	11.8130	-17.7165	-11.6543	-4.8107	-11.3801
1776.0120	-2.2601	-1.3393	-1.3287	1.1332	24.8378	1.4771	-6.4013	-11.5964	-4.3995	-0.4087	-63.9757	14.6369	-16.6400	-0.3450	-4.6902	-2.3384
1784.0121	-1.1759	-1.4287	-1.4115	8.1414	-7.1943	0.9440	-6.1534	2.6292	-4.5060	0.1256	-63.9605	19.1164	-16.3860	-8.8722	-4.2805	3.1953
1792.0121	-1.8090	-2.0434	-2.0485	0.5972	-28.7384	2.0088	-6.6718	6.8132	-3.1702	0.2979	-65.4915	14.7307	-18.3467	-14.9594	-5.1646	6.9665
1800.0122	-2.1644	-2.0904	-2.1715	-12.3906	3.9976	2.4173	-6.9304	12.6393	-4.1057	0.0645	-68.5658	1.8324	-18.8871	-11.4180	-5.6294	10.2401
1808.0123	-0.9841	-1.7616	-1.8488	-21.1260	10.3080	3.0007	-6.5635	10.2283	-4.0452	0.1471	-59.6234	1.1400	-18.3847	3.3309	-5.9837	8.7133
1816.0123	-2.5077	-1.8406	-1.8849	-16.1966	9.5822	5.0590	-6.6576	-5.8003	-3.8477	-0.2291	-51.7705	-2.0447	-18.9330	10.5427	-6.4857	7.8514
1824.0124	-3.1896	-1.8798	-1.8567	-1.9105	3.4665	5.7747	-6.1062	3.8080	-5.5121	-0.3018	-46.0301	-7.0916	-17.1849	-4.4967	-5.4663	16.5158
1832.0124	-2.6923	-1.9660	-1.8775	-3.5789	-17.3577	4.1528	-5.5088	13.0448	-6.1218	0.0609	-34.9360	0.5827	-15.3965	-18.2882	-4.7321	18.3498
1840.0125	-2.9728	-2.0037	-1.9752	-6.6473	2.0137	2.0481	-6.1051	5.6112	-5.3406	-0.1092	-33.2989	3.9021	-16.2297	-18.4928	-4.9185	12.0339
1848.0125	-2.2172	-1.6827	-1.7021	-1.8078	10.9264	0.8608	-5.6586	1.3102	-4.7466	-0.0160	-25.6323	4.8046	-15.2310	-5.7418	-4.7293	13.1217
1856.0126	-2.2180	-1.5643	-1.5597	-2.4366	-17.1539	0.0027	-4.7253	-1.6052	-4.9398	0.2780	-18.6139	4.2479	-13.4527	1.3262	-4.3690	7.8435
1864.0126	-1.8915	-1.2011	-1.2072	2.1956	-18.7266	0.0207	-4.5763	3.3582	-4.7884	0.3257	-20.5611	3.6936	-13.0578	5.5214	-4.0303	6.9167
1872.0127	-1.2832	-0.9281	-0.9825	6.7306	-3.1371	1.0744	-3.8986	-0.3685	-4.4548	0.2389	-15.8771	11.6787	-11.2923	9.8123	-3.6561	16.7701
1880.0127	-1.5140	-0.8064	-0.9498	2.7327	4.0008	2.1745	-3.4970	-0.6906	-4.4199	0.0015	-15.5738	13.1162	-9.7890	2.4460	-3.1671	15.6897
1888.0128	-0.4110	-0.0174	-0.1166	5.8607	6.0899	3.3793	-3.1575	12.4057	-3.4919	0.0568	-4.1931	13.5858	-8.7646	8.5866	-2.6842	18.0576
1896.0128	-0.1925	-0.1394	-0.1307	4.5283	-5.9925	3.2701	-2.4220	7.6278	-2.9137	0.0853	1.4336	12.6310	-6.8699	3.7439	-2.1933	13.7656
1904.0129	-0.3697	-0.2644	-0.2970	-6.6919	-21.8004	2.2657	-2.0992	5.4219	-2.8057	0.0600	-11.3423	5.1538	-5.8092	-3.3337	-1.7260	-5.3675
1912.0130	0.6160	0.7391	0.6815	-5.1854	-11.2290	0.8261	-1.4353	4.5445	-2.0081	0.2736	-2.6168	7.7089	-4.5927	28.4403	-1.6068	-6.7423
1920.0130	-0.1447	0.1781	0.1618	-9.5634	-3.7558	-1.5999	-1.0005	-7.1126	-2.0855	0.2819	-2.0859	9.6466	-3.3700	24.2115	-1.4980	-5.3686
1928.0131	-1.1600	-0.8065	-0.7784	-26.4309	-19.3849	-3.1069	-0.5257	-9.5897	-3.1491	0.3091	-7.4717	9.2121	-1.6779	-4.3811	-1.0573	-11.3114
1936.0131	-0.6103	-0.5424	-0.5748	-25.6709	-0.9462	-4.7791	0.0876	-10.3781	-2.6519	0.3688	-0.8220	7.1414	-0.0587	5.4912	-0.6938	-8.1054
1944.0132	-0.8085	-0.8583	-0.9645	-28.6073	8.7582	-5.7414	-0.1337	-8.4710	-1.5674	0.4047	-11.8668	-2.0819	-0.8205	7.4237	-0.9866	-6.2687
1952.0132	-1.7471	-1.3740	-1.3783	-40.2325	-20.9645	-5.7526	0.6007	-8.4331	-3.5005	0.5803	-16.0669	-3.6976	0.6709	-4.2614	-0.7500	-10.0396
1960.0133	-0.4549	-1.0420	-1.1129	-33.2610	-6.2568	-8.6700	0.7615	2.8945	-4.0431	0.6902	-18.1908	-4.3070	2.0458	-12.1107	0.3859	-13.3801
1968.0133	0.6508	-0.7716	-0.9350	-33.3576	-3.7393	-9.4049	-0.4298	21.1959	-0.6628	0.9773	-18.2939	-0.6714	-0.8311	-10.1433	-0.1797	-9.0097
1976.0134	-1.5840	-1.3448	-1.3756	-41.7215	-41.0033	-6.0459	-0.1043	1.4192	-0.8665	0.9562	-5.0795	3.8810	-1.4906	-1.7919	-1.4761	-4.3936
1984.0134	-1.8239	-1.5222	-1.5701	-38.6419	-28.1371	-3.8594	0.2094	-11.3528	-3.0259	0.4169	-8.3936	-2.0625	-0.1960	-12.1858	-1.0318	-10.5288
1992.0135	-0.2718	-0.7824	-0.8574	-40.0423	-7.9407	-1.2422	0.0154	-4.1262	-1.7209	0.0841	2.7038	4.9546	0.3467	-17.9775	-0.6188	-12.5684
2000.0136	-1.3919	-0.7194	-0.7632	-41.2249	-11.8579	1.8151	0.0511	-12.9336	-0.7004	-0.2611	17.4158	7.6472	0.3938	-17.7422	-0.9645	-10.8148
2008.0136	-2.0476	-0.6806	-0.7435	-46.4374	-19.0969	3.4204	0.3739	-8.6443	-2.2117	-0.3691	15.4207	-1.5420	1.0106	-19.3451	-0.8567	-13.2898
2016.0137	-1.4790	-0.4142	-0.4528	-60.5514	-36.6201	3.5344	1.5656	-8.9879	-3.4125	-0.1216	27.2387	0.0903	3.5358	-11.8602	-0.6129	-18.0337
2024.0137	-1.0816	-0.9194	-0.9981	-59.7256	-33.6045	2.1835	0.9339	-17.4165	-1.2182	-0.1423	22.4191	0.7304	2.1897	-18.4706	-0.9543	-22.7130
2032.0138	-1.1767	-0.8922	-0.9366	-58.3096	-26.3623	1.7525	0.2977	-11.9296	0.0236	-0.1123	16.6667	6.8107	0.8189	-20.2494	-1.1670	-18.2261
2040.0138	-1.8989	-0.5358	-0.5693	-64.6236	-26.0012	1.2511	1.7196	-13.7251	-2.3316	-0.0431	25.1069	8.3860	4.1262	-10.2261	-0.5529	-15.0222
2048.0139	-1.1817	-0.5476	-0.6189	-60.6152	-11.6807	-0.1773	1.4900	-8.5304	-1.8518	-0.0451	22.3523	3.2935	4.0207	-14.5316	-0.2478	-15.8059
2056.0139	-0.7806	-0.4390	-0.4423	-53.1723	-8.2671	-0.8656	1.1605	-6.4313	-0.8534	0.0178	29.8081	14.5248	3.6187	-18.8380	-0.1215	-10.4433
2064.0140	-1.2527	-0.4718	-0.5852	-36.6268	-3.2756	-1.3855	1.3765	-14.0673	-1.8744	-0.2054	30.4164	12.8683	4.6100	-24.6906	0.5953	-11.0038
2072.0140	-0.2347	0.1557	0.0500	-13.9945	4.5123	-0.6193	0.5986	-0.9884	-0.7062	-0.2903	32.8802	8.8033	3.1271	-23.6038	0.9740	-8.9693
2080.0141	0.3257	0.9397	0.9206	-1.9854	-4.6238	1.3264	0.7930	7.7735	0.0952	-0.1407	46.5995	18.5512	3.2808	-11.7908	1.1021	1.4683
2088.0142	0.4664	0.9520	0.8258	14.7965	-3.2772	3.5301	0.7614	2.6559	0.2526	-0.4081	36.0059	11.1323	3.0750	-12.0653	1.3489	1.8759
2096.0142	1.1181	1.4605	1.4709	32.6850	8.0348	6.6290	0.5062	0.5720	0.8036	-0.8139	33.8534	5.8486	2.6570	-7.6273	1.6169	0.3433
2104.0143	0.9604	2.0699	2.1002	43.5436	20.1031	8.4898	0.4517	4.7974	0.3968	-1.0724	35.1917	6.5031	2.7988	-2.9208	1.9633	4.0433
2112.0143	1.1014	2.2252	2.1792	56.2943	31.2820	8.9404	-0.4002	15.8658	0.7394	-1.1917	21.1301	0.4444	0.9838	-6.5955	2.0727	6.4100
2120.0144	1.6881	2.2162	2.3639	56.2592	33.5776	9.4782	0.0959	13.1751	0.6938	-1.1864	13.3758	-3.9283	1.9302	-1.6996	2.2355	5.7749
2128.0144	1.3734	1.7233	1.8542	53.8415	40.0326	9.3941	0.2585	10.6970	0.6520	-1.2780	-11.2451	-19.6628	2.0016	-2.6925	2.2402	2.9701
2136.0145	0.4098	1.2301	1.3003	57.0853	35.3285	8.5578	-0.4352	20.8358	0.6353	-1.0531	-35.3575	-30.8560	-0.4835	-0.8855	1.6511	10.3562
2144.0145	-0.6825	0.5659	0.5731	47.1998	8.2820	7.3501	0.2356	14.5450	-1.0824	-0.5520	-45.3697	-31.2761	-0.4049	10.5066	0.9189	17.2518
2152.0146	-0.9048	0.1667	0.1554	48.9095	-0.5823	5.9325	0.1592	2.8198	-1.6649	-0.4968	-57.5188	-35.9030	-0.9803	13.8507	0.7060	8.7248
2160.0146	0.3230	0.5690	0.8110	59.1416	24.0601	3.7160	0.3395	-0.0679	-1.9917	-0.4989	-49.6076	-30.7596	0.0654	20.4675	1.2721	9.4576
2168.0147	0.6927	0.3536	0.5076	50.2224	35.6529	2.4876	0.1325	2.8842	-0.7515	-0.3592	-41.4262	-26.5736	-0.3313	18.4226	0.8778	15.9919
2176.0147	-0.6815	0.3915	0.4501	44.8710	10.9115	3.9621	-1.5773	11.1160	1.3031	-0.4715	-41.2224	-25.6365	-4.4149	10.5037	-0.0529	5.3295
2184.0148	-0.2760	1.2276	1.4349	45.5352	4.3516	4.1503	-0.2234	3.9389	-2.5572	-0.4883	-34.8734	-16.1409	-0.9599	22.0710	0.9510	-3.3125
2192.0149	1.7539	1.2135	1.3277	49.2091	25.9202	3.0830	0.2513	-0.6962	-2.6399	-0.3887	-35.8417	-8.5152	0.4541	22.3860	1.3355	2.7841
2200.0149	1.7088	1.0100	1.1003	53.3886	26.4993	3.8678	-2.2838	8.2972	3.0695	-0.4583	-23.4024	2.0305	-5.2701	9.9684	-0.0502	7.7131
2208.0150	0.8939	0.9976	1.0271	37.7814	19.3637	4.3814	-1.6618	-1.7774	1.4051	-0.6231	-10.2097	5.1296	-3.5606	7.5363	-0.0144	-0.9777
2216.0150	1.0113	1.0262	1.1265	36.5370	14.1663	4.5783	-1.0404	-2.5415	-0.2412	-0.7330	-14.6430	2.1233	-1.6257	-1.3151	0.7813	-8.9219
2224.0151	0.5614	1.2485	1.5982	55.3999	-2.5433	5.0572	-1.9336	15.3233	1.8289	-0.5634	-7.9763	11.2094	-3.5821	-10.6506	0.9199	2.9113
2232.0151	0.1909	1.0552	1.1676	55.5455	1.3471	4.6371	-1.0463	10.7652	0.0676	-0.4657	-6.3320	8.6731	-1.8937	-5.2183	1.0538	12.0848
2240.0152	0.7647	1.5835	1.6480	51.6108	25.7247	4.7163	-0.8005	4.2829	-0.2526	-0.6477	-9.1973	3.3715	-1.3877	14.5908	0.9428	6.3379
2248.0152	1.1212	2.2806	2.4796	43.1327	29.9261	5.1303	-0.5922	7.5950	0.4877	-0.6315	-0.3682	10.6361	-0.7721	26.5127	0.9333	3.5496
2256.0153	1.3424	1.6058	1.5819	24.2743	13.5757	5.4224	0.2482	6.6891	0.0281	-0.4278	0.1232	6.4248	0.8832	15.7052	0.8533	3.6916
2264.0153	1.4539	1.1436	1.1445	16.9511	3.8051	6.2960	0.2000	6.2467	1.1441	-0.2737	0.9242	0.3633	0.0125	17.6154	0.1120	7.6674
2272.0154	1.0259	0.8757	0.8520	10.6526	6.6122	6.7172	0.6551	0.6697	0.6594	-0.2561	0.4654	-6.2505	0.4848	25.5931	-0.2863	11.9223
2280.0155	0.8818	0.1647	0.0599	1.2792	6.5489	6.2833	0.7523	-1.1790	0.7699	-0.3207	-3.8056	-18.1081	0.8441	11.8277	-0.3133	7.8228
2288.0155	0.5515	-0.3097	-0.2515	-5.4819	1.9724	4.4181	0.2723	0.3425	1.3622	-0.2803	1.6663	-14.4559	0.3225	-5.7528	-0.3126	3.5298
2296.0156	0.0430	-0.6286	-0.6911	-11.4977	0.2946	1.6210	0.0292	2.5743	-0.2019	-0.1725	2.1652	-5.9248	0.4379	-21.9251	-0.0180	0.6181
2304.0156	0.5299	-0.1843	-0.2763	-4.9195	2.3584	0.1133	-0.8670	16.2523	1.1905	-0.0079	5.9256	-2.2191	-1.3787	-20.4716	-0.0371	0.3719
2312.0157	1.0870	0.6374	0.6902	-1.4624	13.2184	-0.5978	-0.9220	17.7870	2.2276	0.1528	12.8042	4.2933	-1.8917	6.0243	-0.3483	3.3882
2320.0157	1.2138	0.8034	0.7859	-15.2887	32.0972	-1.1078	-0.4413	7.4544	1.0752	0.1437	9.8005	9.1179	-1.0704	23.2072	-0.7639	3.2620
2328.0158	0.8042	0.6081	0.5871	-19.2813	39.9567	-0.6154	-0.9716	4.3911	2.1961	-0.0960	12.9436	9.1021	-1.9356	15.2939	-1.0328	0.6399
2336.0158	-0.0275	0.2288	0.2110	-11.0705	16.2534	1.1985	-0.8285	1.0993	1.7975	-0.2809	15.0004	8.2343	-1.3227	-4.4902	-0.5473	-1.6428
2344.0159	-0.3827	-0.0139	-0.0389	-14.8552	-13.1620	3.6559	-0.1389	-0.1922	0.2853	-0.2427	15.2991	10.3745	-0.0049	-14.4992	-0.3351	-1.5850
2352.0159	-0.7903	-0.0021	-0.0414	-23.9938	-8.0897	4.6238	-0.3679	0.5653	0.3327	-0.4527	13.2812	6.7728	-0.3237	-17.8933	-0.5010	-6.9943
2360.0160	-0.7669	0.3068	0.2440	-23.6264	3.4710	4.3769	-0.6940	2.7466	0.7262	-0.5523	0.4279	3.6717	-1.0224	-10.6725	-0.5063	-11.7514
2368.0160	-0.4897	0.8359	0.9106	-20.1517	1.8445	4.3373	-0.0914	1.0438	1.1859	-0.3021	-1.5536	9.9968	-0.3757	13.7574	-0.6259	-5.0926
2376.0161	-0.4504	0.9237	0.9487	-17.4231	5.8557	3.1298	0.9833	-6.8604	-0.3670	-0.2707	2.3297	12.9886	2.3373	17.3025	0.0770	-3.8152
2384.0162	0.2511	0.3122	0.2464	-18.6493	-6.4134	0.5142	1.0719	-6.5568	-0.1086	0.0418	3.3776	15.7868	2.7625	2.1721	0.3375	-4.6714
2392.0162	-0.4976	-0.4847	-0.4599	-19.8176	-20.2851	-1.2448	0.1222	-4.7764	2.3187	0.2399	-1.7833	9.4534	0.1363	-5.8628	-0.4084	-4.8648
2400.0163	-1.8285	-0.2333	-0.2974	-12.4029	-2.9529	-1.2142	0.3350	-5.3519	0.2122	-0.1437	-15.6713	-5.2130	0.9635	-2.3540	0.2154	-9.8313
2408.0163	-1.4162	-0.0201	-0.1449	-16.0687	-2.5037	-0.9618	1.6961	-8.2363	-1.5253	-0.0005	-12.1542	-6.3493	3.7756	9.3352	0.6079	-4.9640
2416.0164	-1.0950	-0.6125	-0.7099	-25.5743	-20.5870	-1.1190	1.8760	-8.5865	-0.3353	0.2407	-7.7352	-8.2658	3.8271	1.7374	0.2635	-4.2754
2424.0164	-0.5279	-0.2623	-0.3693	-21.2847	-15.9802	-0.4369	1.5545	1.2962	-0.6080	0.1379	-7.6276	-4.9843	3.7182	-7.3404	0.7321	-5.5407
2432.0165	-0.8556	-0.5918	-0.6254	-26.3673	-22.1412	1.4177	1.5995	-5.8933	-0.6775	0.1237	4.0234	4.2734	3.4578	-9.7432	0.1047	3.2746
2440.0165	-1.9508	-1.4107	-1.4670	-36.7885	-44.9649	3.0361	1.3062	-16.0499	-0.7693	0.0236	2.9098	1.0529	2.3103	-21.2887	-0.6593	-1.7426
2448.0166	-0.7991	-0.8552	-0.9321	-41.5424	-41.4186	2.6148	1.2620	-8.6735	-0.6334	0.1670	1.4947	4.1475	2.2680	-12.6707	-0.5934	-6.4036
2456.0166	-0.6605	-0.9944	-1.0159	-50.5706	-15.7083	1.5395	0.6573	-9.3219	0.2689	0.1238	2.6340	3.0446	0.8516	-7.0472	-1.3212	-3.4476
2464.0167	-1.6999	-1.0743	-1.1165	-45.7677	-4.8487	0.8120	-0.3148	-5.1235	-0.2471	-0.1253	-1.9523	-2.6048	-0.9096	-15.8123	-1.3535	-7.3243
2472.0168	-1.0875	-1.0080	-1.0281	-41.4085	-24.3519	-1.3236	0.1798	1.8577	0.1409	0.4288	6.7931	5.4958	-0.1291	-11.4471	-1.1229	0.4673
2480.0168	-0.6198	-1.6864	-1.7129	-54.4577	-36.0228	-2.9679	1.0950	-4.1235	0.8735	0.9444	10.0263	5.4929	0.9823	-3.2562	-1.6889	9.6752
2488.0169	-0.4062	-1.2804	-1.3690	-59.1983	-27.2664	-3.2584	1.7452	-6.2167	0.1289	0.9423	4.3106	1.5292	2.3419	11.4558	-1.4791	5.8376
2496.0169	-0.8440	-1.2593	-1.3239	-53.8934	-31.1234	-3.5548	1.8152	-3.2469	0.0406	0.9455	-0.7211	-1.4145	2.5529	9.8177	-1.1719	5.9708
2504.0170	-1.5343	-1.2525	-1.2702	-41.3131	-18.5807	-2.9364	1.2203	4.7438	-0.2941	0.7609	-4.0232	-3.4458	1.4655	2.4645	-1.0272	14.7475
2512.0170	-1.4585	-0.9776	-1.0632	-38.3176	-1.8632	-2.3475	1.3234	3.5386	-0.6347	0.6409	-2.8746	-0.5407	1.7738	9.0163	-1.0006	20.5015
2520.0171	-2.4196	-2.2040	-2.4010	-56.0834	-34.9846	-1.3469	1.4227	-6.3210	-0.6127	0.6066	-11.9641	-9.5212	1.6866	-13.6708	-1.4227	9.3824
2528.0171	-2.5476	-1.5774	-1.6632	-59.5074	-48.3708	0.8323	1.3666	0.1551	-1.2404	0.3919	-7.6213	-9.5756	2.0131	-17.2031	-1.0291	-3.1967
2536.0172	-1.7352	-0.2464	-0.2080	-60.2354	-26.0968	2.3296	1.8221	-1.1995	-1.0546	0.2407	4.7727	-5.8044	2.9712	15.0280	-1.0670	-4.7017
2544.0172	-2.4946	-1.0117	-1.0472	-72.1329	-35.1988	3.1130	2.1188	-14.8030	-1.3514	0.1114	-4.9977	-20.6366	3.0554	13.8774	-1.6017	-12.6900
2552.0173	-2.9292	-0.9158	-0.9920	-69.8847	-39.0851	2.9791	2.3570	-11.9569	-2.1813	-0.0402	-5.0805	-20.8678	4.3450	1.2464	-0.7944	-18.2276
2560.0173	-2.9140	-0.4911	-0.6085	-66.0598	-30.8165	2.6485	2.8213	-4.6053	-2.5337	-0.0417	1.0655	-12.8982	6.0459	-1.9997	-0.0263	-11.7913
2568.0174	-2.1454	-0.3478	-0.4168	-59.6866	-25.8323	2.1249	3.6881	-5.3880	-3.2224	0.0345	1.1969	-11.2157	8.2713	-0.8941	0.7240	-7.7957
2576.0175	-0.3927	0.4253	0.4663	-43.2102	7.1356	0.4715	3.9525	-6.9667	-1.7196	-0.0583	11.6444	-0.4217	9.8933	6.2731	1.6622	-4.2303
2584.0175	-1.0749	0.3697	0.3286	-28.5448	14.5492	-0.6755	3.2532	-7.7893	-0.3460	-0.1953	13.3315	2.2293	8.7246	-0.1350	1.8140	-1.5083
2592.0176	-2.2182	-0.2156	-0.2500	-6.1849	-4.2317	-2.0213	2.8158	-7.6405	-1.5618	-0.1788	-2.6397	-10.8650	7.5451	-12.0013	2.2222	-3.8211
2600.0176	-1.6361	-0.1304	-0.0954	17.1935	20.6539	-2.2988	2.0850	-4.4616	-1.8537	-0.3618	-11.2515	-13.7614	6.2049	-14.4326	2.5180	3.2642
2608.0177	-1.6663	0.6049	0.5904	31.3245	36.8342	-0.6753	1.5670	-6.0527	-1.9513	-0.6707	1.9385	-1.0227	5.4918	-9.3966	2.5970	8.0814
2616.0177	-1.2170	1.1330	1.1318	39.2038	10.6961	-0.3588	1.5764	-6.3720	-1.6525	-0.7091	8.0502	-3.5044	5.8146	-9.7600	3.1903	-10.2321
2624.0178	0.0015	1.6219	1.6389	48.6976	-1.0489	-0.2205	1.3884	5.0746	-1.3609	-0.5329	3.5675	-8.6370	5.2594	-5.2684	3.5246	-15.7711
2632.0178	0.4320	2.0617	2.1312	64.0363	13.9339	-0.5908	1.2320	3.0388	-1.2600	-0.3719	10.1806	6.9692	4.5023	12.3714	3.2338	1.1593
2640.0179	-0.0009	1.1778	1.2830	59.5148	23.7273	-1.4142	0.1953	-8.9964	0.8609	-0.5630	1.0561	2.6495	2.0768	3.1866	2.3712	-3.2383
2648.0179	-0.7779	0.7552	0.7854	51.4781	10.6185	-2.0421	0.0362	-2.9233	-0.9019	-0.5470	-8.0236	-8.3272	1.7835	-9.9607	2.4632	-11.4941
2656.0180	-0.4165	0.8535	0.9174	59.5479	0.1061	-4.8447	0.4039	1.0034	-2.6095	0.0273	0.8974	0.0704	1.9970	2.7207	2.4309	-0.0777
2664.0181	-0.7352	-0.2456	-0.1170	56.2427	4.6455	-5.7919	-1.1924	-7.2415	0.2522	0.0683	-3.9296	-6.2982	-2.4633	-0.2835	0.7427	2.7428
2672.0181	-1.4155	-0.2487	-0.1439	58.9006	-0.3197	-5.9850	-1.1464	-3.4947	-2.2493	-0.0183	-4.2941	-5.6411	-1.8810	-11.8066	1.2769	0.4382
2680.0182	0.2768	0.2892	0.3300	63.3003	-8.4626	-7.6811	-0.6968	4.4235	-2.8471	0.3776	-2.0984	9.1716	-0.5455	-10.1089	2.0148	0.9638
2688.0182	0.2654	-0.1562	-0.1360	53.9428	-2.7687	-5.2247	-1.9213	-8.5027	0.8371	0.0991	-13.8873	-0.3059	-4.2616	-0.6822	0.3492	-6.2648
2696.0183	-0.8407	-0.0038	0.1060	60.0843	7.2053	-3.4128	-1.1623	-20.5314	-2.3570	-0.3347	-15.4442	-11.7067	-2.5203	6.8642	0.7382	-9.4660
2704.0183	-0.0940	-0.0843	0.0194	64.8625	7.7305	-4.7788	-1.4406	-9.3320	-3.1479	-0.2020	-17.4723	-7.4446	-2.5226	-9.4235	1.3117	-7.9114
2712.0184	-0.3406	-0.2377	-0.1731	69.7575	10.5423	-4.2256	-3.4236	5.2060	-0.2154	-0.3073	-26.4971	-5.1942	-6.8147	-24.9935	0.6934	-6.5137
2720.0184	0.3654	0.3951	0.4399	80.2130	18.6921	-3.4999	-3.1523	14.4255	-0.6010	-0.2591	-24.9681	-5.7387	-6.2175	-15.2672	1.1073	0.2075
2728.0185	0.9005	-0.1459	-0.1963	66.0229	2.5913	-2.4552	-2.7742	9.3791	-0.4196	-0.0116	-24.4590	-8.7634	-6.2937	-12.0216	0.3164	2.2264
2736.0185	-0.3961	-0.9524	-0.9231	58.9192	-7.1414	-1.2409	-3.0945	-4.1086	-1.7622	-0.1721	-34.4105	-13.2251	-7.6430	-16.7812	-0.5161	-0.5576
2744.0186	0.9697	-0.5093	-0.4556	60.8068	16.6368	-1.3463	-3.5690	0.5056	-1.7073	-0.2686	-38.3035	-9.9633	-8.2956	-13.5609	-0.4388	-2.1336
2752.0187	1.6647	-0.3310	-0.4053	48.8963	22.2153	-0.9823	-4.6712	8.9465	0.9482	-0.2626	-31.7748	-2.4813	-10.5863	-17.3599	-1.1410	-4.8880
2760.0187	0.4257	-0.2136	-0.1797	48.4416	14.4400	-0.2811	-4.7075	11.6285	0.1682	-0.2488	-23.5791	2.0889	-10.8892	-14.6683	-1.3686	1.0818
2768.0188	0.4691	-0.0164	0.0664	46.8432	12.1279	0.0277	-4.0697	9.4439	-0.0367	-0.1059	-10.5353	4.8500	-9.8331	-2.6654	-1.5054	7.9094
2776.0188	-0.1918	-0.4556	-0.4436	38.3016	-1.9688	-0.5606	-3.6508	1.8310	-0.2593	-0.0307	0.2770	2.9607	-9.0490	-6.0946	-1.6990	5.6277
2784.0189	0.0127	-0.3674	-0.3207	35.4619	-4.5547	-0.5120	-2.8371	-1.0621	-1.5537	0.0412	5.5848	-0.1071	-7.3566	0.4121	-1.4818	5.7113
2792.0189	0.8750	-0.2483	-0.2520	27.8239	3.2484	0.3484	-2.4270	-6.7870	-0.3819	-0.0042	6.3074	0.3132	-6.5125	7.8087	-1.6201	4.0422
2800.0190	0.6528	-0.4192	-0.4257	18.0285	9.6205	0.5054	-2.4546	-0.0320	0.0354	-0.0394	-0.1420	1.5063	-6.2511	-2.0894	-1.5377	6.4872
2808.0190	1.1980	-0.0288	-0.0137	6.8892	6.4759	2.7958	-2.0274	11.9917	0.9196	0.1094	6.5823	5.2229	-5.5961	3.9551	-1.7368	15.1724
2816.0191	0.8698	-0.1977	-0.2364	1.1056	-18.8373	5.2077	-1.5235	6.4477	1.5892	0.0832	14.4190	7.2544	-4.7159	-0.8669	-1.8334	13.3273
2824.0191	0.8676	-0.0217	0.0343	-2.0398	-6.4532	4.6143	-1.2573	12.4144	0.1618	-0.0285	7.2683	8.5836	-3.3507	-8.9665	-1.1068	11.1491
2832.0192	2.1006	0.8503	0.9038	-9.2268	28.8370	4.2036	-1.4264	14.7814	2.3943	-0.1435	9.1787	13.8579	-3.3506	9.7719	-1.2280	9.1488
2840.0192	1.5118	0.9198	0.8354	-7.1519	20.0548	4.2855	-1.3098	1.7345	3.9801	-0.2252	17.1083	17.9764	-3.2364	17.0249	-1.4157	4.8360
2848.0193	1.1479	1.1328	1.0868	-11.6728	20.1790	3.5452	0.0827	-0.8607	1.4535	-0.1535	16.9880	18.8758	0.0881	22.7644	-0.6369	5.7979
2856.0194	1.1152	0.8253	0.8092	-15.8924	16.3279	1.9462	0.5292	0.0142	1.5050	-0.0402	8.3089	14.9218	1.3083	15.9912	-0.1912	2.6672
2864.0194	0.3648	0.3031	0.2509	-5.2172	-12.1078	0.0524	0.0177	9.0289	2.1428	0.2547	8.6699	16.0302	0.1783	-2.4758	0.0441	5.3723
2872.0195	1.1184	1.0011	0.9696	-9.0412	5.0992	-1.0066	0.8143	11.1762	1.7858	0.3579	18.0567	22.4805	2.2709	12.5275	0.4729	8.5042
2880.0195	1.0411	1.0745	1.0431	-15.7421	11.9833	-0.7363	1.3585	-0.0336	2.6796	0.1471	10.8333	24.2647	3.8151	15.2666	0.7492	0.9520
2888.0196	0.1836	1.2847	1.2539	-13.7846	-9.9909	0.3079	2.1901	-0.4101	1.4339	0.1793	12.1751	31.6664	5.7838	12.3584	1.3905	1.6013
2896.0196	1.0429	1.8614	1.8460	-13.1470	2.9390	0.5626	3.3536	-6.7741	0.8365	0.1107	20.4354	36.1118	8.7771	23.8762	2.0734	1.9126
2904.0197	0.5663	1.4682	1.4437	-5.9027	-1.2890	1.8082	2.6776	-8.8057	2.5982	-0.1980	14.9493	31.2660	7.6384	6.1666	2.1581	-2.6910
2912.0197	0.1165	2.1429	2.0854	-6.2972	-16.3372	3.5532	3.0993	9.3507	1.1731	-0.2736	17.7348	24.3497	9.0510	0.5026	3.0501	-8.1525
2920.0198	1.6936	2.9381	2.9191	-8.4057	-7.3941	3.1472	4.3040	18.4405	0.6654	-0.0920	15.6560	16.4667	11.8338	17.6868	3.8654	-10.5843
2928.0198	1.4902	2.6208	2.7225	-8.5215	-4.6535	3.3926	4.3489	14.2778	2.8834	0.0578	17.5494	21.6787	11.2954	24.9621	3.2227	3.2972
2936.0199	0.7699	2.5469	2.6200	-23.5454	-7.5136	3.3987	5.6321	10.9675	2.1628	0.0879	29.8368	21.9414	14.3494	25.2606	3.5350	6.0167
2944.0200	0.2873	1.6493	1.6991	-27.8218	-41.2873	1.8336	6.4469	5.9747	0.8220	0.3223	15.6155	10.2719	15.9735	10.3855	4.0464	-3.7630
2952.0200	-0.1762	0.9516	1.0974	-20.2816	-46.1774	0.6131	5.9537	-4.6215	0.2192	0.3927	-5.8708	7.4368	14.2166	10.5221	3.5812	-4.4238
2960.0201	1.8127	1.5257	1.5412	-18.7596	21.5795	-0.8840	5.7086	-4.1216	0.5423	0.0858	-7.4127	1.2307	14.4584	23.9948	3.7481	-2.5692
2968.0201	1.2709	0.9068	0.8578	-22.2952	27.7535	-1.2659	5.0818	-1.3935	2.1340	0.0589	6.3493	1.0799	13.2122	9.4038	3.2375	6.5097
2976.0202	-0.9355	-0.2662	-0.1134	-38.8446	-7.7594	-2.0529	5.2409	-15.0263	0.6299	0.1245	12.6847	2.0158	13.3076	-8.7479	2.7250	-0.1429
2984.0202	-0.3597	-0.7369	-0.5901	-43.8062	-5.5335	-4.1710	5.0996	-16.4688	-0.8856	0.1724	0.5208	-11.6249	13.0789	-15.0803	2.8038	-12.1552
2992.0203	-1.9433	-1.4504	-1.3936	-36.4434	-20.4888	-4.1414	3.5455	-7.5340	-0.8087	0.3711	-7.3290	-14.6970	8.5023	-20.7450	1.5580	0.3372
3000.0203	-2.5218	-1.4018	-1.3595	-43.1605	-15.8825	-3.8644	3.0681	-5.3680	-2.6047	0.3216	-13.7979	-20.0329	7.0264	-13.7992	0.9789	-2.5325
3008.0204	-0.6231	-1.0287	-1.0663	-42.4529	10.2189	-4.2753	2.7391	-1.8944	-2.7086	0.2736	-18.1367	-29.4548	6.3379	-3.1509	0.8753	-7.5946
3016.0204	-0.9999	-1.7793	-1.7843	-39.9951	-4.3913	-4.1205	1.4780	0.2516	-1.7090	0.4883	-20.7166	-23.6915	2.7402	-12.4680	-0.2493	1.7113
3024.0205	-0.2980	-2.1012	-2.0763	-46.0555	-15.3022	-3.3962	0.6190	2.4128	-1.8018	0.5680	-31.0170	-22.5272	0.4701	-19.7550	-0.8845	-4.1285
3032.0205	0.0821	-2.0654	-2.1307	-45.3695	-4.8420	-2.1898	0.1065	-2.3286	-1.5590	0.5183	-33.1607	-24.1086	-1.3763	-6.6136	-1.7622	-0.7048
3040.0206	-0.2098	-2.2748	-2.3263	-52.9421	-2.8607	-2.4011	-0.2548	-1.9289	-1.6860	0.6946	-34.0801	-17.5845	-2.7737	-1.0008	-2.5837	7.3830
3048.0207	0.4161	-2.3170	-2.3088	-57.6430	-15.7631	-2.7437	-0.8580	3.5181	-0.7797	0.8390	-30.5938	-12.5840	-4.0380	-8.6798	-2.8097	1.7027
3056.0207	-1.4112	-3.2884	-3.2936	-55.7015	-25.9137	-3.0088	-1.4091	-13.2762	-0.8077	0.6374	-23.3006	-19.5667	-5.6133	-18.0372	-3.5587	-0.2689
3064.0208	-1.4795	-3.6057	-3.6510	-65.1851	-18.7134	-4.1471	-1.1000	-12.8367	-2.5735	0.6865	-29.0976	-28.4755	-4.9637	-19.1714	-3.5682	-1.9832
3072.0208	-0.4574	-2.7628	-2.7940	-58.4545	-23.5723	-4.4023	-1.2305	8.1322	-1.7251	1.0392	-30.3405	-23.9833	-5.4314	-8.2358	-3.2875	3.4425
3080.0209	-1.7505	-2.9041	-2.8675	-43.7410	-32.0112	-4.8817	-1.6686	2.8854	-1.1474	1.1078	-27.4124	-19.6456	-6.9893	-1.5371	-3.7121	12.0990
3088.0209	-1.3401	-2.3756	-2.3614	-43.8349	-20.2981	-4.2204	-0.8985	-6.5568	-2.2337	0.9400	-16.3953	-11.8151	-4.8751	7.8024	-3.3122	10.9608
3096.0210	-0.8578	-1.5179	-1.5888	-40.1292	-10.6672	-1.8063	-0.0736	-3.3396	-1.8630	0.6827	-5.3446	-4.7181	-2.2560	9.5708	-2.4009	13.4473
3104.0210	-0.7203	-1.8542	-1.9379	-38.4172	-7.9093	0.7341	0.0626	-1.4160	-1.2305	0.3235	-19.4803	-13.7107	-1.3893	-10.7826	-1.8023	10.9484
3112.0211	-0.2450	-1.1500	-1.1893	-32.2674	-3.2295	6.0114	0.0053	-2.5681	-0.7894	-0.3545	-28.3125	-17.8500	-0.8273	-16.4223	-1.1675	-1.7508
3120.0211	-0.4524	0.4698	0.4452	-9.7547	7.8993	11.2437	0.0337	0.6488	-1.0389	-1.0068	-27.7486	-17.9085	-0.3154	-0.3218	-0.3647	-6.0150
3128.0212	1.0114	1.4921	1.4416	10.7268	12.1628	12.1807	0.5966	8.5805	-1.5483	-0.9538	-32.3837	-13.0218	1.1573	11.6117	0.6665	-2.4647
3136.0213	1.8359	1.5522	1.5154	25.6301	8.1679	10.7134	0.3123	12.8998	0.4337	-0.7779	-34.1435	-1.0277	0.9676	2.7146	1.2247	1.7582
3144.0213	0.5952	0.7810	0.7410	28.7076	15.6309	9.8432	-0.4458	9.6107	1.4388	-0.9653	-36.1299	-3.5996	-0.4497	-14.5299	0.9707	5.7545
3152.0214	-0.7454	0.4132	0.3457	25.1635	13.8732	10.3942	0.2171	-7.6165	-1.4349	-1.2600	-38.7726	-9.7171	1.0483	-15.8083	1.0933	-0.8221
3160.0214	-0.7581	0.7420	0.7408	33.0855	16.1649	9.0743	0.1900	-7.2004	-2.7712	-1.4000	-51.0271	-12.5434	1.6294	-18.5509	1.9335	-13.4251
3168.0215	0.8364	1.4511	1.4705	43.5814	38.4558	7.0199	-0.8231	16.3529	-1.0957	-1.1773	-53.5775	-10.0998	-0.2408	-14.4874	2.1577	-8.2325
3176.0215	0.6167	1.7163	1.6995	50.3793	36.6659	6.8180	-1.0431	14.5021	-0.4694	-0.9202	-46.0062	-1.8005	-1.6769	6.6104	1.3813	3.7252
3184.0216	0.0862	0.9675	1.0352	46.8065	23.4292	5.6772	-1.5094	7.4002	-0.5886	-0.7535	-60.0338	-3.7808	-3.4103	4.3908	0.6852	1.3484
3192.0216	0.3611	0.4576	0.5516	40.7916	20.2275	4.7017	-2.0708	12.5286	-0.8075	-0.6937	-69.7546	-5.3367	-4.4145	-12.4942	0.6355	-3.0951
3200.0217	-0.4381	0.5983	0.6323	52.1438	22.0958	4.5491	-2.2597	10.6620	-1.3881	-0.7479	-69.9610	-4.3900	-5.0017	-6.8343	0.6268	1.1351
3208.0217	-0.3969	0.5418	0.6621	58.2598	33.9638	3.7394	-2.7593	6.5051	-0.9749	-0.6557	-68.9080	-0.1818	-6.6331	4.6915	-0.0358	9.5379
3216.0218	-0.9505	0.2972	0.4696	55.7768	25.7046	3.0143	-2.9772	2.5023	-1.8262	-0.6476	-60.7706	3.1623	-7.0262	-1.4568	-0.2043	6.5967
3224.0218	-0.4532	0.9564	1.0219	66.5642	14.1328	1.1497	-2.8494	14.9004	-3.0656	-0.4210	-57.5231	-7.2270	-6.6887	7.2882	0.4798	-2.1052
3232.0219	1.2846	1.5601	1.5911	72.3975	34.6116	-0.6121	-3.6871	20.8195	-0.4030	-0.1359	-43.4999	-1.4831	-8.9647	29.6005	-0.2746	4.5275
3240.0220	-0.8736	0.5532	0.6070	65.4628	49.7820	-0.5512	-4.4501	-1.0895	0.5268	-0.6105	-33.1967	4.7000	-10.3447	13.9369	-1.1603	7.4852
3248.0220	-1.9002	0.0877	0.1171	60.9584	42.5063	-0.7821	-2.9642	-9.1179	-2.8562	-0.8212	-38.7265	-7.7800	-6.3756	-1.1243	0.0205	-0.3262
3256.0221	-0.2802	0.4462	0.4492	55.0856	23.4607	-1.6301	-2.1533	-3.0460	-2.2628	-0.3417	-39.9560	-2.8679	-4.8735	8.2317	0.3379	-3.0907
3264.0221	-0.5719	0.1132	0.1093	48.7462	6.6413	-2.1140	-3.1628	-0.4607	0.1247	-0.1941	-46.0856	2.1580	-7.4397	1.6739	-0.3685	-7.5158
3272.0222	-0.5938	0.1569	0.2047	53.4474	13.2887	-2.2040	-2.7037	-7.3667	-1.3033	-0.3716	-43.2795	1.8285	-5.9544	-0.9711	0.1673	-10.0473
3280.0222	-0.3888	0.3552	0.4211	56.7239	24.1352	-2.2972	-2.5166	-15.7842	-1.0458	-0.4659	-36.8351	11.7854	-5.2779	3.4927	0.2650	-7.4970
3288.0223	-0.8541	0.2453	0.2354	46.4556	19.3059	-2.4206	-2.7650	-4.5264	-0.1145	-0.2804	-43.0829	11.0334	-6.1532	2.4178	-0.1089	-3.0896
3296.0223	-1.0278	-0.0553	-0.0734	40.0837	10.1562	-3.1642	-1.8768	1.9587	-1.6275	-0.0144	-43.1087	4.7295	-4.3637	-0.6776	0.2026	2.8622
3304.0224	-1.0001	-0.5356	-0.4850	42.3619	0.4173	-4.8053	-2.3948	4.2723	-0.7683	0.1559	-45.8388	0.8767	-5.6383	-9.0296	0.0241	0.9499
3312.0224	-0.5975	-0.4573	-0.3744	36.2461	-6.9690	-5.6354	-2.4737	11.6669	-0.2629	0.5497	-47.2760	0.2602	-6.6372	4.5544	-0.5784	5.2491
3320.0225	-0.4633	-0.9430	-0.9360	15.3225	-6.5202	-6.5253	-1.3903	5.1623	-1.3165	0.9041	-41.9146	3.2308	-4.9154	13.8740	-1.1533	15.1372
3328.0226	-0.8003	-1.9957	-2.0576	-4.0579	-7.6918	-8.3635	-2.1621	0.0160	-0.1781	0.7745	-46.8444	-1.7255	-6.0310	-13.1710	-1.5106	1.1085
3336.0226	-1.7397	-2.2829	-2.2356	-6.7299	-5.2672	-9.6305	-2.8066	-1.5170	-1.1489	0.5036	-57.2941	-8.7535	-6.8221	-27.6071	-1.2828	-13.4947
3344.0227	-2.3940	-2.5642	-2.4936	-11.3328	6.1231	-10.7017	-2.3328	-3.0020	-2.9506	0.6158	-66.2558	-12.7623	-6.1859	-20.0247	-1.4515	-4.9755
3352.0227	-2.6850	-2.9770	-3.0124	-21.6560	-4.1662	-11.5371	-2.4523	-4.7112	-2.3051	0.8050	-71.2452	-11.7293	-6.8646	-21.1176	-1.9497	-5.8674
3360.0228	-3.0073	-3.1314	-3.1149	-21.6513	-19.2517	-12.9101	-2.5810	-9.0021	-3.0214	0.7986	-76.9808	-10.7704	-6.8118	-29.9685	-1.6057	-18.9261
3368.0228	-1.6537	-3.1324	-3.1023	-23.4652	-8.7217	-15.1970	-2.0821	-2.5025	-3.1114	1.0721	-75.9208	-15.3366	-5.5201	-27.9637	-1.2032	-16.6353
3376.0229	-1.6859	-3.3607	-3.3883	-26.7929	-16.5585	-15.7055	-2.0944	-4.9844	-1.8567	1.2871	-71.8397	-12.6338	-6.0761	-22.8905	-1.7197	-12.0866
3384.0229	-2.8854	-3.5242	-3.5134	-24.0343	-34.5856	-15.8566	-2.5966	-11.3607	-2.1826	1.1525	-80.7796	-8.0046	-7.0475	-31.6807	-1.6714	-22.6294
3392.0230	-1.5399	-2.6183	-2.6435	-19.5124	-28.4984	-16.8088	-2.3358	-6.8455	-1.2716	1.2300	-70.0360	3.7721	-5.7714	-24.7108	-0.9612	-26.6004
3400.0230	-1.7663	-1.7530	-1.8182	-11.6197	-20.3880	-15.1910	-2.1078	-14.6656	0.2983	1.1541	-48.7875	24.3526	-5.4085	-3.5823	-1.2142	-15.0110
3408.0231	-2.5472	-1.1568	-1.2156	-11.1528	-1.6571	-11.9375	-0.9891	-18.3802	-1.5474	0.6189	-43.5166	26.4834	-2.0646	-4.2701	-0.2742	-11.7257
3416.0231	-1.4337	-0.3898	-0.4812	-14.7821	5.1008	-9.9879	0.9812	-10.7407	-3.0817	0.4132	-27.2565	22.6033	3.6201	-10.9136	1.5131	-13.8636
3424.0232	-2.3475	-0.8471	-0.8463	-13.7874	-19.7081	-8.5200	0.5784	-7.5247	-1.0619	0.5580	-21.9371	16.7474	1.8205	-12.2851	0.7250	-7.4068
3432.0233	-3.3257	-1.6901	-1.5949	-18.1018	-18.0936	-6.8678	-0.0127	-14.7352	-1.1566	0.2366	-38.9842	-2.4213	0.0162	-20.0524	0.0185	-12.7542
3440.0233	-2.3753	-1.7191	-1.6923	-21.7985	-3.1111	-5.7945	0.3777	-27.1756	-2.5210	-0.0541	-43.7114	-4.8081	1.2246	-20.7278	0.2126	-20.6391
3448.0234	-1.8746	-1.5179	-1.5625	-21.6151	-10.2247	-4.8423	-0.3551	-14.2416	-0.4169	0.3348	-44.6751	8.0224	-1.3332	-11.1680	-0.7137	-4.8906
3456.0234	-3.1908	-1.6413	-1.7157	-26.1752	-24.4392	-4.1433	-0.2854	-2.5160	-0.8855	0.5197	-56.0690	11.2170	-1.5994	-14.6545	-0.8059	5.0363
3464.0235	-4.6833	-1.9977	-2.0822	-33.2620	-36.6999	-5.4312	0.7456	-11.0435	-4.0509	0.5138	-69.2505	8.0255	0.8195	-18.9347	-0.1936	-1.6214
3472.0235	-3.3390	-1.5960	-1.7359	-27.0816	-19.1912	-7.9232	1.2633	-6.5056	-3.5762	0.7346	-71.0084	5.2028	2.1500	-6.7460	0.3711	0.7899
3480.0236	-1.8549	-1.3048	-1.5157	-15.0059	0.3682	-9.6097	1.0096	-6.1242	-1.4578	0.7593	-61.9978	13.3711	2.2333	-7.2193	0.7715	4.2380
3488.0236	-1.8940	-1.4930	-1.6228	-25.4926	-12.8256	-10.3675	0.4792	-4.8969	-0.3452	0.9504	-58.5679	29.3133	1.1215	-15.6473	0.3523	3.1055
3496.0237	-1.9955	-1.4376	-1.4990	-31.3037	-14.5744	-10.4678	1.0194	5.1185	-1.1427	1.1853	-57.1785	35.3113	2.2913	-16.6662	0.5513	14.0555
3504.0237	-3.0177	-2.5118	-2.6245	-28.3345	-18.0691	-10.5129	1.5233	-5.0176	-1.9628	1.1988	-57.9613	27.9876	2.9842	-26.6007	0.3610	26.2346
3512.0238	-3.4937	-3.3485	-3.4595	-51.6187	-29.2443	-9.7764	1.6709	-16.4255	-1.3497	1.1473	-77.1754	15.1984	2.6404	-28.2138	-0.4288	14.2648
3520.0239	-3.4529	-2.6298	-2.7350	-64.1919	-8.6469	-7.6458	2.2487	-24.5515	-2.4396	0.5611	-95.9333	8.3215	4.6457	-20.1752	0.1817	-6.4894
3528.0239	-0.5040	0.8878	0.8676	-8.1533	-11.8231	1.1410	-2.3066	19.0922	-4.8282	0.4307	130.3786	-0.0135	-6.7940	31.7940	-3.4623	18.7267
3536.0240	-1.3780	0.9643	0.9811	-14.8345	-8.6091	2.9942	-1.6436	11.3463	-5.2518	0.2742	142.7288	-5.4871	-5.7410	44.4145	-3.8447	22.7217
3544.0240	-1.9628	0.6340	0.6670	-18.3528	-24.0492	2.9683	-0.7695	5.6797	-6.4518	0.2311	136.7987	-20.3607	-3.8642	41.4462	-3.3911	13.4409
3552.0241	-2.0248	-0.1369	-0.2515	-21.6414	-12.2784	2.4880	-0.6819	-9.8692	-5.6617	-0.0320	139.1392	-25.4514	-3.2596	28.3536	-3.4360	10.3844
3560.0241	-2.3081	-0.8862	-0.9250	-29.0320	-30.5109	1.7765	0.6512	-18.6907	-7.4198	-0.0989	137.7784	-39.6715	0.2611	8.9609	-2.4578	-1.5404
3568.0242	-1.2550	-0.6468	-0.6242	-22.3487	-28.5275	-0.2513	0.1474	-0.5799	-5.8768	0.1439	129.3052	-41.4544	-0.4879	3.4516	-1.9558	-2.3936
3576.0242	-1.2255	-0.3827	-0.4316	-1.1187	7.9614	-0.1400	-0.9889	4.3131	-3.2682	0.0266	133.6697	-33.9036	-3.1268	12.2325	-2.4744	19.9271
3584.0243	-0.8184	-0.1613	-0.1434	17.8524	0.0562	-0.3307	0.3902	-2.9052	-5.4477	0.0398	127.3925	-39.5639	0.0683	17.5551	-1.2111	18.5829
3592.0243	0.6624	0.2531	0.2502	34.6844	-7.3919	-1.4832	0.0045	0.2513	-4.1225	0.1164	128.3716	-34.4247	-0.2454	13.0509	-0.5144	10.2425
3600.0244	-0.4696	-0.1083	-0.1419	40.2923	1.4482	-0.7525	-1.4499	-0.1479	-1.9355	-0.1639	132.8580	-33.0630	-3.4223	2.5029	-1.2751	14.9182
3608.0245	-1.2500	-0.2369	-0.1976	34.0353	-4.7618	-0.5335	-0.5304	-1.1368	-4.1004	-0.0669	122.2489	-43.6381	-1.9654	12.0888	-1.2176	16.2187
3616.0245	-0.6310	-0.2885	-0.3291	31.3906	-5.5249	-1.5349	-0.0924	-3.6011	-4.5452	0.1508	118.9208	-43.4591	-1.3167	19.6560	-1.2579	17.4357
3624.0246	-1.0707	-0.9390	-1.0394	24.2794	-20.7186	-2.3932	-1.0133	-5.6798	-3.1415	0.1908	111.7197	-38.9065	-3.3252	2.7116	-1.7293	10.4069
3632.0246	-1.0431	-0.8900	-0.8744	15.6705	-24.0550	-3.1659	-0.9389	-4.9602	-3.2693	0.2733	103.3559	-36.8748	-3.1308	4.3064	-1.7054	4.2743
3640.0247	-0.5839	-1.2026	-1.1464	10.9774	2.5310	-4.5906	-0.6431	-11.6509	-3.4755	0.1526	98.8205	-41.7747	-2.0896	3.0093	-1.5642	4.6373
3648.0247	-0.7225	-1.7330	-1.7950	-0.6545	-0.7251	-5.5176	-1.4070	-5.9011	-1.7928	0.2609	95.1204	-42.5206	-3.8241	-9.1389	-2.1184	3.5385
3656.0248	-1.2277	-1.1838	-1.2625	-7.0429	-0.2340	-5.1683	-1.6754	4.8955	-1.6320	0.4305	97.6651	-35.5532	-4.8662	4.8840	-2.6137	10.0643
3664.0248	-1.5011	-1.5170	-1.4574	-7.5089	6.8778	-6.2028	-1.2872	-8.4038	-3.6280	0.2517	88.2809	-36.8804	-3.6326	0.2653	-2.2378	2.8593
3672.0249	-1.3227	-2.0490	-2.0372	-13.6768	-22.2978	-6.2022	-1.4969	-23.3959	-2.3456	0.2441	85.7824	-34.5690	-4.1802	-10.0432	-2.4967	-14.4120
3680.0249	-1.3491	-1.3880	-1.5024	-22.6800	-20.7752	-4.1982	-1.3072	-23.6687	-1.2900	0.1911	93.6748	-33.2906	-4.2166	9.8308	-3.0081	-15.2232
3688.0250	-1.1962	-1.4829	-1.5154	-37.1100	6.4267	-4.9417	-0.7624	-19.7400	-3.1019	0.0040	86.9651	-42.6849	-2.2719	3.3727	-2.5137	-18.0640
3696.0250	-1.0082	-2.0095	-2.0255	-42.9705	2.5607	-6.0159	-1.0369	-9.9939	-2.6652	0.0747	74.6033	-48.6863	-2.4700	-16.9271	-2.2096	-21.5869
3704.0251	-0.6331	-1.6991	-1.7994	-38.8900	-15.5583	-5.6347	-1.2420	3.0701	-1.6733	0.3766	65.0016	-46.7991	-3.4354	-12.1317	-2.2289	-19.2190
3712.0252	-0.0376	-1.5285	-1.6317	-49.8629	-24.2046	-5.8781	-1.3318	5.6397	-0.9162	0.6398	71.6852	-36.5741	-3.9324	-6.0702	-2.7087	-19.0709
3720.0252	-0.7865	-2.0474	-2.1755	-60.6563	-0.2678	-5.2868	-1.5086	-4.2158	0.1328	0.4216	70.0026	-37.9921	-4.5681	-3.8493	-3.5414	-11.1252
3728.0253	-1.5567	-2.7282	-2.7991	-55.4093	4.1814	-4.8498	-0.5669	-17.3362	-1.6868	0.2379	49.4702	-46.9876	-2.5641	-9.2276	-3.0524	-7.6496
3736.0253	-1.8226	-3.2113	-3.1772	-53.8202	-22.2782	-5.2424	-0.0327	-24.0766	-2.6316	0.3340	42.8237	-41.9689	-1.1861	-24.3528	-2.4848	-12.8137
3744.0254	-2.9776	-3.3137	-3.3644	-57.3996	-4.5894	-4.9482	-0.7534	-18.1033	-1.8586	0.1640	30.5024	-41.9052	-2.7775	-26.9397	-2.8801	-6.1992
3752.0254	-2.7486	-2.8813	-2.9983	-56.1112	-3.7234	-5.7547	-0.1122	-12.0340	-3.3213	0.4448	29.5910	-33.9349	-1.5321	-15.7603	-2.5699	2.3941
3760.0255	-1.0037	-2.7394	-2.7978	-53.0767	-27.4425	-8.3609	0.5468	-12.9671	-3.0573	1.0290	43.5605	-19.6249	-0.1289	-12.0037	-2.1828	1.7848
3768.0255	-0.5956	-3.1488	-3.1919	-52.5035	-2.5166	-10.0806	-0.5572	-6.5773	-0.7045	0.9638	28.5759	-29.3194	-2.4293	-18.5606	-2.5359	2.0904
3776.0256	-0.7490	-2.9197	-2.9524	-52.3822	5.3366	-9.7279	-0.8369	2.8154	-0.3635	1.0099	20.7806	-26.5498	-3.1784	-14.9888	-2.6502	8.9778
3784.0256	-0.3966	-2.5144	-2.5351	-48.4209	-14.5066	-8.6730	-0.2121	3.9033	-0.4660	1.3358	21.6937	-10.3758	-2.3453	-3.9429	-2.5873	18.0318
3792.0257	-0.2466	-2.5804	-2.6092	-47.7996	-19.3435	-7.1862	0.2257	3.6933	-0.5732	1.3381	8.2787	-12.8460	-1.6742	-2.7550	-2.4512	20.4603
3800.0258	0.1753	-2.2672	-2.2946	-50.5495	-13.8705	-5.8864	0.4584	6.4446	-0.3948	1.1988	5.2543	-10.0237	-0.7591	-5.0396	-2.0829	18.6798
3808.0258	0.4218	-1.9482	-2.0332	-40.2768	14.6223	-5.6386	-0.2349	4.6630	0.9117	0.8285	-1.1247	-1.4716	-1.4769	-9.9728	-1.7745	19.5460
3816.0259	-0.6780	-1.9035	-2.0026	-29.2434	27.1300	-4.5529	-0.8229	-1.5642	0.6863	0.3156	-14.5907	2.8285	-2.0392	-21.8389	-1.3422	15.4001
3824.0259	-1.4178	-1.4194	-1.3752	-27.7928	20.0171	-4.1111	-0.7285	-0.5894	-0.7006	0.0551	-19.9652	9.8157	-0.9254	-30.7444	-0.4479	3.2116
3832.0260	-0.1535	-0.7508	-0.6677	-11.3156	33.9265	-5.9678	-0.2736	1.9083	-1.5868	0.0630	-21.4822	7.9667	0.7479	-23.8877	0.6835	-1.3043
3840.0260	1.4995	-0.4828	-0.5212	12.2461	44.5025	-6.9869	0.0685	-2.8601	-0.9928	0.2343	-28.4775	5.8271	1.1341	-7.8010	1.0564	5.1399
3848.0261	1.5807	-0.5662	-0.5385	28.5807	53.0638	-6.7547	-1.2323	-3.7612	2.0220	0.0608	-46.2872	10.7364	-1.7155	-12.6300	0.8337	6.1952
3856.0261	0.8827	-0.3632	-0.1998	47.2695	60.5428	-5.9242	-2.0556	1.1503	2.5881	-0.3302	-53.2997	10.9000	-2.7452	-26.7506	1.4622	4.2877
3864.0262	0.9908	-0.0911	-0.0351	49.7898	45.0522	-5.3297	-1.1515	2.9811	0.5722	-0.2902	-48.6991	11.2852	-0.4446	-30.1693	2.2893	1.2652
3872.0262	1.5755	0.0976	0.0719	41.9213	30.1251	-4.8915	-1.3944	1.4408	1.7190	-0.3846	-49.3446	10.7175	-0.6276	-35.8076	2.4097	-17.3858
3880.0263	2.5712	1.4144	1.4904	47.8817	35.0691	-1.9290	-1.3370	-1.2149	2.8166	-0.6612	-45.3703	12.9914	-0.5195	-11.5599	2.5130	-28.1964
3888.0263	3.4049	2.2774	2.3842	50.1141	44.9628	0.4103	-0.2238	-5.7953	2.3983	-0.5667	-36.4139	21.2758	1.2368	19.9445	2.3526	-15.4500
3896.0264	2.5229	1.3390	1.3417	48.0035	38.1227	1.3654	-1.0330	-6.5674	3.6770	-0.7413	-36.6803	13.6967	-0.5854	-2.3565	1.8312	-13.9586
3904.0265	1.4659	1.0796	0.9876	46.7796	25.7911	3.1210	-1.6978	-1.5450	3.1237	-0.9868	-48.3688	2.9264	-2.0715	-15.9032	1.7214	-21.9607
3912.0265	1.5236	1.2399	1.1592	38.2993	20.0058	1.7050	-0.7213	1.5124	1.4344	-0.6320	-52.5964	4.6822	-0.2676	-3.9029	1.9236	-18.8243
3920.0266	1.3778	0.9546	0.9102	38.5482	16.3472	-0.1503	-0.7213	5.7597	2.3309	-0.4389	-45.9996	0.2968	-0.2678	-7.5677	1.9453	-16.0384
3928.0266	0.9275	1.1310	1.1036	43.3113	22.1483	-0.5062	-0.8977	5.6356	2.2248	-0.4563	-44.2585	0.3554	-0.8073	-0.0123	1.8055	-13.1726
3936.0267	0.9879	0.7722	0.7965	39.7123	8.4862	-3.1299	-0.4247	-1.1359	1.4991	-0.0997	-42.9953	8.6516	0.0632	0.3792	1.8396	-12.9177
3944.0267	1.7422	0.7540	0.8094	46.1068	-13.2031	-3.8009	-0.4219	3.1487	2.5526	0.1745	-44.4336	9.1181	-0.1017	-2.2588	2.0705	-16.0095
3952.0268	2.3412	1.4725	1.5503	61.0953	0.5222	-3.0832	-0.0404	7.7927	2.3173	0.2790	-44.3179	12.7235	0.3390	18.7663	2.2386	-2.3611
3960.0268	2.1359	1.1404	1.1993	65.7260	10.1689	-3.5267	-0.0773	2.0248	2.3393	0.2723	-33.4074	20.2469	0.3340	14.5155	2.0583	9.1340
3968.0269	1.5628	1.1640	1.1667	69.4437	4.3444	-1.1322	-1.0309	-1.0904	3.6789	-0.1221	-30.3941	23.7165	-1.4247	2.0447	1.8442	1.9818
3976.0269	1.2702	1.7663	1.8384	81.9308	-6.4162	0.8729	-0.4181	2.4769	2.3243	-0.1093	-32.9990	25.1718	-0.3952	13.3935	2.2993	7.3105
3984.0270	1.7469	1.6279	1.7433	91.8964	-20.6638	0.5626	0.3318	7.8925	1.5374	0.3092	-34.5249	24.0688	0.5846	18.9244	2.5169	20.8925
3992.0271	1.9948	1.7100	1.7849	94.5771	-14.4446	1.6426	-0.4242	4.1949	3.5033	0.2732	-36.4361	28.9847	-1.6466	28.7979	1.6784	24.7617
4000.0271	1.5220	1.6215	1.7236	83.5086	-24.3621	2.9394	-0.1333	-2.5416	2.9971	0.3696	-27.0115	36.3399	-1.6403	37.2623	0.9523	29.5615
4008.0272	1.4463	1.0250	1.1209	68.2630	-27.3306	3.1828	0.0658	-5.9288	1.7700	0.2346	-30.3484	28.3711	-0.8713	21.2975	0.9886	20.6098
4016.0272	1.5644	1.3234	1.4425	77.7374	3.6004	3.8568	-0.9141	-7.9634	2.5537	-0.3452	-44.2917	22.7698	-2.1952	15.9769	1.2823	10.4899
4024.0273	1.2922	1.8906	2.0777	83.0261	-17.1922	5.0357	-0.5751	2.3621	2.4014	0.0226	-32.0507	37.2138	-2.0731	28.0248	1.1720	25.1235
4032.0273	0.3164	1.2700	1.4082	56.4170	-41.4527	5.2325	-0.4870	6.2543	2.4288	0.2594	-28.5973	36.2756	-2.3642	19.5491	0.4243	23.6397
4040.0274	-1.1176	0.5111	0.5833	32.4182	-21.9671	5.6639	-0.4199	-8.3103	1.5239	-0.2573	-41.2306	15.7206	-2.0536	13.5934	-0.0671	9.4243
4048.0274	-1.4035	0.3908	0.4352	19.6650	-38.3124	6.3365	1.5596	-19.4191	-1.9300	-0.0981	-32.2417	13.5930	1.9545	22.4216	0.2604	10.4845
4056.0275	-0.9207	-0.0213	0.0417	12.9603	-45.4795	4.9404	1.2280	-23.8816	-1.8108	-0.0830	-27.6638	19.2707	1.7790	5.7051	0.3234	0.9474
4064.0275	-1.7537	-0.2829	-0.1820	12.3841	-13.7447	4.6102	-0.3720	-21.8960	-0.4511	-0.5501	-30.5177	17.9809	-1.0088	-9.5233	-0.1047	-0.5783
4072.0276	-2.5285	-0.2407	-0.1592	2.7955	-11.9656	5.8594	0.9052	-14.1309	-2.8295	-0.4977	-28.4560	11.5307	1.7055	-7.0834	0.2739	10.3807
4080.0276	-0.9294	-0.0351	0.0586	-3.3181	-32.5307	5.9153	2.0431	-6.6072	-3.0501	-0.1741	-32.1244	3.4732	4.1271	-4.6916	0.9628	2.9400
4088.0277	0.5002	0.6524	0.7137	1.4847	-38.6441	4.9936	2.2786	-5.7741	-1.9440	0.0558	-24.0481	10.9779	4.6682	8.6592	1.2331	-1.9491
4096.0278	-0.1063	0.1695	0.1617	0.0327	-22.2365	3.1243	1.9811	-10.6328	-2.2156	-0.0570	-26.3041	9.5482	4.3679	0.2762	1.1761	-0.6981
4104.0278	-1.0389	-0.7897	-0.7763	-10.9925	-5.3280	3.1435	0.8785	-9.7307	-1.1538	-0.3124	-41.9471	-7.9113	1.7393	-12.8945	0.2844	-2.1480
4112.0279	-1.5561	-0.5774	-0.5975	-22.2500	0.3910	3.1297	1.4832	-9.4060	-2.2464	-0.3818	-35.6970	-14.3691	3.1786	-6.0922	0.3765	-5.2742
4120.0279	-0.8516	-0.5567	-0.6113	-20.8793	0.5825	0.6696	1.9798	-5.4623	-3.5615	-0.3217	-26.1568	-17.2711	5.2813	-19.3332	1.4274	-12.8802
4128.0280	0.0738	-0.3601	-0.4093	-15.2071	-14.1902	0.7824	1.0780	-0.1594	-1.3010	-0.0677	-8.3991	-7.0762	2.9260	-17.2213	0.7901	-10.0797
4136.0280	0.2610	0.2099	0.1303	-17.5127	-7.6044	0.7745	0.8218	-4.8867	-0.5792	-0.0826	11.5988	4.5113	2.3380	-3.0962	0.3185	-10.2664
4144.0281	1.0335	0.1063	0.0552	-22.6548	7.8363	-0.7268	0.8153	-1.5148	-1.0680	-0.1086	15.2878	-0.8437	2.9022	-10.1089	0.5887	-13.9955
4152.0281	0.9719	-0.2582	-0.3692	-26.7390	-19.3854	-1.0922	0.7871	1.2984	0.0622	0.2910	25.8733	2.6488	2.1422	-11.1004	0.0319	-8.6426
4160.0282	0.7067	-0.3616	-0.5235	-22.1654	-25.1422	-2.5442	0.3837	2.7460	1.1617	0.4160	26.3898	4.0459	1.1812	-12.3181	-0.0623	-8.5842
4168.0282	0.9301	0.2766	0.2215	-19.2816	5.2419	-2.2706	0.5797	8.6542	0.3089	0.3037	27.2313	1.7098	1.7042	3.4919	0.0582	-0.7942
4176.0283	0.1524	0.4377	0.3227	-25.3776	10.8624	-1.7814	1.3366	-0.7648	-1.3473	0.1543	36.6490	2.5389	3.4325	11.7978	0.1119	-0.7267
4184.0284	0.5137	-0.2215	-0.3286	-25.3889	6.9855	-2.9685	0.4098	-2.7564	-0.1920	0.0144	28.3478	-3.9653	1.9190	-10.8994	0.1541	-14.1966
4192.0284	0.5163	-0.2709	-0.2030	-34.1885	3.4408	-1.6617	0.1916	1.9283	0.4965	0.1078	34.9477	-4.0927	0.9211	-6.6585	-0.5538	-9.1002
4200.0285	-0.2725	-0.5616	-0.6073	-52.7746	-3.8620	-1.4513	1.0106	-0.7319	-0.9109	0.1090	42.3075	-16.0485	2.5444	-5.7386	-0.7051	-13.5386
4208.0285	0.8978	-0.9246	-1.0358	-56.5244	0.5242	-2.6689	0.9225	3.0263	-0.4237	0.1544	37.4888	-32.1255	2.5146	-13.3011	-0.5720	-21.7910
4216.0286	0.8833	-0.9599	-0.9458	-55.4981	7.0604	-3.4679	0.6954	2.5595	0.5686	0.2249	47.2302	-27.2525	1.9821	-10.6973	-0.8579	-15.8553
4224.0286	0.1040	-1.0325	-1.1039	-57.2886	2.2583	-4.9803	-0.1710	8.3237	1.4585	0.1790	46.6474	-25.0457	0.5619	-23.2570	-0.8222	-23.2467
4232.0287	0.2413	-0.3468	-0.4750	-55.6180	-6.9452	-4.5770	0.3496	10.8938	0.9575	0.4011	50.9465	-17.8204	1.2443	-4.2840	-0.8004	-19.8687
4240.0287	-0.1635	-0.3529	-0.3974	-55.8617	1.9687	-5.0803	1.7426	3.6559	-0.6903	0.5425	63.0784	-15.6580	4.0555	9.3942	-0.6163	-5.1353
4248.0288	-0.2034	-1.2525	-1.2610	-61.6675	14.4563	-6.5823	1.1394	10.0965	0.1423	0.4684	59.0457	-27.9394	3.2235	-14.5421	-0.6532	-4.7212
4256.0288	-0.3703	-1.2578	-1.2572	-67.6994	8.0729	-5.9621	1.3655	4.9066	-0.2969	0.4367	58.7218	-23.3944	3.6983	-14.2835	-0.7165	-7.9312
4264.0289	0.3924	-0.8874	-0.9557	-67.1013	13.3899	-5.7880	1.4218	4.7542	-0.3250	0.3449	57.0239	-18.0048	4.3113	-15.3727	-0.3063	-13.4990
4272.0290	1.1358	-0.8244	-0.8804	-68.7817	18.1029	-4.7521	0.3224	13.9001	2.0014	0.3252	56.9789	-16.7512	1.7885	-19.0368	-0.9054	-12.7972
4280.0290	-0.0345	-1.3796	-1.2782	-76.4926	-2.7940	-3.6997	0.8800	-0.7623	0.8868	0.3497	56.0663	-16.7158	2.3075	-16.3675	-1.4066	-13.2458
4288.0291	0.6061	-1.8193	-1.7067	-79.3233	-10.8099	-4.3417	0.9849	1.9397	0.5135	0.4597	44.6876	-28.7657	2.4488	-24.3468	-1.2458	-19.5816
4296.0291	1.1302	-1.7122	-1.6756	-76.6791	-8.8760	-4.1300	0.4408	12.0876	1.9988	0.7122	39.8094	-31.1681	0.4283	-12.9873	-1.9177	-10.3793
4304.0292	-0.0865	-1.9230	-1.8831	-71.2590	-13.8822	-3.8245	0.3193	7.9498	1.6673	0.7396	28.9839	-28.0404	-0.4306	-8.0993	-2.2605	-2.9412
4312.0292	-0.2209	-1.8178	-1.7980	-71.7766	1.6527	-3.0496	-0.5357	12.4103	2.3552	0.5098	21.2446	-25.5228	-2.0314	-13.2577	-2.4708	-3.0985
4320.0293	-0.6848	-1.5865	-1.6436	-71.4627	19.8926	-2.4524	-0.8227	4.8820	1.9534	0.2781	19.7707	-18.2644	-2.6357	-5.3867	-2.7908	-0.9021
4328.0293	-0.5876	-1.3343	-1.4448	-51.9883	11.0448	-2.5590	-0.7694	4.0549	0.7471	0.2686	9.6764	-16.9930	-2.4393	-5.3572	-2.1154	-2.9876
4336.0294	0.0807	-0.6757	-0.7471	-34.6991	-0.9690	-1.2817	-0.9383	16.6609	1.4001	0.4404	11.1980	-14.7739	-3.1443	2.8293	-1.8672	2.9333
4344.0294	-0.0924	-0.7958	-0.8131	-25.4321	0.3747	-0.6737	-0.8650	7.1293	1.6756	0.3121	6.8105	-15.2143	-3.1425	5.6224	-1.8624	4.1378
4352.0295	0.3743	-0.8805	-0.9421	-4.9728	11.6434	-0.2251	-1.3795	-5.2889	1.9015	-0.2044	-5.3510	-18.5030	-3.3699	-9.0815	-1.0936	-8.3680
4360.0295	0.7939	-0.3178	-0.3803	16.1623	29.0580	0.6643	-1.6558	-6.0525	1.6607	-0.5073	-5.4077	-13.2115	-3.3664	-9.0301	-0.4540	-6.1561
4368.0296	1.5142	0.1895	0.2602	39.2861	31.1634	1.2348	-1.8091	1.5133	2.2088	-0.4526	-13.2095	-6.9044	-3.6585	-5.3975	0.1206	2.1163
4376.0297	1.5060	0.7817	0.9087	60.3966	11.1621	4.0857	-2.6866	10.4405	4.3386	-0.5206	-19.3891	-0.5524	-5.8734	-4.5753	0.1744	3.2688
4384.0297	0.0194	0.6536	0.6788	59.9977	-0.5410	6.1508	-2.5207	5.9206	3.4379	-0.7082	-17.3552	-0.2961	-5.6955	-7.8722	0.0513	5.5282
4392.0298	0.8373	0.6609	0.5936	56.3786	11.5504	6.3321	-1.3846	-3.8424	1.3789	-0.8705	-18.5752	-4.0810	-2.6768	-8.5576	0.7635	0.8115
4400.0298	2.3392	1.3048	1.2539	61.7594	19.0725	7.2599	-1.3100	-9.7534	2.2116	-0.9040	-23.8897	1.1486	-2.6841	8.6245	0.7586	-4.0969
4408.0299	2.1543	1.0520	1.0336	65.2104	9.2228	7.2221	-2.1604	-2.6451	3.9784	-0.7265	-40.0026	3.9037	-5.0944	5.6393	0.2802	0.0835
4416.0299	1.8811	1.1516	1.1018	63.4094	15.0400	8.2891	-2.5943	6.4087	4.3821	-0.8164	-49.4646	4.6779	-5.9729	1.1231	0.2204	3.1534
4424.0300	1.0850	1.6117	1.6304	61.4612	22.8438	9.7965	-2.3739	-1.4213	3.7132	-0.9637	-44.0538	7.2321	-5.9808	21.9816	-0.2766	5.9712
4432.0300	0.3243	1.1559	1.2743	65.8644	-3.2154	9.6354	-1.8747	-0.4308	3.0457	-0.8263	-41.9929	1.4036	-4.9888	11.1415	0.1143	6.6930
4440.0301	0.7329	1.3812	1.4008	64.3876	-8.8943	10.4573	-0.8536	5.0263	1.4866	-0.8975	-41.3604	-4.5260	-2.0885	2.4716	1.1903	1.9895
4448.0301	1.7186	1.8585	1.8812	63.6462	26.4674	9.7973	-0.4613	-6.1540	1.7006	-1.0334	-38.3469	-5.7985	-1.2514	26.4990	1.0155	2.3743
4456.0302	1.2277	1.3781	1.5182	72.6019	35.2275	9.5943	-1.5648	-6.8963	3.9882	-1.1091	-38.6590	-4.0804	-3.8612	19.6346	0.3836	11.2189
4464.0303	-0.7654	1.0300	1.0784	63.2527	16.5125	11.1938	-1.2257	-2.8640	1.6334	-1.1450	-38.4814	0.0282	-3.1460	5.6403	0.4121	17.5212
4472.0303	-0.0984	1.1309	1.1361	52.4026	5.9906	9.7299	0.0249	-2.8268	-0.1177	-0.8951	-38.4934	-1.9637	-0.1899	8.0947	1.0908	10.4309
4480.0304	1.6328	1.9896	2.0174	60.1766	3.1496	10.9483	-0.8834	9.7528	3.2860	-0.7929	-39.3508	2.6430	-2.3739	18.7197	0.8818	6.4289
4488.0304	0.9967	3.2515	3.2170	58.2903	13.6518	13.8422	-1.1621	11.6916	3.0157	-0.9120	-30.6018	14.7736	-3.6879	51.5770	0.0621	12.6111
4496.0305	0.8922	3.7666	3.8052	52.0309	24.7972	13.5227	-0.7324	11.8787	1.6851	-1.0111	-25.9019	17.4334	-2.3055	58.7314	0.4021	8.5277
4504.0305	0.4389	4.0161	4.1254	48.1673	11.7538	15.4695	-1.4119	13.2772	2.2579	-1.1636	-27.7909	29.9643	-3.6391	51.9098	0.1851	2.6250
4512.0306	-1.0811	3.4471	3.5305	39.4707	-11.7541	13.6240	-0.5303	-11.4708	-0.2778	-1.0817	-19.4781	39.1307	-1.8463	52.0505	0.1055	-4.7527
4520.0306	-0.7966	1.7454	1.8131	31.0280	-24.8578	8.1604	0.0185	-17.0555	0.0088	-0.7664	-21.5708	22.7799	-0.0094	18.8415	0.7327	-12.9970
4528.0307	-1.4877	0.5053	0.5004	15.7522	-23.5174	7.2235	-0.6858	-13.1389	1.5483	-0.6634	-30.0852	16.5098	-1.8240	-1.4216	-0.0972	-6.2134
4536.0307	-3.0839	-0.5281	-0.5379	2.2719	-12.6982	4.6185	-0.1076	-30.3454	-1.9425	-0.8806	-33.2789	7.6009	-0.0337	-15.9084	0.0728	-13.0570
4544.0308	-2.9068	-1.3749	-1.3803	-6.8187	-8.2064	3.1620	-0.3623	-22.7557	-2.7986	-0.9853	-38.8290	-10.5713	0.1579	-44.4681	0.4673	-21.7806
4552.0308	-2.9591	-1.0929	-1.2266	-17.0089	-4.9496	4.1754	-0.6100	-15.7030	-1.8383	-0.7860	-28.9464	-3.6382	-1.1088	-30.1868	-0.4805	-10.2232
4560.0309	-2.2810	-0.7533	-0.8996	-16.3399	5.4546	1.4720	0.2957	-16.9425	-3.2830	-0.5471	-27.7168	-2.2093	1.0394	-16.9159	0.0839	-9.4364
4568.0310	-1.5763	-1.1308	-1.1617	-15.5125	-4.5095	0.9278	0.1640	-6.1161	-2.8406	-0.1770	-37.7197	-7.1868	0.1439	-19.2269	-0.1402	-2.3398
4576.0310	-2.4911	-1.3220	-1.3425	-11.5289	-19.9340	0.2668	0.0754	-10.2258	-2.8832	0.0962	-24.4064	1.7833	-0.7843	-11.7341	-0.7748	8.3155
4584.0311	-1.8923	-0.9583	-1.0108	-1.4409	-5.9624	-2.3283	0.0867	-4.4188	-3.8565	0.0530	-16.0935	3.5539	0.3870	-20.2411	0.2726	4.1569
4592.0311	-0.9875	-0.9875	-1.0054	-7.8236	-0.5637	-2.0492	-0.0582	-4.4971	-2.4058	0.1392	-14.0392	10.2627	-0.0159	-19.0533	-0.0919	7.1709
4600.0312	-0.8952	-1.1990	-1.2244	-9.9385	-10.7460	-3.0100	0.0123	-18.7277	-0.9804	0.1595	-6.3265	14.4058	0.1125	-17.5077	-0.2946	-0.7653
4608.0312	-0.7413	-0.7840	-0.8313	1.1449	-5.2327	-3.0104	-0.5208	-4.8534	-1.1562	-0.0517	-5.7725	5.5366	-0.2520	-28.5046	0.4698	-7.5332
4616.0313	-1.0709	-0.2810	-0.2602	5.4535	-6.6715	-1.4834	-0.4261	5.5789	-1.8554	0.0349	-1.8879	5.9514	-0.5009	-16.8638	0.3470	2.3877
4624.0313	0.1234	0.6224	0.6475	12.5621	-15.3925	-1.2235	0.0164	13.6860	-1.4457	0.3711	-0.1532	9.1192	-0.1061	6.8016	0.4802	4.8054
4632.0314	0.9531	1.2112	1.1608	15.9997	-9.9267	1.2142	0.1844	19.8500	-1.0211	0.4732	6.5160	15.0130	-0.3231	23.0956	0.1221	17.8889
4640.0314	0.3129	0.5642	0.4870	5.9358	-1.8021	2.6691	0.1865	6.2246	-0.9746	0.2242	21.6824	19.5268	-0.2561	13.5745	-0.5241	23.9665
4648.0315	0.0347	0.1742	0.1398	-1.7926	-5.0826	3.2481	-0.7234	4.7716	0.0826	-0.1261	20.5466	13.4880	-1.5950	-7.9945	-0.6168	7.9337
4656.0316	-1.3196	0.0184	0.0617	-4.2149	-23.4359	4.6509	-0.3222	1.5797	-1.7044	-0.1795	5.2493	9.9860	-1.1463	-7.3829	-0.5750	5.1570
4664.0316	-1.2292	0.1288	0.1323	-9.8119	-22.6688	3.3670	0.7197	-0.6482	-3.6504	0.0083	-9.5055	7.6259	0.9465	3.9863	-0.1543	3.7087
4672.0317	-0.3213	0.3501	0.3125	-15.9132	0.2297	1.8466	0.1555	0.6821	-1.5969	-0.0526	-9.7436	7.2887	0.0768	8.2607	-0.3548	-2.1786
4680.0317	-0.9964	-0.3149	-0.2787	-17.3564	-7.4166	0.3989	0.4319	-6.9002	-1.9851	0.0475	-5.6632	8.8755	0.6884	-0.5885	-0.3715	1.0180
4688.0318	-0.1581	-0.5386	-0.5369	-25.8953	-16.0313	-1.6859	0.5633	4.5322	-2.7345	0.5113	-11.0838	7.6346	0.7030	-2.5601	-0.4038	2.9700
4696.0318	-0.3694	-0.9310	-0.9697	-33.7951	-2.1327	-2.7613	-0.9649	3.9014	-0.2191	0.4185	-12.7639	4.2237	-2.8705	-4.5443	-1.5433	-1.1341
4704.0319	-1.5235	-1.4756	-1.4678	-25.8834	-13.8119	-4.1102	-0.9829	-1.9085	-1.0904	0.3357	-11.4630	-1.3717	-2.6136	-18.5781	-1.1673	-5.1834
4712.0319	-0.6549	-0.9802	-0.9821	-31.3839	-26.4499	-5.1566	-0.0198	13.1487	-2.8011	0.8741	-7.6435	1.1412	-0.8504	-6.4972	-0.7980	1.0613
4720.0320	-1.1195	-1.3859	-1.4017	-46.3612	-18.8882	-5.1943	-0.2529	6.5498	-1.1528	1.0304	-5.9402	0.3093	-2.4626	9.7352	-2.2342	9.6954
4728.0320	-2.1126	-1.5975	-1.6198	-41.3773	-11.8144	-4.8177	-0.1391	0.7617	-2.1464	0.8082	-6.6190	-5.4618	-2.1516	7.8207	-2.1533	12.0410
4736.0321	-1.8726	-1.0340	-1.0395	-41.3534	4.4874	-5.7791	0.2630	8.3203	-4.4618	0.6584	2.2636	0.0323	-0.0069	-0.3399	-1.0709	9.2908
4744.0321	-1.4448	-1.3880	-1.3840	-49.9569	3.1347	-7.5221	0.0242	10.6840	-3.0780	0.7720	9.4735	2.0369	-0.0979	-12.9222	-1.0832	5.9279
4752.0322	-1.1829	-1.3313	-1.3737	-49.2267	-14.9561	-7.1400	0.6367	11.2332	-2.2653	1.1545	14.6399	3.3673	0.2933	2.1186	-1.4336	14.8597
4760.0323	-1.3152	-1.3439	-1.3895	-51.9025	-18.7490	-7.5312	1.5397	-3.3387	-2.9731	1.2074	14.1503	6.6410	2.0056	14.1079	-1.3877	13.2901
4768.0323	-0.7187	-1.7159	-1.8090	-47.8549	-30.6937	-9.4309	1.3821	-6.4929	-2.5546	1.2232	6.1874	3.9540	2.2489	-2.7616	-0.7722	-0.3708
4776.0324	-1.0234	-1.5276	-1.6541	-29.5443	-23.0724	-10.4208	0.7793	8.0349	-2.7316	1.2916	6.9997	6.9026	1.2103	-9.3049	-0.3673	11.5845
4784.0324	-2.2593	-1.5167	-1.5307	-22.5602	13.2156	-11.1911	0.3170	10.7562	-3.1062	1.0422	8.3863	9.2482	0.5880	-9.3376	-0.4179	26.3015
4792.0325	-1.6599	-1.3060	-1.2668	-29.5043	18.1795	-12.0940	0.7464	6.9770	-3.4435	1.0623	15.9244	12.3966	1.8862	-5.7316	-0.2009	20.7682
4800.0325	-0.9648	-1.2226	-1.2119	-38.0066	5.1324	-12.8646	1.0756	6.6466	-3.1960	1.2775	28.3283	15.3622	2.6129	-3.9700	-0.2251	15.3451
4808.0326	-1.1046	-1.3085	-1.3283	-44.2274	-2.6411	-11.4155	0.7305	13.8735	-2.0878	1.2232	28.2683	5.2517	1.6307	-7.6680	-0.5557	11.9229
4816.0326	-1.0618	-1.0871	-1.1246	-42.3093	-12.1356	-8.9585	1.0454	15.7599	-3.0714	1.1098	27.8560	-1.0654	2.1320	-5.8187	-0.4161	9.8424
4824.0327	-1.1685	-1.3612	-1.3515	-39.9757	-14.5091	-7.4341	1.1697	11.7636	-3.1774	1.0653	27.6707	0.4438	2.1292	-8.2683	-0.6201	16.8325
4832.0327	-1.4711	-1.6422	-1.6604	-46.8566	-9.8490	-6.2861	1.3817	7.9967	-2.4012	0.9665	26.3226	-0.8406	2.4711	-9.9365	-0.8799	21.0656
4840.0328	-1.1639	-1.5197	-1.6176	-46.9081	5.6062	-7.7093	1.9918	0.6135	-3.2796	0.7516	25.3179	-2.2895	4.7658	-14.3288	0.0070	12.2108
4848.0329	-0.6242	-0.9752	-1.0469	-31.1933	15.1875	-8.7126	1.8720	3.3643	-2.8269	0.6324	20.6696	0.2753	5.2288	-14.7968	0.8907	7.4528
4856.0329	-0.8744	-0.4510	-0.5266	-15.4180	13.7081	-9.2455	2.2367	2.2669	-3.5935	0.5365	16.9551	4.9230	6.5661	-13.1034	1.8702	4.4669
4864.0330	0.0316	-0.2954	-0.4344	1.4590	23.9032	-11.8321	2.3618	-3.5908	-3.4467	0.4285	12.6740	5.5766	7.8385	-19.9906	3.0111	-4.7317
4872.0330	1.0624	0.2391	0.1509	23.1591	29.7915	-11.8450	1.8755	1.3185	-1.0056	0.4342	14.8622	6.8319	6.8443	-13.1354	3.2966	-1.8572
4880.0331	1.0586	0.3033	0.3154	28.3532	26.0465	-12.0189	2.3730	0.2672	-2.1118	0.3577	15.4907	5.4288	8.4319	-19.3739	4.0367	-5.5680
4888.0331	2.2034	0.2906	0.2973	27.0353	25.4018	-12.6337	2.1327	-4.6206	-1.2947	0.2619	5.4784	-0.7259	8.2003	-22.4894	4.2375	-22.5184
4896.0332	1.5978	0.5892	0.5761	40.7164	32.3597	-10.9964	1.0357	-10.3146	0.5893	0.0280	-0.4185	-5.0301	4.9802	-4.5759	3.3417	-22.2983
4904.0332	0.4615	-0.1918	-0.1529	44.0128	39.0915	-11.6952	0.9336	-15.3813	-0.9521	-0.1258	-3.8658	-9.7916	4.9659	-20.0370	3.3968	-16.9910
4912.0333	1.4873	-0.9377	-0.9074	34.8808	24.0474	-12.9705	1.2255	-18.7207	-0.3111	0.1344	-3.6857	-13.3143	5.5382	-32.2267	3.3421	-21.4131
4920.0333	1.3599	-1.1690	-1.2264	36.5634	17.6262	-14.2711	1.1148	-20.0592	0.2014	0.1639	-2.3775	-23.7970	5.2673	-34.3164	3.3736	-28.3482
4928.0334	1.4946	-1.1737	-1.2034	39.8853	17.6500	-15.6380	0.8868	-11.0469	0.3050	0.3358	-4.3427	-29.8909	4.6576	-33.6231	3.4210	-26.9110
4936.0335	1.8724	-1.0217	-0.9476	39.3487	-5.4093	-16.2782	0.9419	-14.5612	1.3130	0.9066	-4.8606	-21.8618	3.1993	-5.5323	2.3857	-21.1377
4944.0335	1.7597	-1.1426	-1.1537	36.6452	3.1866	-18.7542	0.6561	-16.0749	0.7312	0.8764	-11.3590	-26.9674	2.9241	-8.1913	2.5334	-30.5413
4952.0336	2.7601	-0.3395	-0.4505	37.8829	32.7771	-18.2365	0.1530	-1.1695	1.5668	0.6759	-15.6199	-26.1036	2.5514	-6.7059	2.9293	-30.8186
4960.0336	2.7474	0.1090	0.1444	46.5050	24.7027	-17.5228	0.2545	-1.8191	1.8584	1.0039	-18.3436	-11.8430	1.6741	17.6032	2.3657	-16.7431
4968.0337	2.3457	-0.7388	-0.6135	45.2862	5.5385	-19.1512	0.1342	-8.4048	1.9055	1.2237	-23.9486	-14.1042	0.9907	8.9162	2.0535	-18.4525
4976.0337	1.1097	-0.8708	-0.8113	44.9711	3.7539	-16.5343	-0.4159	-13.7366	2.7731	0.8715	-26.8183	-17.7648	-0.4690	6.9481	1.5137	-19.9583
4984.0338	-0.4490	-0.7557	-0.6991	50.1758	7.4230	-14.5736	-0.2405	-12.9285	0.2549	0.5488	-38.5693	-18.8734	0.1107	2.5079	1.9218	-16.7650
4992.0338	0.5567	-1.1675	-1.1116	46.8571	-6.2801	-13.9253	0.6158	-14.0754	-0.8489	0.6190	-49.2788	-21.2133	2.2803	-12.7906	2.6370	-20.6697
5000.0339	1.2042	-1.3824	-1.3172	52.0966	-7.9198	-11.2483	0.3895	-26.0435	0.7242	0.3816	-52.3670	-19.2501	1.5730	-15.2897	2.2991	-21.8017
5008.0339	1.5995	-0.7461	-0.6185	51.8585	13.6859	-8.0691	-0.5586	-17.6488	1.5941	-0.0532	-51.1622	-17.1764	-0.0705	-16.6381	2.0828	-23.2045
5016.0340	1.8665	-0.1591	-0.0136	38.7191	-0.0345	-3.6350	-0.4637	-18.3484	2.3838	-0.2131	-45.9012	-10.0737	-0.2034	-8.1192	1.5811	-28.5652
5024.0340	1.3268	0.0192	0.1292	43.3744	-18.5933	-1.2175	-0.4259	-18.4370	2.1002	-0.2648	-44.4308	-5.4166	-0.4175	-8.0696	1.5304	-26.8472
5032.0341	2.0881	1.0989	1.1260	40.2586	-14.1607	1.6530	-0.0552	3.1689	2.4268	-0.0974	-32.9144	3.3157	0.2009	5.9272	1.5708	-11.7085
5040.0342	1.7897	1.2238	1.2055	17.1992	-21.1791	4.6085	1.1458	-4.0159	2.4034	-0.0006	-26.7317	11.7866	2.0574	22.6357	0.8944	-3.4944
5048.0342	1.5910	0.6358	0.6578	9.7971	-13.2571	3.8043	1.1908	-3.8814	1.2304	-0.1099	-30.5658	5.0354	2.6433	6.0237	1.1042	-5.6019
5056.0343	1.7116	1.0424	1.0646	12.0189	3.3900	5.0613	0.9196	0.3081	1.1417	-0.1652	-22.1203	10.0894	1.8484	16.1895	0.6967	5.0645
5064.0343	0.1566	0.6789	0.6601	6.5793	5.0519	5.4931	0.5726	-7.8180	0.6617	-0.2967	-19.0499	14.6957	0.7912	15.6417	-0.0024	9.7806
5072.0344	-0.0153	0.8607	0.8441	-0.5345	0.7003	5.5158	0.2036	10.0640	0.3515	-0.2542	-8.1363	9.3757	0.3435	5.8755	0.1022	8.0674
5080.0344	1.7402	0.4308	0.4939	50.7143	-7.7397	6.8877	-1.3603	-7.1858	-3.8499	-0.8088	-3.4846	4.6891	-2.3032	-25.2910	0.8500	-7.2431
5088.0345	2.1022	1.0605	1.1203	60.7950	43.9811	6.1834	-1.3643	-2.9389	-4.6845	-1.1645	-6.9027	12.2460	-1.1149	-24.8085	1.6984	2.1435
5096.0345	2.4283	0.3588	0.5152	57.1873	31.8366	5.8274	-1.2398	-8.0194	-4.7827	-1.1271	-4.9693	8.4526	-0.7040	-40.5886	1.7552	-2.0035
5104.0346	2.0472	0.3657	0.5673	54.7358	12.9357	7.7552	-2.3135	-9.3345	-2.4416	-1.3094	1.0827	3.3091	-3.3925	-42.5867	0.9894	-14.6290
5112.0346	2.4375	1.5128	1.6551	69.7657	21.2688	9.4575	-2.1142	6.1976	-2.5314	-1.2965	2.0823	8.9391	-2.8962	-28.2616	1.5723	-4.1916
5120.0347	3.4439	1.5688	1.6761	67.2549	33.4640	9.9577	-0.8434	5.6671	-3.3148	-0.9240	-5.8401	7.4431	-1.2047	-3.0515	1.2756	15.1573
5128.0348	3.2336	0.8618	0.9400	52.2667	16.0449	10.5639	-0.8127	-5.3252	-1.8540	-0.7961	-17.8962	-0.8606	-2.2136	2.7799	0.2585	9.4644
5136.0348	2.6349	1.1682	1.2023	61.3255	1.8506	10.2553	-2.1572	12.1748	-0.8551	-0.7361	-21.8547	1.4908	-5.0755	-5.7856	0.2326	6.3371
5144.0349	2.6647	1.5702	1.6203	66.5715	30.2463	9.7550	-2.5186	8.4573	-1.1789	-0.9479	-16.0511	11.5855	-5.3918	-0.1817	0.2361	10.6918
5152.0349	2.1203	0.6551	0.7222	48.4548	32.0430	9.1966	-2.4048	-9.3650	-1.1824	-1.1944	-13.7114	13.6558	-4.5868	-19.1012	0.0259	1.3104
5160.0350	1.8427	0.3245	0.3171	30.9743	8.3761	9.4815	-2.3949	-3.1494	-0.7202	-1.0339	-9.8237	6.6091	-4.8082	-27.0881	-0.3165	-6.1286
5168.0350	1.7250	0.4585	0.4714	23.8989	3.1869	9.6604	-1.5351	-13.4046	-1.7101	-1.0117	-5.4292	-2.0678	-3.4181	-9.4123	-0.4844	-12.5778
5176.0351	1.2255	-0.0505	0.0652	22.7561	-7.0007	8.3767	-1.3824	-12.9627	-2.4425	-0.8269	-6.7631	-9.0387	-3.3984	-12.9623	-0.5793	-10.8608
5184.0351	1.3804	0.0897	0.1663	10.9851	-16.4296	8.7925	-0.9110	0.8512	-1.5844	-0.3517	-2.5587	-3.0494	-3.1505	-2.1107	-1.0575	4.8024
5192.0352	0.7400	0.1398	0.2197	-3.1337	-26.7033	8.7925	0.4280	-8.5929	-3.0869	-0.2852	-2.7125	4.2847	-0.1536	3.2514	-0.7158	2.3932
5200.0352	0.8011	0.4636	0.5525	0.5792	-17.3133	7.8946	0.9309	-8.0696	-5.1705	-0.4491	-6.1347	2.7768	1.8039	-1.1177	0.2880	-4.4572
5208.0353	1.6235	0.9729	0.9643	2.5122	18.1133	8.8595	1.3195	-10.6566	-4.7776	-0.6681	-1.2221	6.9349	3.0064	10.1951	0.4429	4.5261
5216.0353	0.0222	0.0178	0.0796	-0.0382	8.0740	9.0692	1.3433	-19.6195	-5.6300	-0.8345	-1.1183	1.2219	3.0828	-7.7071	0.3018	5.4238
5224.0354	0.0079	0.1023	0.1793	7.3894	-15.6331	8.9750	1.6528	-7.6588	-7.5003	-0.7473	2.5530	-5.6595	4.2232	-22.6346	1.2572	-0.4321
5232.0355	1.6977	0.9328	0.8564	15.2765	-2.4779	9.0468	1.7983	2.4905	-6.7527	-0.7159	6.4545	4.8026	5.2764	-21.3924	2.0547	1.8738
5240.0355	1.4037	0.8695	0.7984	15.3416	6.1120	10.2165	1.1236	1.8016	-5.5482	-0.7528	2.5851	3.2191	3.0383	-10.8992	1.1025	8.8130
5248.0356	1.2580	1.0351	1.0289	10.7177	0.8233	12.5175	2.2382	-8.9249	-7.1074	-0.7174	4.2760	-2.3945	4.4559	13.1412	0.6633	13.0100
5256.0356	0.7540	0.0724	0.1336	10.9743	-18.0580	10.7703	2.3850	-5.6704	-8.0434	-0.4512	-8.3152	1.8905	4.9519	-12.1937	1.0797	18.6016
5264.0357	0.1541	-0.5326	-0.4420	7.8611	-25.8812	8.3494	1.2412	13.1777	-6.9649	-0.0580	-24.7609	4.5613	2.1511	-27.0373	0.6487	27.0524
5272.0357	0.1628	-0.1470	-0.1464	-3.7173	-2.1032	7.2986	2.1338	-0.2910	-8.2663	-0.1174	-31.0360	8.3633	4.0478	-4.0819	0.6039	24.5809
5280.0358	-0.5553	-1.1127	-1.1270	-6.5898	7.7129	4.6385	2.3186	-15.5222	-9.8274	-0.2201	-44.6404	1.3408	4.6929	-15.1603	0.7191	19.9131
5288.0358	0.2239	-0.9579	-0.9957	-11.0186	4.6424	3.0049	2.2441	-2.6029	-9.0455	0.0176	-42.2360	-10.0049	4.5218	-12.9319	0.8287	14.3759
5296.0359	0.3625	-0.2929	-0.3857	-21.3994	1.0375	1.4437	2.1232	5.5028	-8.8721	0.0698	-40.5865	-14.2934	4.6024	-5.3337	1.0623	-2.5510
5304.0359	-1.1117	-0.7527	-0.8145	-22.4001	-12.8512	0.3593	1.3494	1.4465	-9.3143	0.0598	-46.0421	-15.4549	2.6219	-11.1883	0.5677	-8.4369
5312.0360	-0.4777	-0.4248	-0.5044	-24.9625	-17.3587	-0.0466	2.4797	-9.3698	-9.9390	0.1068	-31.6223	-7.1023	5.4701	-4.5560	1.1123	-12.4945
5320.0361	-0.2106	-0.6506	-0.7525	-32.6403	-21.2028	-2.1357	2.1816	-11.4905	-9.2719	0.0812	-34.8652	-4.3943	5.5721	-19.3319	1.4491	-26.8803
5328.0361	-0.5887	-0.6517	-0.7574	-34.2213	-19.9877	-2.7852	1.3047	-0.2741	-7.8956	0.2245	-36.2242	-2.9868	3.3585	-18.9918	0.9065	-21.7139
5336.0362	-0.3020	0.0523	-0.0856	-31.7715	-4.0551	-3.7896	2.3238	5.4803	-9.1212	0.4307	-22.1253	6.9841	5.8018	-3.5159	1.4370	-7.4186
5344.0362	-1.2113	-0.8303	-0.9873	-36.7487	-10.5332	-5.8080	1.4406	1.8708	-8.3741	0.5939	-26.2000	8.7120	3.4369	-12.7955	0.5915	-4.9934
5352.0363	-1.2045	-1.1409	-1.3441	-44.9609	-23.1530	-6.6954	1.1162	-3.5702	-5.8848	0.7293	-17.7945	9.5135	2.4237	-12.3301	-0.0312	-10.1987
5360.0363	-0.7529	-0.6820	-0.8801	-39.4946	-17.3004	-9.0888	1.6040	-0.5954	-5.8857	0.7858	-11.6587	9.5078	4.2524	-10.5191	0.9073	-15.7226
5368.0364	-1.5292	-1.0430	-1.2155	-39.0072	-26.5326	-10.8330	0.9157	3.0544	-4.0698	1.0759	-14.1318	11.7297	2.0989	-8.1642	0.2117	-9.3950
5376.0364	-1.4835	-1.2495	-1.4174	-56.3276	-43.4039	-12.7095	2.1634	1.6767	-2.9007	1.5626	-7.2091	14.1217	4.3974	1.1644	0.1441	-6.1252
5384.0365	-1.0736	-1.4444	-1.5402	-63.5953	-41.9083	-16.5289	2.7815	1.5967	-3.4788	1.7960	-12.6084	2.3285	5.9873	3.5737	0.6349	-16.4856
5392.0365	-0.4376	-0.9840	-1.0812	-56.0344	-38.8555	-18.4384	1.7315	-1.1955	0.0013	1.8641	-0.4457	7.4833	3.6136	16.5789	0.1318	-24.0133
5400.0366	-0.0676	-0.3788	-0.4962	-52.1355	-34.6761	-18.9290	1.6462	-1.7602	2.1692	1.9209	9.7708	19.0026	3.5555	28.0412	0.1378	-22.7249
5408.0366	-1.0465	-0.6546	-0.7227	-58.0446	-15.2433	-18.5079	1.4650	0.6752	0.9826	1.7339	0.7183	8.8832	3.0120	28.1147	-0.2006	-17.5883
5416.0367	-0.9885	-0.4670	-0.5727	-59.6510	-4.3568	-18.4888	1.8734	3.9317	0.6414	1.5749	14.9839	4.7068	4.6119	22.7687	0.3263	-17.8629
5424.0368	-0.0789	-0.8064	-0.9220	-54.8305	-16.4346	-19.7265	2.7529	-3.3403	0.0492	1.7953	22.4912	5.2892	6.6358	18.1892	0.8369	-17.2423
5432.0368	0.4122	-1.5067	-1.5663	-63.5719	-31.9467	-19.3001	2.2339	-9.6886	1.8927	1.9923	27.7934	8.7742	4.7858	13.9048	-0.2281	-15.8282
5440.0369	0.8694	-0.7717	-0.8212	-67.4112	-44.2659	-18.4336	0.9058	21.4245	4.6152	2.1316	44.3876	16.2639	2.3515	2.2037	-0.3103	-16.6474
5448.0369	0.5061	-0.3760	-0.3825	-55.0069	-38.6321	-17.4111	0.3839	28.7523	4.1827	2.1995	52.6895	12.9097	0.3898	19.4316	-0.9395	-4.1544
5456.0370	0.5703	-0.6916	-0.6412	-52.3106	-14.6129	-16.2955	0.6401	-2.9628	4.7700	1.8477	70.4076	11.6452	0.4698	37.4418	-1.8757	-0.7091
5464.0370	0.9918	-0.4785	-0.4314	-48.3124	-11.4496	-15.8988	0.0308	5.5465	5.8818	1.6792	83.9991	11.5203	-0.1150	24.1237	-1.5800	-4.4014
5472.0371	0.1894	-0.5248	-0.5273	-37.9500	-15.4457	-14.5670	-0.5748	15.8466	6.0937	1.7770	100.7271	10.8443	-2.0754	25.4049	-2.2195	13.5798
5480.0371	-0.1470	-0.7967	-0.8425	-36.4635	0.5303	-14.4869	-0.4910	12.3522	6.2341	1.6038	114.8280	13.5208	-1.4243	16.4446	-2.1589	22.8412
5488.0372	0.0671	-0.5051	-0.5461	-10.7984	4.4119	12.6036	-0.0317	0.2295	-13.5399	-0.7024	-21.0956	-5.2114	-1.2983	-16.5137	-1.1587	16.3582
5496.0372	-1.1177	-0.7245	-0.6675	-10.2842	10.0464	11.8937	-0.4194	0.1114	-13.0677	-0.8453	-18.5767	0.5980	-1.6697	-27.6172	-1.0928	19.4588
5504.0373	-0.3272	-0.4222	-0.4163	-19.9970	-1.6835	10.0681	0.8452	7.7573	-13.4952	-0.4284	-13.5062	1.8916	1.2560	-22.0264	-0.3975	18.5466
5512.0374	-0.7751	-1.2562	-1.3101	-24.5146	-26.5682	8.1781	1.1084	-1.4943	-12.7571	-0.2039	-18.2585	-10.6180	1.2737	-25.2503	-0.6475	10.0924
5520.0374	-0.7188	-1.1400	-1.1563	-22.5664	-21.5958	6.2175	0.2747	1.3135	-11.6255	-0.3336	-18.4741	-15.4087	0.0713	-31.8489	-0.4487	-3.8939
5528.0375	0.0611	-0.4724	-0.4497	-20.1286	-9.5455	4.2092	0.0020	9.8347	-10.2378	-0.0816	-11.9475	-9.8109	-0.5971	-14.9118	-0.5556	-0.8784
5536.0375	-0.0149	-0.7364	-0.6997	-21.4335	-1.4218	3.0553	0.1901	5.5776	-9.9855	0.0188	-15.2869	-9.6081	-0.4112	-10.3789	-0.7453	4.6451
5544.0376	1.5486	-0.1521	-0.1414	-22.3009	13.3677	1.2953	0.5159	9.7585	-8.8252	0.1880	-8.6636	0.7577	0.8794	-3.7838	-0.2492	5.0437
5552.0376	0.7727	-0.6287	-0.6498	-23.5436	0.3948	0.3684	-0.0602	0.8340	-7.2027	0.3262	-5.0815	6.2760	-0.9963	-2.0307	-1.1047	6.3962
5560.0377	-0.1467	-1.2385	-1.2727	-28.4325	-12.1497	0.1541	-0.2159	-4.1767	-7.7424	0.2504	-8.6218	2.8179	-1.2817	-15.7299	-1.2021	0.9335
5568.0377	0.2949	-0.6546	-0.6935	-24.0114	-12.7134	-0.9476	-0.0063	8.1814	-7.6055	0.4154	1.6688	9.0436	-0.2904	-15.7656	-0.5313	3.2858
5576.0378	-1.1721	-1.1475	-1.2017	-25.3132	-33.9596	-1.0526	-0.2519	8.1615	-6.7883	0.6006	7.1741	8.7908	-1.5381	-17.3224	-1.1810	10.1008
5584.0378	-0.6616	-1.0282	-1.0673	-35.3133	-31.8307	-1.5445	0.5479	4.6847	-7.4316	0.5661	8.1626	3.1526	0.5811	-15.2140	-0.7359	0.5329
5592.0379	0.0838	-0.4107	-0.4193	-28.7348	-1.5972	-2.7387	0.8139	-5.5223	-7.7760	0.2648	3.4297	2.0556	1.8573	-2.4148	-0.1223	-9.3050
5600.0380	-0.4929	-0.7812	-0.7937	-28.4057	1.3397	-2.3073	0.3496	-16.0616	-6.7821	0.1643	-4.8114	2.2710	0.3065	1.8429	-0.8383	-8.0749
5608.0380	-0.5892	-1.0477	-1.0246	-35.7993	-21.7894	-2.0994	0.4559	-11.3674	-5.8608	0.3926	0.2071	1.9654	0.2522	-3.9433	-1.0304	-8.3224
5616.0381	-1.6589	-1.1154	-1.0927	-30.1086	-32.7832	-2.1123	0.2286	-10.4856	-6.0812	0.3600	-0.1732	3.4111	-0.2407	-8.9025	-0.9460	-7.9429
5624.0381	-1.5609	-0.6818	-0.7213	-34.5184	-20.2493	-1.7712	0.7284	-9.7282	-7.0036	0.3808	3.9097	14.9428	1.0172	-0.9325	-0.8133	-0.2561
5632.0382	-0.8744	-0.7184	-0.7779	-42.8363	-20.3849	-2.8124	1.4863	-5.8412	-7.5093	0.6020	14.4671	15.5997	2.9002	-2.5501	-0.5090	2.9296
5640.0382	-0.7445	-1.4933	-1.5643	-40.8949	-34.2073	-3.6658	1.3987	-12.3480	-6.3603	0.7405	8.7154	3.0310	2.1283	-6.2809	-0.8704	-0.1156
5648.0383	-0.7102	-1.6287	-1.6719	-47.3166	-28.1626	-3.5409	1.3094	-17.8903	-4.9096	0.8006	4.9803	1.2685	1.2722	6.4726	-1.6220	2.5456
5656.0383	-1.2915	-1.5719	-1.6293	-59.0427	-21.4079	-4.4153	1.3243	-11.0179	-5.4815	0.8000	6.3087	-2.1933	1.5418	5.3179	-1.6236	0.7376
5664.0384	-0.5248	-1.4875	-1.5868	-59.0288	-25.0648	-6.3530	1.5788	-5.2823	-5.5256	0.9375	7.4254	-5.4491	2.6389	-1.0418	-0.9469	-6.4922
5672.0384	-1.0236	-1.8550	-1.8934	-52.6356	-25.4069	-7.7366	0.9651	-4.6776	-4.0390	1.0527	6.9512	1.1994	1.2110	-7.0884	-1.2124	1.1932
5680.0385	-2.3318	-2.3188	-2.3731	-58.4908	-35.0506	-8.5723	0.5772	2.0273	-3.8385	1.3056	1.8184	5.3518	-0.1931	-10.7283	-1.8016	11.7224
5688.0385	-1.4587	-2.1053	-2.1467	-62.6036	-53.3785	-9.4094	1.5196	2.7404	-3.5802	1.7628	4.0802	2.5663	1.1090	7.7550	-1.8420	11.5759
5696.0386	-1.8886	-2.1935	-2.2047	-54.2887	-48.8792	-8.7014	1.4546	-5.4539	-2.6478	1.6300	7.8309	-4.6212	0.5219	17.1300	-2.2077	14.5886
5704.0387	-1.7056	-1.7817	-1.9608	-53.8881	-18.5886	-7.5987	1.5228	-3.4937	-2.6818	1.2139	14.1329	-3.6137	1.6722	11.5480	-1.6713	16.1560
5712.0387	-0.5642	-1.1940	-1.3735	-49.0984	-8.1564	-7.3848	1.7334	5.3847	-1.9697	1.1718	20.0386	-0.2977	2.8496	9.7291	-0.9425	16.3747
5720.0388	-0.8174	-1.1858	-1.2731	-41.0964	-13.7752	-6.3420	1.3360	8.7706	-0.6749	1.2438	18.9895	-2.0381	1.3280	16.2782	-1.4041	23.7892
5728.0388	-0.0701	-0.7110	-0.8079	-41.4638	-3.7811	-6.0321	1.6020	6.1710	-0.0802	1.1589	22.2243	2.0492	2.2025	23.9117	-1.1722	20.7819
5736.0389	-0.3615	-0.6724	-0.6544	-27.2629	-11.2463	-6.2611	1.0340	7.0846	0.6548	0.9759	20.2653	2.7399	1.5580	10.6576	-0.6166	13.6335
5744.0389	-0.3727	-0.3565	-0.3933	-11.2767	-16.4768	-6.1585	0.9557	10.4582	1.5969	0.9826	22.7938	6.7944	1.5571	10.2165	-0.1557	17.1771
5752.0390	1.2179	0.5949	0.4859	2.0271	13.0487	-8.0756	0.8372	8.0373	3.5657	0.8764	31.4555	16.4809	2.1736	22.8530	0.4919	13.4693
5760.0390	0.6071	0.6615	0.7372	22.0063	12.5395	-9.5484	-0.5585	9.1156	5.1987	0.6591	27.9767	14.1070	-0.4214	14.1876	0.6838	3.7764
5768.0391	0.7374	1.2836	1.3361	30.7332	-1.7391	-9.5676	-0.0490	17.2868	5.6686	0.7918	27.7708	16.6138	0.8928	18.5170	1.4850	2.2723
5776.0391	1.3854	2.1216	2.1097	42.5415	23.2285	-10.1519	-0.1815	21.8112	7.5421	0.7061	26.1229	22.1035	0.9982	32.0264	1.9046	6.0025
5784.0392	0.7961	1.8966	1.9536	47.7408	30.1591	-9.8733	-0.2420	15.2451	7.9685	0.4743	21.4236	9.8240	0.7817	33.5244	1.8566	3.1297
5792.0393	1.4757	1.6828	1.7111	40.0681	12.5752	-9.2770	1.2776	7.3516	7.1758	0.4597	15.6197	-5.2102	4.2754	30.5095	2.6774	-10.6144
5800.0393	1.4295	1.5438	1.6235	53.2880	17.2416	-9.0076	-0.0685	7.7833	9.1607	0.2129	-0.0852	-7.6375	1.4629	21.2812	2.5333	-16.3956
5808.0394	1.5930	1.6211	1.6702	54.4611	24.3276	-8.5937	-0.5301	10.0633	10.1711	0.2560	-0.3979	-1.7996	0.1715	25.7451	2.0732	-9.3300
5816.0394	1.9947	1.6624	1.5741	40.9705	17.5426	-8.8065	0.1566	13.7094	10.3040	0.5913	5.9230	3.1286	1.2737	33.4833	1.8284	-2.7692
5824.0395	1.0927	1.5857	1.5518	49.5796	12.0489	-9.5182	-0.8470	11.3159	11.8810	0.5769	5.9330	7.8722	-1.1929	34.5286	1.3217	-2.7821
5832.0395	2.0853	1.9206	1.9119	51.2291	10.5517	-10.7692	0.0271	6.2494	12.5875	0.7800	12.6329	13.7287	0.8298	45.4610	1.7693	-3.3858
5840.0396	1.4997	1.3873	1.3517	48.5125	7.9792	-11.7618	0.0872	3.2689	12.8262	0.9117	10.6548	15.3580	0.7191	41.4124	1.5133	3.2281
5848.0396	0.0959	1.1158	1.0556	52.5950	10.5755	-12.3477	-0.4247	-8.3689	12.4481	0.5360	8.4723	16.4191	0.1764	29.8840	1.6546	-6.0471
5856.0397	2.1999	2.1275	1.9985	51.4524	18.0431	-13.1348	0.7215	-3.9622	12.3798	0.5405	13.6735	17.5946	3.7983	35.3622	3.0814	-19.4341
5864.0397	1.7878	1.4961	1.4606	57.7040	15.5338	-13.3496	0.3942	0.8029	12.3466	0.6795	10.4718	14.7324	2.6972	26.2810	2.7987	-6.8289
5872.0398	0.8586	0.2773	0.3029	54.9390	13.1033	-13.1166	0.5678	-16.2513	10.1888	0.3891	4.0935	11.3264	3.4446	0.5215	2.8907	-9.2171
5880.0398	1.8469	0.4632	0.4559	48.1924	11.3658	-11.3378	0.7774	-12.4896	8.9192	0.1792	-2.3084	8.0687	4.5515	-11.6021	3.4789	-21.1426
5888.0399	-0.0803	-0.1974	-0.1198	54.7491	-0.6970	-8.3874	0.1411	-11.3061	6.5013	0.0141	-10.2244	-1.7741	2.2172	-18.6954	2.6915	-10.7924
5896.0400	-0.3836	-0.6068	-0.5524	50.9996	3.6540	-6.5339	0.8565	-19.9854	2.7067	-0.2217	-16.1070	-10.8051	3.7231	-23.6414	2.8205	-10.5214
5904.0400	0.8525	0.4014	0.3725	46.8371	9.1051	-4.8157	0.6029	-3.0660	2.0191	-0.1815	-14.2716	-7.0626	3.2360	-14.0718	2.8691	-12.4732
5912.0401	0.1378	0.1864	0.1982	42.8054	-4.7204	-3.8166	0.0580	0.9740	0.2080	-0.0817	-12.4357	-4.7945	1.4440	-16.2789	2.1704	-8.8394
5920.0401	0.8769	-0.0415	0.0242	30.8567	3.7536	-3.7435	-0.3262	0.0224	-0.6477	-0.1292	-14.5500	-6.9960	0.6233	-20.1609	1.7269	-14.5448
5928.0402	1.1732	0.8381	0.9063	28.2976	13.1847	-3.4921	-0.8603	15.2647	1.6917	0.1909	-3.2840	-4.8159	-1.5743	11.4046	0.6891	-2.3704
5936.0402	0.5845	0.4509	0.4230	20.2193	2.2169	-5.5845	0.5770	15.1868	0.8942	0.8394	10.1263	-7.0235	0.3960	30.7349	0.2453	18.1291
5944.0403	1.4639	-0.0688	-0.0966	11.3596	10.9189	-8.4159	0.8186	12.9985	1.7658	1.0457	15.6951	-5.3656	1.3200	22.1027	0.3304	19.0373
5952.0403	1.9195	0.3048	0.3691	3.8361	13.0753	-7.7951	0.3210	12.7972	4.9833	0.9408	19.5247	0.2190	0.4252	25.8867	0.0230	10.9957
5960.0404	1.6833	-0.1232	-0.1317	-12.3685	-2.5516	-6.2143	1.2124	4.3051	3.4884	0.8130	10.8655	-4.8173	2.4891	15.6752	0.2645	0.6982
5968.0404	1.6545	-0.3491	-0.3922	-6.0977	-4.0113	-5.8648	0.6004	3.7220	2.5358	0.6199	3.8640	-5.7275	1.5123	0.9101	0.4457	-5.0237
5976.0405	1.8002	0.0108	0.0029	-2.2188	-6.5315	-4.3783	0.4444	1.9382	3.3544	0.5958	8.4312	-0.2266	0.8292	10.9228	0.1244	-2.6597
5984.0406	0.8896	-0.5481	-0.5609	-13.4782	0.4406	-2.3862	0.8825	-9.0345	0.7559	0.2092	2.8719	-3.2355	2.1061	-2.6255	0.1505	-4.4486
5992.0406	0.4388	-0.7725	-0.7404	-1.9662	16.6424	-1.6236	0.0963	-10.1233	-1.5032	-0.2499	-7.1946	-3.8196	1.2008	-23.3197	0.5841	-7.0371
6000.0407	1.6384	-0.3658	-0.3715	-1.9293	8.7761	-0.3933	0.4829	-0.3451	-1.8804	0.0489	-3.5738	3.1404	1.6581	-15.8425	0.5892	1.5976
6008.0407	0.8408	-0.6654	-0.6973	-10.7353	3.8001	0.4441	0.3711	5.6569	-3.1507	0.0982	1.1129	1.0252	1.1181	-21.2544	0.1468	7.9999
6016.0408	0.2549	-0.3731	-0.3189	2.5746	18.2185	0.1458	-0.6895	7.7011	-3.4119	-0.1610	0.6825	-2.2308	-1.0218	-19.1853	0.0365	5.3495
6024.0408	0.6888	0.0421	0.1174	2.9029	28.0131	1.2772	-0.2479	-0.6894	-3.4994	-0.1764	3.7730	2.4324	-0.5222	1.3839	-0.2914	9.7297
6032.0409	-0.6433	-0.8601	-0.7674	-5.4356	22.7205	2.5357	0.2503	-16.2282	-5.5258	-0.3845	-1.8632	-3.5572	0.2906	-7.6746	-0.6013	10.5107
6040.0409	0.2577	-1.0421	-0.9847	-8.1479	8.2819	2.1537	0.4123	-12.2512	-6.1821	-0.3316	-8.3585	-9.6330	1.0691	-22.2339	-0.0103	-1.4830
6048.0410	2.0094	-0.4481	-0.5008	-11.5683	4.6767	1.7768	0.4306	4.0120	-4.9593	-0.0290	-4.2607	-6.4504	1.2504	-18.9470	0.2578	-2.6896
6056.0410	1.3901	-0.3991	-0.4138	-6.1781	7.4332	3.0712	-0.2104	11.1699	-3.3506	0.0501	-3.8974	-6.8307	-1.0026	-8.7191	-0.5712	11.5697
6064.0411	0.1531	-0.3193	-0.2722	-10.4788	5.6041	5.7921	-0.2365	6.6980	-2.9333	-0.0965	3.2173	-0.6090	-1.5926	-0.6566	-1.2799	20.4938
6072.0411	-1.3096	-0.3884	-0.3857	-26.3352	-2.2222	7.1449	0.8071	0.3748	-6.0192	-0.3105	8.3394	1.0596	1.1107	-7.4585	-0.8969	16.4854
6080.0412	-0.9769	-0.4784	-0.4604	-31.1944	-17.4697	6.6944	1.6615	3.5903	-7.3910	-0.0807	2.0536	-8.3393	2.7315	-5.3077	-0.5225	12.5094
6088.0413	-0.6765	-0.7659	-0.7609	-30.4284	-15.2250	5.6286	1.3185	-2.3658	-5.6644	-0.0528	4.9647	-9.0823	1.8975	-5.6841	-0.8484	10.7167
6096.0413	-1.5690	-1.4709	-1.6019	-34.2292	-7.6741	3.9229	0.9874	-15.3812	-5.5199	-0.2631	3.9911	-8.9088	1.6365	-19.7494	-0.9497	5.5184
6104.0414	-1.0431	-1.4034	-1.4725	-42.6615	-11.3876	2.9717	0.9914	-11.3263	-4.4367	-0.1009	-0.5331	-9.6468	1.6150	-17.3521	-0.9921	-0.0189
6112.0414	-1.4226	-1.0168	-0.9000	-45.8767	-4.3719	2.5076	0.6211	-5.2757	-4.3956	-0.2761	-5.0586	-10.7696	1.3813	-19.4408	-0.6794	-9.4611
6120.0415	-1.7720	-1.1989	-1.1731	-45.7915	-12.2820	2.0109	1.2151	-10.6207	-5.9456	-0.2048	-16.8891	-14.0201	2.4581	-17.0331	-0.4279	-11.5928
6128.0415	-1.9022	-1.7482	-1.8004	-50.9952	-30.8628	2.7082	1.4017	-18.8644	-3.7510	0.0769	-16.6553	-15.3527	1.6226	-6.9250	-1.4252	-4.4266
6136.0416	-3.4801	-1.8563	-1.7903	-51.9559	-32.7168	3.4169	1.0638	-15.9739	-4.1245	-0.2124	-14.2642	-24.3087	1.1856	-16.0981	-1.3591	-8.9033
6144.0416	-2.6763	-1.1075	-1.0324	-49.4449	-34.8843	3.2907	2.1859	-9.5096	-6.3268	-0.0738	-12.6381	-24.9150	3.9047	-5.5897	-0.4165	-10.8825
6152.0417	-1.4031	-0.8320	-0.8008	-46.5645	-15.5120	3.2316	2.1361	-15.4024	-3.6221	-0.0276	-2.1716	-15.5327	3.6743	7.8737	-0.8090	-2.8108
6160.0417	-1.4727	-0.8606	-0.8688	-45.1430	3.2440	2.6323	1.8678	-11.8443	-3.2943	-0.2257	2.7845	-16.7882	3.8176	-2.3542	-0.5005	-1.2928
6168.0418	-0.5071	-1.0647	-1.1166	-52.6478	-18.9267	0.8801	2.5256	-3.8454	-3.7416	0.2304	3.7248	-17.5005	5.2481	-8.8862	-0.0837	-3.9072
6176.0419	-0.5749	-1.9937	-2.0026	-57.3099	-26.3333	-0.0219	1.5907	-12.4585	-0.7380	0.2863	-2.6059	-17.5174	2.8004	-19.2468	-0.9806	-6.5009
6184.0419	-1.2790	-2.0423	-2.0504	-58.1476	-8.5688	0.4066	1.6790	-18.3968	-1.1561	0.0381	-3.8946	-14.4064	3.2802	-20.0021	-0.9580	-2.1096
6192.0420	-1.4997	-1.9406	-1.9998	-63.9275	-4.2393	-0.2689	2.2116	-21.0650	-1.9054	0.0994	10.4053	-4.3618	4.7484	-19.0577	-0.8251	3.3323
6200.0420	-2.1800	-2.5171	-2.6184	-68.3124	-14.4412	-0.9305	1.4064	-24.7825	-1.0822	-0.0085	13.7185	-6.6663	3.1753	-35.2309	-1.1801	-5.2047
6208.0421	-2.3495	-2.3733	-2.5155	-74.7607	-26.7383	-0.5821	1.5874	-17.0806	-2.0081	-0.0464	10.8600	-14.9975	3.8637	-41.8723	-0.7505	-15.8020
6216.0421	-2.2093	-2.1638	-2.2937	-81.0926	-26.6513	-0.8383	1.1805	-9.1772	-0.6613	0.0050	17.3110	-15.8125	3.0338	-40.9665	-0.9802	-18.4877
6224.0422	-2.2356	-2.0130	-2.1515	-80.4775	-23.3316	-0.6094	1.0093	-10.7587	-0.1235	0.0142	26.2117	-14.9857	2.3826	-32.3897	-1.3836	-15.7998
6232.0422	-2.5243	-1.8977	-2.0221	-78.2102	-18.0349	-0.1504	1.6032	-9.8242	-1.9243	-0.0711	26.5282	-21.4851	3.7913	-30.1194	-0.9793	-13.5980
6240.0423	-3.0117	-2.2665	-2.3194	-67.9866	-12.1019	-0.2013	0.6589	-6.8502	-0.8859	-0.2495	17.5725	-28.2316	1.8209	-41.5331	-1.0844	-12.8618
6248.0423	-2.3561	-1.8711	-1.9387	-50.4622	-15.7518	-0.0653	0.9442	-8.0631	-0.7492	-0.1161	11.9276	-25.0325	2.1006	-29.1022	-0.7596	-8.1309
6256.0424	-0.6778	-0.9890	-1.0310	-34.4669	-0.3890	-0.9314	1.4893	-4.9339	-0.7517	-0.0325	7.5507	-24.8032	3.5275	-11.6094	0.0812	-8.2431
6264.0425	-0.1648	-0.7823	-0.7352	-16.3628	20.5215	-1.2522	0.3808	-6.0612	1.7483	-0.2850	5.7393	-25.6839	1.3999	-10.8535	0.0281	-9.0159
6272.0425	-1.0681	-0.9524	-0.9628	-4.8846	19.1391	0.0447	0.6527	-14.9411	0.8764	-0.5291	2.6638	-27.3520	2.0291	-14.3351	0.3111	-5.9158
6280.0426	-1.1520	-0.9193	-0.9674	1.0658	20.1190	0.4726	1.0358	-16.2068	-0.8086	-0.8132	-5.4721	-38.5201	3.5170	-24.0675	1.2163	-16.1730
6288.0426	-1.1446	-0.7959	-0.7705	16.1261	21.2889	0.9921	0.2520	-17.5925	0.2143	-1.1087	-5.6731	-41.9829	2.2338	-31.7652	1.4733	-23.9468
6296.0427	-1.3459	-0.5192	-0.5405	31.4105	25.7490	2.3558	0.3758	-13.0608	-0.4807	-1.1161	-9.5503	-36.9310	2.3180	-27.6843	1.7193	-9.9850
6304.0427	0.0957	0.5896	0.5726	49.0521	38.5976	3.1291	0.6205	2.6852	-0.8472	-0.8845	-14.8117	-27.7970	2.6505	-8.1406	2.2260	4.4749
6312.0428	0.6108	1.2699	1.3940	68.2738	33.7916	3.9703	-0.2758	7.5007	0.7989	-0.7763	-15.2161	-16.9789	0.1602	6.3150	1.8918	9.4647
6320.0428	0.2074	1.1156	1.1634	73.0234	21.7713	4.2208	-0.6567	9.2399	0.4847	-0.6172	-24.3936	-13.8447	-1.3097	8.2307	1.5016	14.3272
6328.0429	1.1171	1.8980	1.8818	82.3422	13.1441	3.6284	-0.7884	22.0379	0.9735	-0.1974	-31.0479	0.2871	-2.0260	23.2045	1.6163	21.2483
6336.0429	1.3097	2.9788	3.1239	93.4709	12.8541	3.8766	-1.8218	35.9465	3.0179	0.0079	-33.2180	21.0565	-4.6194	40.6486	1.2906	28.5440
6344.0430	1.7420	3.3190	3.4474	86.1197	29.6036	3.2411	-1.2430	35.7632	1.7428	0.0346	-33.5298	26.0274	-3.1002	48.9888	1.5223	30.5026
6352.0430	2.2374	2.8822	2.9485	83.8732	24.9264	1.6407	-0.8416	23.9211	1.4099	0.0992	-34.6306	24.7536	-2.1015	44.9942	1.6856	23.4581
6360.0431	1.1486	2.4112	2.5353	82.8581	11.3856	1.6033	-2.3338	22.2053	2.9963	-0.0127	-39.8754	24.5914	-5.6243	34.1571	0.8610	15.3568
6368.0432	1.6082	3.0110	3.0686	70.0648	33.5827	1.5734	-1.8299	30.1373	1.9977	-0.1065	-33.4834	26.3799	-3.8295	38.0165	1.2789	14.7999
6376.0432	2.2916	3.1830	3.1953	66.0945	34.8008	1.6383	-1.5642	36.2894	3.5595	-0.0075	-27.6408	27.8579	-3.0514	37.4694	1.4609	17.1898
6384.0433	1.3808	2.9310	2.9726	66.4436	3.6112	3.0790	-2.0415	30.8560	5.1739	0.0229	-24.5308	27.9489	-4.8072	37.3212	0.7783	12.3729
6392.0433	1.7458	3.4397	3.5274	64.4031	12.3505	3.6382	-0.5844	15.1412	2.4014	-0.2003	-17.9932	31.2825	-1.0734	48.2549	1.5813	4.9736
6400.0434	2.1146	3.2557	3.4060	62.9498	31.2968	3.5749	-0.8828	9.7533	2.9711	-0.4457	-23.0032	32.6120	-1.2137	40.6879	1.6307	2.3757
6408.0434	1.7692	2.7949	2.8569	56.4449	19.9860	4.0351	-1.5710	7.6444	4.6660	-0.4224	-20.3205	31.5222	-3.1417	35.2006	0.8333	0.6802
6416.0435	2.0064	2.6940	2.7541	51.1929	9.6777	4.3340	-0.6123	0.7536	3.8275	-0.2865	-10.9141	31.1214	-1.2999	40.6497	0.8742	1.9746
6424.0435	1.7660	2.1403	2.3345	47.4412	-2.4633	4.3071	-0.7638	-1.3868	4.0533	-0.2343	-14.7074	31.2187	-1.7315	29.5204	0.6938	0.8940
6432.0436	2.0363	1.8932	2.0303	42.8538	-8.1233	3.3625	-0.8224	-0.2627	3.2392	-0.1767	-19.4888	30.0564	-1.6209	19.7934	0.8746	-5.3927
6440.0436	2.5405	1.4518	1.5116	38.0141	3.0707	1.9824	-1.0685	-0.6266	3.3720	-0.0618	-18.9518	23.7790	-2.3974	19.5362	0.4104	-2.5536
6448.0437	1.6097	0.4828	0.5131	23.9357	4.5135	1.6407	-2.0156	-8.7075	5.2878	-0.1570	-11.4696	17.1951	-4.8848	10.6845	-0.8806	-3.5341
6456.0438	1.2616	0.3997	0.3718	6.0290	1.6395	2.1213	-1.3987	-11.1925	3.7665	-0.3282	-2.9911	12.2687	-2.9796	2.1422	-0.6143	-13.8294
6464.0438	1.7387	0.2196	0.2055	-5.7213	-13.3852	1.6375	-0.3626	-7.2427	1.5962	-0.0305	0.0450	7.2284	-0.8600	0.9111	-0.3294	-14.7037
6472.0439	1.2073	-0.7596	-0.7896	-13.4428	-35.7292	1.1631	-0.8400	-13.2887	2.3586	0.1793	-1.4155	2.4902	-2.7514	-6.2103	-1.3038	-15.3580
6480.0439	0.3218	-0.9343	-0.9665	-13.9394	-25.6419	2.2210	-1.5011	-13.3719	2.1202	-0.1620	-5.7794	-1.7043	-3.9296	-15.6727	-1.4762	-17.5307
6488.0440	0.2751	-0.5964	-0.5816	-6.3907	-12.1218	1.4607	-1.0617	-6.7610	-0.5063	-0.2447	-3.2170	1.2347	-2.1387	-21.7645	-0.5017	-13.5466
6496.0440	0.3525	-0.6192	-0.6206	-5.4621	-13.8276	0.3534	-1.4375	-2.6068	-0.2432	-0.0272	1.5939	10.3469	-3.1019	-21.8221	-0.7734	-7.0726
6504.0441	-0.6661	-0.3574	-0.3776	-15.0813	-7.6191	1.9956	-1.9411	1.0630	1.1067	-0.0732	1.0644	15.7485	-4.8042	-9.3628	-1.7068	0.3087
6512.0441	-1.5172	-0.1725	-0.2235	-16.6747	-7.4877	2.0736	-0.8121	-1.6337	-1.4169	-0.1722	-7.0942	16.3493	-1.9195	-9.2117	-0.8291	-0.4593
6520.0442	-1.3485	-0.3657	-0.4101	-10.9001	-12.4278	1.0275	-0.8398	-0.2155	-1.7291	-0.0863	-13.3940	18.1500	-1.7682	-17.6813	-0.4520	-0.7075
6528.0442	-0.9964	-0.1143	-0.1381	-14.3389	-13.8074	1.1648	-1.1295	3.7180	0.4047	0.0657	-4.0101	16.9391	-2.9189	-4.8655	-1.0738	1.1737
6536.0443	-0.3693	0.1224	0.0285	-20.6879	-20.5148	0.9126	0.0403	0.9819	-0.0344	0.1858	3.1367	6.5044	-0.4718	6.9122	-0.7130	-5.2200
6544.0443	-0.0052	-0.0826	-0.1666	-21.4580	-20.1512	1.0121	0.3944	-0.2345	0.5610	0.2487	4.8671	-1.7676	0.0407	9.8571	-0.7929	-3.0527
6552.0444	-0.0294	-0.0839	-0.0972	-19.1612	-10.9154	1.2158	0.2283	1.1929	1.9170	0.1995	3.9686	-4.6411	-0.4096	12.8371	-0.9449	1.0569
6560.0445	-0.0321	0.0054	0.0400	-12.0106	-14.6098	0.9429	0.3211	5.2817	1.2835	0.1947	-0.2102	-3.2632	0.1574	5.9573	-0.3609	0.5041
6568.0445	0.6167	0.2822	0.2949	-2.6409	-22.6258	-0.1962	0.6221	11.4535	1.1439	0.4770	9.4473	7.9030	1.0417	4.7284	0.1677	7.5229
6576.0446	1.5502	0.5421	0.3858	-3.1550	-17.0565	-1.0890	0.4491	11.0424	3.1476	0.6047	12.6339	13.3027	0.6113	12.8274	-0.0152	7.0947
6584.0446	0.2769	-0.1994	-0.3592	-11.6506	-20.6643	0.0071	0.1380	-4.7021	3.1797	0.3067	7.3381	4.7615	-0.4309	7.8294	-0.7559	0.0518
6592.0447	-0.2999	-0.5440	-0.6072	-11.3910	-23.9427	-0.1103	1.1370	-11.9457	-0.0928	0.1613	13.4296	-1.6782	2.2724	-2.9992	-0.0077	-2.2432
6600.0447	0.7586	0.0449	-0.0604	-8.0371	-6.5793	-0.4830	0.7365	-1.2035	0.1295	0.1625	13.3780	3.5081	1.8403	-0.8142	0.2542	-1.1021
6608.0448	-0.3250	-0.5303	-0.5733	-13.6778	-10.0456	0.2472	-0.1833	-10.5287	1.0888	0.0752	11.3384	10.6142	-0.7225	-4.0340	-0.8689	1.7870
6616.0448	0.0747	-0.9021	-0.9442	-18.4875	-17.4868	-0.3728	0.8100	-14.4099	-0.6623	0.1409	13.3023	7.1921	1.8472	-14.6755	-0.2132	-1.0741
6624.0449	1.2656	0.1098	0.0088	-20.2653	-7.0970	0.2846	0.6347	7.9407	-0.2055	0.2406	12.0934	4.2793	1.6096	-4.0722	0.0642	-1.5374
6632.0449	0.4776	0.0458	0.0894	-28.5637	-23.0851	0.7426	0.2250	9.1461	-0.7609	0.4357	11.1378	5.6285	-0.2404	6.2663	-0.8864	-0.9132
6640.0450	0.7441	-0.8990	-0.8332	-43.3425	-26.1788	-0.1488	0.1349	-6.7532	-0.9848	0.4256	8.5524	0.7689	-0.6700	-1.4724	-1.5582	-9.9290
6648.0451	-0.6100	-1.0638	-1.0310	-46.7924	0.2933	0.8721	-0.9894	-12.5446	-0.2273	-0.1488	4.6523	-3.3315	-2.7388	-7.9792	-2.1025	-14.0376
6656.0451	-1.4872	-0.4216	-0.3026	-31.9993	3.2899	0.4265	-0.7335	4.1858	-3.1191	-0.0905	1.7861	-0.7904	-1.8154	-6.9158	-1.1616	-4.5280
6664.0452	0.0976	-0.0448	0.0040	-31.1653	-0.6788	-0.8707	-0.3443	21.9123	-2.2523	0.4924	10.0493	4.9905	-1.2918	1.8039	-1.0415	8.7595
6672.0452	-1.1811	-0.8299	-0.8138	-49.3088	-17.7296	-0.1225	-0.4670	8.9736	-0.5602	0.5184	13.2406	4.5819	-2.3658	1.7573	-2.2323	7.6932
6680.0453	-1.7454	-1.0627	-0.9494	-52.0444	-43.7786	-0.0023	0.3086	3.5091	-3.2994	0.6232	1.5190	-0.1574	-0.9772	0.8557	-1.8900	-0.5968
6688.0453	-0.6631	-0.6031	-0.5811	-44.8181	-28.1002	-0.4830	0.3289	7.3508	-2.9433	0.6601	8.9864	2.5303	-0.7052	7.9262	-1.6617	3.6705
6696.0454	-0.3924	-0.8119	-0.9460	-44.0457	-7.3242	-1.5795	0.3562	-1.8885	-2.1736	0.4253	20.4897	1.5977	0.0686	1.0216	-1.4619	2.2507
6704.0454	0.7849	-0.5981	-0.7129	-38.4784	-4.2218	-2.2704	0.2223	0.9255	-1.4073	0.4686	20.2155	-1.0295	-0.0036	1.7319	-1.1779	-2.8014
6712.0455	0.0558	-0.3542	-0.3955	-34.1390	0.8252	-0.6536	-0.7229	7.5086	0.3901	0.4287	23.0277	7.7832	-2.5351	7.7746	-1.9500	9.1570
6720.0455	-0.5296	-0.6910	-0.7238	-39.5183	-8.4778	0.3477	-0.0051	10.5197	-1.5195	0.6091	18.0177	14.2143	-1.2686	2.5707	-1.8954	22.5617
6728.0456	0.7265	-0.6445	-0.6795	-42.1607	-6.4962	0.6042	0.4287	15.7826	-1.3185	0.8010	16.7858	11.6698	-0.5081	6.1659	-1.8232	26.6710
6736.0456	0.3133	-0.2360	-0.2777	-42.8022	19.3527	2.2986	-0.9541	18.4336	1.3233	0.2798	22.9499	10.8391	-3.0295	4.5364	-2.3321	21.9896
6744.0457	0.0742	0.4135	0.3755	-37.0289	32.6454	4.0685	-1.1951	19.7925	0.9677	-0.1642	22.7225	13.6257	-2.7473	1.5127	-1.7790	15.7575
6752.0458	-0.3720	0.6084	0.6439	-11.8898	28.3862	5.1509	-0.6393	15.7173	-0.4062	-0.3359	16.8400	11.0018	-1.3825	1.5248	-0.8549	20.0195
6760.0458	-0.7151	0.7154	0.7983	15.3669	19.4069	5.1493	-0.8140	18.5426	-1.4338	-0.4353	6.3614	6.2615	-1.5478	-5.4205	0.0112	19.6258
6768.0459	1.1214	1.5759	1.5862	38.1619	33.1301	2.9817	-1.3876	25.0449	-0.0958	-0.3860	9.6867	8.1487	-2.2189	2.4299	0.7266	13.5506
6776.0459	1.8098	1.6118	1.5537	56.8655	51.8829	0.8497	-1.7921	19.0882	2.2847	-0.3673	21.9802	11.2761	-2.9282	7.8315	0.7413	20.7130
6784.0460	1.4988	1.1990	1.2334	57.3261	31.3658	0.4518	-1.4089	10.0132	2.4937	-0.1831	21.9226	12.7530	-2.5790	9.0824	0.5683	20.6197
6792.0460	1.8638	1.7872	1.9075	65.0825	27.2150	0.0916	-1.1814	9.5705	2.0900	-0.1665	13.3176	8.6292	-2.1762	23.1383	0.9767	11.2228
6800.0461	1.5271	2.1920	2.2372	84.1155	51.2649	0.8041	-1.7187	20.7804	1.6898	-0.4001	8.9555	10.3222	-2.8828	19.3575	1.4562	23.5796
6808.0461	1.1504	2.1634	2.2185	79.7004	39.6598	3.2527	-1.8442	20.6982	2.0267	-0.4588	18.1628	27.2706	-3.0652	9.0900	1.2246	30.5868
6816.0462	1.9829	2.4246	2.5192	66.7077	22.7879	4.9750	-1.0416	13.6233	2.4608	-0.4504	21.5374	29.5222	-1.3685	14.8346	1.2956	19.1917
6824.0462	2.7019	2.2109	2.2065	57.4741	20.8968	6.1588	-0.2783	17.4088	2.2347	-0.3880	12.4197	15.4555	0.0262	15.0248	1.4158	18.7293
6832.0463	1.8510	1.7711	1.7805	52.1331	19.7537	7.5271	-0.7989	10.7567	2.7599	-0.6628	7.6164	5.9194	-1.3563	10.2355	0.8301	12.6020
6840.0464	1.0932	2.1479	2.1651	60.9909	35.9739	8.7271	-1.3151	5.9829	2.1583	-1.0981	7.6916	3.5975	-2.1994	14.1095	0.8425	8.6869
6848.0464	0.6858	1.9255	1.8393	57.4567	33.6485	9.0391	-0.7563	2.8172	0.8497	-1.0474	10.0634	10.7136	-0.9509	9.7857	0.9474	16.4648
6856.0465	-0.0377	1.1003	1.0837	43.5648	11.2086	7.9009	-0.6695	-8.9350	0.6899	-0.9732	5.6151	10.3596	-0.8796	-1.9149	0.6511	5.5267
6864.0465	0.2970	1.3616	1.3786	43.7974	14.1568	6.7042	-0.4515	-5.9710	0.3636	-0.8483	3.4312	4.8490	-0.5232	8.2805	0.7850	2.6230
6872.0466	0.6997	1.2409	1.1505	41.0761	24.6802	5.1363	0.2597	-9.8064	0.1365	-0.6893	5.9036	7.0509	1.0851	12.9402	0.9673	9.0673
6880.0466	0.6435	0.5934	0.5329	38.5146	30.5422	3.5548	-0.0603	-18.3221	0.4104	-0.8972	-1.2080	3.6370	1.0967	-6.1299	1.2291	-1.4178
6888.0467	0.1831	0.7593	0.7571	42.6353	24.2694	4.2340	-0.5300	-12.6825	0.9611	-0.9322	0.2311	6.1300	0.0644	-8.5705	1.1632	-0.6389
6896.0467	-0.6442	1.1461	1.1841	42.2973	1.8178	6.1164	-0.2463	-14.9402	0.6670	-0.8502	4.2568	14.6732	0.0773	3.3084	0.8886	0.9904
6904.0468	0.2045	1.8252	1.9226	45.6464	-2.0256	8.0338	0.3279	-15.4353	-0.5193	-0.9659	0.5061	13.0012	1.4257	12.6506	1.4115	-7.0782
6912.0468	0.6569	2.0741	2.1125	44.0956	4.8490	9.7289	0.3990	-12.8844	-0.2001	-1.1038	0.4982	12.6304	1.7114	13.1731	1.4764	-6.3690
6920.0469	-0.3828	1.7955	1.8076	34.3230	5.4209	10.4445	-0.2654	-11.9056	0.2965	-1.2989	0.5965	11.9835	0.3687	3.2782	1.0090	-9.1464
6928.0470	0.1176	1.8182	1.8866	30.9513	-0.3535	9.5669	-0.1606	-5.0343	0.2221	-1.1263	10.0556	10.7324	0.7628	-0.3883	1.1612	-10.1152
6936.0470	1.0393	1.0434	1.1097	20.7605	-19.7279	6.9815	0.6448	-9.7950	0.8146	-0.5945	19.3686	13.9657	2.2363	-6.0843	1.0675	-6.5807
6944.0471	0.6343	0.3146	0.3737	4.5357	-19.4602	5.2728	0.7462	-14.0977	1.0759	-0.4331	17.0980	9.6725	2.1628	-9.1591	0.5166	-6.2759
6952.0471	-0.0737	0.4562	0.4650	0.1473	-4.1398	4.4623	0.3692	-8.2046	1.2413	-0.4621	12.7540	6.3720	1.2485	-2.5401	0.2213	-3.5630
6960.0472	-0.2358	0.3808	0.3556	0.5148	-6.0895	2.3779	0.1305	-10.8388	0.8349	-0.3584	5.1952	11.6310	0.8307	-3.4659	0.2917	-8.2361
6968.0472	-0.4903	0.2122	0.2247	-4.2847	1.1532	1.2123	-0.1358	-14.9629	0.3667	-0.4543	9.8596	9.6571	0.5093	-6.5644	0.1502	-13.7177
6976.0473	-0.9004	-0.0222	-0.0254	-11.9957	6.1526	1.3716	-0.1060	-14.7422	0.6808	-0.5060	18.9934	4.8782	0.5648	-8.8301	-0.1469	-11.0562
6984.0473	-0.4235	-0.1626	-0.1320	-13.8086	-11.7904	1.0595	0.7803	-16.2724	-0.0714	-0.2228	11.9841	6.5461	2.2231	-7.3424	0.1943	-10.6176
6992.0474	-1.1122	-0.5390	-0.5305	-14.0017	-20.7762	1.4137	0.7264	-20.4139	-0.4474	-0.3287	-1.5941	0.3239	1.9950	-13.9538	0.2243	-16.1479
7000.0474	-2.3350	-0.9391	-1.0215	-16.7398	-19.5494	2.1930	-0.1866	-21.3369	-0.7743	-0.7624	-12.5253	-8.1425	0.4989	-33.6816	0.1981	-27.9294
7008.0475	-1.1913	-0.0767	-0.0277	-10.5752	-15.7225	2.7253	0.2883	-13.8792	-1.3068	-0.6410	-5.8410	0.5686	1.7304	-22.1315	0.7187	-24.2371
7016.0475	-0.8373	0.3871	0.4747	-9.7029	-9.2201	3.9163	0.7023	-14.2851	-0.1502	-0.4637	7.1124	9.1384	1.9505	-0.0626	0.1931	-9.1668
7024.0476	-1.3159	0.1022	0.0998	-14.5672	-7.4053	3.9384	0.7609	-20.4066	-1.0560	-0.6554	7.5229	1.3955	2.2644	-5.6755	0.1928	-15.9613
7032.0477	-0.3364	0.4882	0.5603	-5.6650	-3.0135	2.6328	0.9204	-7.9220	-1.6141	-0.5173	8.9053	-4.1697	3.0119	-5.9116	0.9320	-16.4806
7040.0477	-0.7851	0.3412	0.3796	-7.1242	-11.7785	2.4968	0.4780	1.7887	-0.2261	-0.2181	12.2777	0.9790	1.4091	-4.0747	0.2936	-3.8562
7048.0478	-1.0542	0.0107	0.0055	-18.4874	-31.7862	1.2457	1.0094	-8.4262	-2.0118	-0.1333	11.8948	3.2648	2.7287	-10.4289	0.4844	-16.8223
7056.0478	0.7305	0.3295	0.3405	-17.0898	-23.6838	-1.1733	0.9363	-10.9224	-1.1289	-0.0324	9.2269	3.7472	2.9927	-5.1972	0.8515	-29.7543
7064.0479	0.5446	0.3501	0.2755	-16.9246	-4.6968	-1.2412	-0.3715	-5.9871	1.5182	-0.1427	16.4686	9.7745	0.1722	-6.8503	0.0745	-22.8935
7072.0479	-0.7902	0.2415	0.2599	-16.2793	-5.0741	-0.9868	-0.3193	-0.9995	-0.7755	-0.2511	29.0999	13.2683	0.7448	-19.4557	0.3434	-15.7609
7080.0480	-1.1312	0.0499	0.1045	-17.4312	-9.1560	-1.1382	-0.4441	3.7489	-1.5426	-0.0778	23.1119	15.2901	0.0576	-19.3182	0.0665	-8.6393
7088.0480	-1.5261	-0.2450	-0.3489	-28.3715	-11.5837	-0.5441	-0.6648	-0.5298	-0.8132	-0.0799	15.2703	16.0075	-0.8732	-17.7975	-0.5874	-9.3681
7096.0481	-0.6376	-0.0472	-0.1178	-31.7329	-14.6538	-0.8792	0.1821	4.5357	-1.4347	0.1106	18.0108	10.4098	0.9920	-12.7416	-0.1475	-9.8046
7104.0481	0.2471	-0.0175	-0.0926	-31.8744	-12.7109	-1.4385	0.2827	6.2723	-0.2937	0.4081	21.9467	8.3757	0.4959	1.8284	-0.6590	-2.5888
7112.0482	-0.8186	-0.6234	-0.7891	-32.0492	-12.6266	-1.8323	-0.3309	-7.3967	0.5026	0.1745	25.6423	6.3189	-0.8501	-6.0044	-1.1845	-7.1079
7120.0483	-1.2677	-1.0214	-1.1316	-27.0569	-14.9817	-2.7120	-0.4228	-5.4835	-0.0703	0.1866	17.3591	1.1676	-0.9581	-15.6836	-0.9394	-6.0623
7128.0483	-1.1295	-1.3710	-1.4436	-32.5127	-15.0845	-3.1431	0.2199	-4.3200	-0.4004	0.4764	-1.3578	-4.5582	-0.3492	-6.2394	-1.1552	2.2702
