Time	Fz	Fpz	C3	C4	T5	T4	O1	O2	F7	F8	F3	F4	T3	T6	P3	P4
0.0000	-22.2746	0.0820	0.0320	-20.5475	-10.3354	-2.2255	-2.9845	-7.6392	-13.6284	-1.7789	3.4995	1.2579	-6.2259	-2.5321	-1.6129	-5.5630
8.0000	-28.8823	0.3808	0.3200	-12.8717	-4.8481	-2.2114	-2.6689	-8.0613	-5.3743	-2.5442	-4.8623	-9.3900	-4.5863	-2.9157	-0.6629	-2.4026
16.0000	-23.2652	0.2464	0.1978	-16.4323	-7.6341	-1.8318	-1.7687	-7.4688	1.0895	-1.9518	-4.1790	1.1265	-2.7203	-3.0906	-0.4630	3.0321
24.0000	-33.2777	0.5913	0.5244	-24.0765	-12.3240	-2.4383	-2.0935	-7.7940	-9.2740	-2.6836	-12.9306	6.9764	-3.1061	-2.6100	-0.3732	4.9004
32.0000	-35.9459	0.6752	0.6047	-15.0426	-6.4411	-2.5039	-2.3947	-7.8902	-0.2583	-3.0537	-13.9709	-1.3958	-3.4138	-0.7367	-0.1886	7.9527
40.0000	-37.4628	1.3409	1.2725	-11.6414	-5.7373	-2.5723	-2.3563	-9.4987	-2.0588	-3.3526	0.0850	6.0402	-2.5194	-0.8171	0.3880	1.1665
48.0000	-42.0094	1.5992	1.5220	-15.3435	-7.7802	-2.7529	-2.2634	-12.8584	-7.3325	-3.8229	3.9817	6.8405	-1.7532	-3.7481	0.7557	-3.6516
56.0000	-37.0164	0.6997	0.6200	-19.7264	-7.4992	-2.2015	-1.5433	-12.9272	4.1603	-3.3163	-0.8946	-10.2862	-0.9006	-3.4109	0.3837	3.5744
64.0000	-36.0482	0.5350	0.4537	-23.0051	-8.9315	-2.0861	-1.3758	-11.0711	4.2310	-3.1050	0.5311	-11.0426	-0.9287	-0.7010	0.1028	8.4158
72.0000	-26.9074	0.1606	0.1019	-20.5184	-8.8114	-1.8840	-1.6635	-8.5509	5.9823	-2.1149	15.9422	2.2895	-2.5450	1.5025	-0.8685	16.7106
80.0000	-22.0326	-0.1749	-0.2304	-27.4627	-12.0924	-1.3362	-0.8185	-6.4537	2.2815	-1.4877	26.3905	2.1418	-1.4208	4.0568	-1.1863	23.2320
88.0000	-24.0774	-0.0498	-0.1139	-31.2551	-13.6595	-0.9901	-0.0307	-5.3675	-10.0484	-1.6274	20.9158	-5.1862	0.2489	4.9496	-0.7184	20.8850
96.0000	-19.7667	-0.1201	-0.1801	-32.9428	-14.3275	-1.0175	-0.2431	-3.6467	0.7280	-1.3484	22.1943	-6.9234	-0.1299	3.8620	-0.8370	14.4662
104.0000	-25.8721	0.3089	0.2282	-44.8085	-19.8735	-1.4566	-0.2391	-3.2073	10.2073	-1.9753	27.0438	-8.8999	0.9181	2.9094	-0.4036	7.6631
112.0000	-29.6572	0.4893	0.4147	-32.2619	-14.0723	-1.7032	-0.9519	-2.1856	1.7877	-2.2752	21.3596	-3.6925	-0.7184	3.2560	-0.4598	14.4825
120.0000	-29.9118	0.6702	0.6067	-19.4489	-8.5819	-2.0315	-2.0263	0.0228	-2.6535	-2.3208	13.2122	2.3459	-3.2665	4.1019	-0.7218	14.8846
128.0000	-27.9206	0.8953	0.8191	-35.8298	-16.9104	-1.7217	-0.8814	0.4601	-1.1779	-2.2201	10.1490	-4.3825	-0.3655	4.6817	-0.0726	-0.3944
136.0000	-19.8079	0.4979	0.4298	-39.7257	-18.5601	-0.9042	0.3584	0.9091	-2.2327	-1.4517	8.4197	-10.1104	1.7003	6.0432	0.0274	-0.9332
144.0000	-25.1365	0.6515	0.5729	-40.8772	-18.8989	-1.2477	-0.1200	1.2562	-7.1356	-1.9047	6.7548	-12.4702	0.8025	6.1566	-0.0497	-1.6429
152.0000	-29.2016	0.9911	0.9003	-48.6882	-23.2755	-1.7755	-0.6557	1.0219	-6.5381	-2.3253	9.0829	-10.6754	0.1751	4.8468	-0.0368	-11.1606
160.0000	-26.2258	0.9074	0.8281	-40.1585	-19.0370	-1.5667	-0.6261	1.1533	-4.6199	-2.0993	7.0499	-9.5426	0.0783	5.1022	0.0085	-7.8708
168.0000	-25.2175	0.6362	0.5562	-38.4502	-16.9034	-1.0848	0.0322	1.3434	-8.3368	-1.9937	5.4089	-19.7320	1.2234	4.9611	0.1711	-3.9833
176.0000	-23.5547	0.5090	0.4300	-40.0296	-17.4450	-1.0711	-0.0228	2.2891	-5.1832	-1.8532	5.4861	-21.3409	1.0213	4.0291	0.0445	-5.0917
184.0000	-25.0206	0.8307	0.7581	-29.3688	-12.7486	-1.3748	-0.6236	2.9966	0.7389	-2.1029	-5.6220	-16.5806	0.1334	4.5467	0.3331	-5.8253
192.0000	-22.2700	0.8828	0.8204	-19.3651	-7.7870	-1.1607	-0.6341	3.2501	0.9608	-1.9658	-11.5246	-18.4260	0.0461	5.3211	0.5455	-7.3666
200.0000	-20.1837	1.0342	0.9913	2.1562	3.1219	-0.8955	-0.8116	3.8814	4.0286	-1.9095	-9.7221	-15.6756	-0.2445	6.3664	0.8564	0.8348
208.0000	-17.5106	1.3238	1.2987	20.3340	12.3592	-0.4053	-0.2934	4.0343	10.3849	-1.8516	-6.0672	-13.0995	1.3644	6.9692	1.6675	7.1162
216.0000	-13.9345	1.2854	1.2639	17.3412	10.5991	-0.4618	-0.5620	4.0191	12.7663	-1.6106	-0.5164	-12.7335	0.7455	5.2290	1.4376	-1.1507
224.0000	-17.4068	1.4268	1.4044	25.2914	14.4040	-1.0697	-1.9458	4.0538	10.5133	-2.0102	-9.1426	-13.5669	-2.2295	4.5757	1.0947	-6.0823
232.0000	-14.5481	1.5682	1.5526	34.6012	19.6229	-0.5347	-1.3169	3.6677	10.9464	-1.9156	-9.8573	-20.5804	-0.7250	6.4420	1.6866	-8.2367
240.0000	-14.8743	1.6433	1.6177	25.2729	15.5584	-0.3881	-0.7612	3.1174	13.4678	-1.9730	1.4213	-25.2936	0.7839	6.6450	1.8745	-12.2776
248.0000	-15.9988	1.4232	1.3977	24.8199	15.2232	-0.4576	-0.8893	3.2332	7.3252	-1.9604	-6.1196	-24.3326	0.1453	5.2994	1.6456	-8.2415
256.0000	-10.4541	1.2445	1.2362	32.7177	18.3859	0.0561	-0.3982	3.7968	-2.3124	-1.4321	-18.0748	-22.2075	0.5900	5.2229	1.7886	-6.9799
264.0000	-13.5800	1.6289	1.6172	37.2379	20.6111	-0.1949	-0.8215	3.8114	-1.5323	-1.8442	-18.7488	-23.2516	0.1822	5.4232	2.0776	-12.0584
272.0000	-10.2091	1.5186	1.5151	41.7279	23.1438	-0.1389	-1.0960	3.9301	4.1871	-1.6152	-10.5415	-23.1519	-0.4908	4.7800	1.8494	-11.9426
280.0000	-1.1486	0.9904	1.0019	34.1852	18.2597	0.1679	-0.7677	4.1169	3.5231	-0.6287	-3.7304	-13.7367	-0.6965	4.1484	1.1322	-9.7853
288.0000	4.6611	0.7994	0.8224	29.1924	14.5470	0.3576	-0.3685	4.2265	5.7988	-0.0142	-1.1629	-3.4351	-0.1537	3.5345	0.9421	-8.5695
296.0000	9.5075	0.9704	1.0092	39.6391	19.8047	0.6857	-0.1309	4.6441	15.2020	0.2312	8.1360	-0.6967	0.7575	2.6175	1.3718	-8.6800
304.0000	6.3128	0.9388	0.9725	39.9169	20.3249	0.4986	-0.4315	4.4655	13.2780	-0.0108	9.0643	-1.8469	0.0984	2.3436	1.2120	-5.3013
312.0000	5.1616	0.6115	0.6444	37.6280	19.1066	0.5685	-0.2370	4.2609	5.9077	0.1006	4.1327	0.3215	-0.0551	2.8454	0.8918	4.4274
320.0000	5.0090	0.9479	0.9896	45.4553	22.2879	0.5232	-0.3806	4.3849	7.5725	0.0224	10.8489	8.8310	0.0102	3.0045	1.1561	6.7389
328.0000	9.8786	0.8944	0.9475	44.1496	20.5615	0.6523	-0.3007	4.3662	5.6333	0.4867	17.8241	17.0939	-0.0752	2.1070	0.9496	4.9082
336.0000	17.4541	0.2759	0.3380	37.6735	17.3551	1.1397	0.3967	4.7632	5.7152	1.2799	13.9293	15.8624	0.6519	0.4878	0.6176	6.3803
344.0000	9.9688	0.5960	0.6411	36.3153	17.2076	0.5492	-0.2779	4.5772	9.4213	0.5003	3.5063	9.7373	-0.1284	-0.0688	0.8643	0.0270
352.0000	5.8734	0.9959	1.0357	38.7957	17.9998	0.3540	-0.5113	3.6297	2.0170	0.0720	2.0150	10.1047	-0.2994	0.7180	1.1474	-4.7791
360.0000	4.7190	0.9223	0.9608	40.7301	19.5089	0.5425	-0.1596	3.3453	0.2126	0.0012	1.1603	7.2754	0.4327	0.9426	1.3120	0.4366
368.0000	-0.0161	0.7739	0.7975	33.6029	16.6379	0.0660	-0.7216	3.1289	2.6301	-0.3812	-6.2022	1.8092	-0.7255	-0.4344	1.0015	-1.1111
376.0000	-0.0283	0.6827	0.7016	22.9199	10.5116	-0.2525	-1.0004	2.6935	1.0262	-0.3100	-7.4809	6.2472	-1.4335	-2.5875	0.6459	-6.7023
384.0000	-3.3407	0.4724	0.4737	8.5706	3.9518	-0.4787	-0.7417	2.5765	7.6201	-0.5106	-16.9349	1.3715	-0.7326	-3.2803	0.6133	-6.9890
392.0000	-0.6494	-0.0423	-0.0478	-0.5270	0.3636	-0.0853	-0.0369	1.9221	4.1434	-0.1859	-25.7709	-10.5909	0.1652	-2.9383	0.4340	-9.0408
400.0000	4.6929	-0.1859	-0.1725	9.7897	5.1470	0.2842	-0.0384	1.4158	-1.7213	0.2843	-16.0953	-6.2151	-0.3371	-3.1395	0.2067	-5.1663
408.0000	7.3137	-0.3646	-0.3411	12.0679	5.8534	0.2425	-0.2137	1.7663	6.3425	0.6088	-8.1851	3.5169	-0.9152	-2.4699	-0.1804	4.3545
416.0000	14.8341	-0.6833	-0.6506	3.4387	0.5002	0.8245	0.9342	1.4984	4.6836	1.4377	-9.2604	9.2061	0.9324	-0.4517	-0.2498	5.8686
424.0000	15.1295	-0.8099	-0.7781	1.6334	-0.4431	1.0352	1.4117	1.3146	1.9948	1.5625	-13.9212	8.8445	1.6986	1.4364	-0.2134	10.1616
432.0000	13.2964	-1.1388	-1.1171	-5.2908	-3.0330	0.9260	1.2906	1.4956	0.6730	1.5071	-15.7998	2.4711	1.0941	1.1545	-0.6355	12.3491
440.0000	17.8029	-1.0442	-1.0110	-1.8992	-2.2078	1.0661	1.1835	1.5185	-4.4895	1.8273	-11.8273	6.0438	0.7158	-0.0488	-0.6621	4.9752
448.0000	21.8915	-0.9793	-0.9253	10.7233	3.2385	1.0939	0.8446	2.1012	3.4430	2.1474	-6.2688	17.9412	-0.0035	0.3170	-0.7264	11.8111
456.0000	19.4401	-1.0789	-1.0332	1.4508	-1.3977	1.0009	1.1710	1.4382	4.0342	2.0444	-5.0820	20.4326	0.8144	-1.1129	-0.7286	15.4632
464.0000	11.7021	-0.5934	-0.5719	-7.1481	-5.3479	0.4171	0.6467	0.3769	0.2503	1.1685	-13.1180	10.2769	0.5279	-3.4936	-0.3157	-3.0669
472.0000	6.9750	-0.4233	-0.4108	2.5287	1.0552	0.0090	-0.4291	0.4812	5.8538	0.5352	-17.1775	-2.9073	-1.4298	-2.6659	-0.3469	-7.8891
480.0000	3.5661	-0.5207	-0.5143	4.0829	2.7595	0.2145	-0.0253	0.1039	0.6288	0.3359	-14.4749	-7.4048	-0.7017	-0.8478	-0.2825	2.0165
488.0000	8.0167	-0.5936	-0.5836	-4.5463	-2.3016	0.6280	0.9514	0.6310	1.2082	0.8562	-7.6766	-1.4469	1.1926	1.2336	-0.2207	4.1575
496.0000	12.2390	-0.7200	-0.7029	-5.5687	-3.0323	0.8888	1.3091	1.1002	5.2816	1.2784	-0.9024	1.8950	1.7300	2.9421	-0.3544	7.2236
504.0000	5.4139	-0.6252	-0.6211	-4.8819	-2.1012	0.4549	0.6013	0.2336	-0.9683	0.6741	-3.8260	-3.2822	0.3029	2.6879	-0.5231	6.7207
512.0000	6.6662	-0.6095	-0.6097	-9.7044	-4.3941	0.1337	-0.0981	0.2647	4.2044	0.6919	2.7787	-6.1619	-1.1684	2.4401	-0.9532	-3.3892
520.0000	7.1944	-0.3739	-0.3736	-10.0461	-4.9528	0.2212	0.1208	0.0665	2.5544	0.6724	5.4696	-5.2323	-0.4531	2.6772	-0.6616	-8.3035
528.0000	-2.7255	-0.0927	-0.1098	-12.1847	-6.0060	-0.2056	-0.1541	-0.3158	-9.7933	-0.1415	-6.6052	-7.4743	-0.7335	1.9443	-0.3901	-7.7639
536.0000	-8.6977	-0.1252	-0.1573	-18.2797	-8.1432	-0.7578	-0.8428	0.0404	-4.3736	-0.6346	-1.1027	-9.8488	-1.9178	0.2408	-0.7311	-5.2426
544.0000	-6.4098	-0.1222	-0.1471	-14.6677	-6.1994	-0.6007	-0.5548	0.3218	7.5665	-0.4678	4.2482	-6.1396	-1.0452	1.0188	-0.5434	0.5659
552.0000	-1.4309	-0.1565	-0.1729	-14.1219	-6.3646	-0.2354	0.0450	0.2365	12.5705	-0.0391	4.4866	-3.5882	0.1524	3.1457	-0.3695	0.6637
560.0000	-1.8485	-0.5010	-0.5254	-20.1102	-8.0800	-0.0963	0.1448	-0.2852	5.9004	-0.0237	12.3641	-13.4213	-0.0001	1.1345	-0.7271	0.2673
568.0000	3.5259	-1.0816	-1.0961	-17.3936	-5.9880	0.4282	0.4543	0.3164	-4.4471	0.5233	9.1674	-21.0491	-0.2664	-1.2449	-1.0852	2.1957
576.0000	8.6067	-0.9438	-0.9482	-16.7491	-6.6819	0.7363	0.9667	0.5865	-4.5752	0.8976	4.5729	-17.4893	0.8889	-1.2818	-0.7001	-4.8365
584.0000	5.7431	-0.8815	-0.8939	-21.5829	-9.1578	0.5639	0.9511	0.2286	-6.8483	0.6683	0.5545	-18.2819	0.9987	-1.9235	-0.6324	-6.8585
592.0000	12.4218	-1.5978	-1.5972	-19.1775	-7.6035	0.7261	0.6158	1.6330	-3.6959	1.3889	-3.2083	-19.2399	-0.7976	-1.9086	-1.5291	-0.2928
600.0000	15.8972	-1.3389	-1.3298	-18.1969	-7.8701	0.9486	1.1216	1.8546	4.1840	1.6347	5.8620	-11.4759	0.6815	-0.6043	-1.1471	-0.4500
608.0000	13.7032	-0.9011	-0.8946	-21.6930	-10.5774	1.1869	2.0000	1.0775	-4.7449	1.4861	13.6790	-4.5818	2.9819	0.6335	-0.5198	0.2427
616.0000	9.9885	-0.8561	-0.8527	-15.6516	-7.1470	0.7930	1.1038	1.1678	-5.1920	1.1190	10.6863	-6.8945	1.0761	0.4723	-0.7715	1.1421
624.0000	-1.5620	-0.3290	-0.3493	-15.9023	-6.4530	-0.0801	0.1471	0.4077	3.5308	-0.0770	1.2875	-13.1333	0.1674	0.0542	-0.3609	-4.3436
632.0000	-5.7573	-0.2124	-0.2491	-29.8654	-13.9032	-0.2598	0.4799	-0.3047	-3.7709	-0.3404	-3.2280	-13.2311	1.0030	0.2609	-0.2610	-8.9606
640.0000	-6.1367	-0.1911	-0.2253	-28.2591	-13.6159	-0.3819	0.2083	-0.2871	-7.8015	-0.3497	-6.6434	-10.0921	0.2963	-0.2170	-0.3696	-9.3138
648.0000	-3.9611	-0.2003	-0.2265	-24.8542	-12.4853	-0.1738	0.5036	0.4147	-9.0789	-0.1107	-11.0573	-5.9625	0.7432	1.1163	-0.2595	-5.8690
656.0000	-1.9441	-0.3776	-0.4077	-34.3071	-17.1840	-0.0594	0.7708	0.7523	-10.8901	0.1651	-2.7017	-6.5785	0.9997	1.7997	-0.5952	-7.1022
664.0000	-9.9250	-0.1482	-0.1989	-35.2023	-15.8805	-0.5755	0.0449	0.1615	-5.6157	-0.7208	-1.7937	-19.7413	0.1989	-0.0528	-0.4319	-13.2568
672.0000	-11.2853	-0.2617	-0.3201	-37.0462	-15.8857	-0.3829	0.4069	0.2594	-9.6228	-0.8311	-7.5457	-29.3046	0.8610	0.4655	-0.2915	-13.6892
680.0000	-5.8363	-0.4174	-0.4563	-29.7561	-13.0772	-0.1578	0.4520	0.3547	-6.5609	-0.2913	-0.0318	-18.2662	0.6090	0.8054	-0.5302	-5.5148
688.0000	-1.4013	-0.2711	-0.2814	-15.2365	-7.5590	-0.0888	0.3342	0.7423	0.9229	0.1178	8.5139	3.9314	0.4902	-0.0001	-0.4337	7.1191
696.0000	-6.8132	-0.1184	-0.1485	-32.1518	-16.2062	-0.1160	0.9938	0.8529	-12.5031	-0.1857	13.8964	3.4648	2.0192	-0.1906	-0.2939	5.4539
704.0000	-17.2956	0.1345	0.0701	-44.7892	-20.9756	-0.6165	0.6763	0.1537	-18.2338	-1.1803	10.8767	-13.1916	1.9276	-1.1027	-0.1209	-5.4172
712.0000	-13.8061	0.0857	0.0335	-38.5816	-18.6193	-0.6030	0.4109	0.6118	-15.7072	-0.8704	7.4398	-7.3861	1.0879	0.0890	-0.3053	-3.8760
720.0000	-10.4948	0.1711	0.1255	-40.5285	-20.8194	-0.6058	0.3816	0.5895	-15.9895	-0.5489	10.4290	0.3869	0.8550	1.8166	-0.4753	-7.0231
728.0000	-5.3161	0.3988	0.3703	-27.4616	-14.7009	-0.4766	0.1966	0.5697	-5.0157	-0.3408	7.7930	2.5738	0.8268	1.7801	-0.0778	-12.7449
736.0000	-1.9980	0.1965	0.1799	-24.6140	-13.5701	-0.2042	0.5570	1.0061	-2.7890	0.0575	14.8187	10.1695	1.3395	1.6818	-0.1958	-2.4957
744.0000	-9.3768	-0.0586	-0.1037	-44.3852	-22.1368	-0.4831	0.7128	0.1901	-8.2109	-0.3906	23.1482	2.1359	1.6177	0.6600	-0.6146	0.3905
752.0000	-7.2119	0.0967	0.0571	-39.0070	-19.7925	-0.4499	0.5129	0.0882	-9.8655	-0.3549	14.8602	-0.6906	1.2642	0.0719	-0.3879	-9.3787
760.0000	-9.8953	0.5448	0.5146	-25.8600	-14.5108	-0.5900	0.2277	-0.2175	-16.0281	-0.6522	4.9390	8.3762	0.9697	0.4127	0.1019	-7.5437
768.0000	-10.7902	0.3845	0.3587	-22.9390	-13.2200	-0.5532	0.4496	-0.5067	-13.4022	-0.6194	-1.0789	13.9978	1.3643	0.4087	0.1508	3.7364
776.0000	-2.9492	0.1761	0.1703	-17.9378	-11.4324	-0.3182	0.4582	0.5094	-5.7125	0.0692	3.3203	22.0622	1.0514	0.0343	-0.0986	6.1802
784.0000	-9.9822	0.6980	0.6805	-11.7072	-7.2075	-0.7052	-0.1805	0.2391	-1.7903	-0.7797	11.4149	15.2318	0.6392	-0.7753	0.3290	1.7522
792.0000	-10.9688	0.8003	0.7856	-0.7118	-0.5899	-0.5160	-0.1041	-0.0261	2.0276	-1.0204	11.8207	8.3580	1.1577	-1.0948	0.7677	4.1871
800.0000	-3.7882	0.4415	0.4431	4.5301	1.9803	-0.1228	-0.0234	0.4443	0.9969	-0.3626	16.4155	9.1347	0.6521	-1.1838	0.3786	6.3703
808.0000	3.9371	0.3070	0.3244	16.9895	9.3483	0.6216	0.5012	0.5733	5.4815	0.1202	23.4960	-0.5861	1.6196	-0.3756	0.6520	4.4591
816.0000	14.2453	0.1526	0.2015	36.0676	18.7887	1.4427	1.1347	1.0627	12.4017	0.9065	25.6430	2.4584	2.6996	0.5744	0.9915	10.8679
824.0000	15.1799	-0.2405	-0.1909	32.4839	16.8593	1.2656	0.6992	1.2288	10.4126	1.1382	22.3722	4.1778	1.1157	0.4024	0.2857	14.3861
832.0000	18.6854	-0.3021	-0.2511	36.7463	19.9725	1.6112	0.9260	1.3801	12.9909	1.2778	16.4790	-8.6898	1.5405	1.4802	0.5162	6.3340
840.0000	19.9594	0.1031	0.1616	45.9242	24.2043	1.8040	1.1217	1.6308	14.6881	1.2175	15.2749	-8.1196	2.4085	2.7321	1.1372	1.9894
848.0000	18.9990	0.1315	0.1871	36.5153	18.0400	1.7493	1.4332	1.4643	3.9579	1.3397	13.2111	1.3213	2.7774	3.6376	0.9938	3.3404
856.0000	24.3458	0.0093	0.0826	42.5121	19.7450	2.0647	1.7603	1.3554	0.1442	1.8655	4.0721	9.5012	3.0306	3.9870	1.0436	5.8248
864.0000	24.4930	-0.1150	-0.0376	48.8447	23.1589	1.7096	0.8128	1.4001	6.2860	1.7974	-1.5606	8.4520	0.9293	2.4833	0.6888	4.5733
872.0000	25.9872	-0.2509	-0.1773	44.1551	21.4278	1.9309	1.2197	1.4337	6.8830	1.9231	0.2291	2.3491	1.7234	2.4776	0.7194	2.1472
880.0000	20.7187	-0.0890	-0.0208	45.1160	22.0484	1.8749	1.6424	1.1200	10.9269	1.5227	-2.4956	6.5486	3.1447	2.8870	1.2063	13.0646
888.0000	10.5520	0.2067	0.2558	36.0854	17.0210	1.1092	1.1361	0.8528	10.4642	0.7531	-5.6292	13.8681	2.6207	2.2912	1.2045	17.1846
896.0000	9.6049	0.8344	0.8856	37.1468	15.9621	1.2516	1.6017	0.4342	-3.0568	0.5946	-5.8090	20.1629	4.0548	2.5984	1.9373	8.0736
904.0000	9.2712	0.6905	0.7454	43.8527	19.7182	1.1611	1.2055	0.2995	0.1925	0.5551	-10.0425	19.0039	3.0616	2.7530	1.7595	12.7177
912.0000	10.0418	0.2732	0.3162	32.4018	14.9720	0.9096	0.7512	0.7698	6.3943	0.6764	-9.9245	10.2258	1.6732	3.0848	1.0116	8.2680
920.0000	5.1041	0.9813	1.0125	33.4657	15.5764	0.7693	0.6681	0.3460	-1.4483	-0.0083	-9.6014	2.7929	2.3697	2.2822	1.7937	-7.6952
928.0000	3.6388	1.0636	1.0948	38.3546	18.6778	0.8056	0.7147	0.1830	2.4973	-0.2217	-7.6927	0.3188	2.8315	1.0982	2.0920	-5.3428
936.0000	9.6598	0.9623	1.0022	32.2461	14.8609	1.1610	1.4619	0.4119	7.3312	0.3625	-0.0106	7.2638	4.3400	1.2555	2.1333	-5.2295
944.0000	4.2392	1.0802	1.1095	33.3621	16.1242	0.6780	0.6336	0.3822	7.7390	-0.1910	-2.1525	2.0307	2.8588	-0.2648	2.0223	-8.2011
952.0000	-1.4454	0.7892	0.8021	32.1464	17.7426	0.4374	0.1226	0.5651	8.2401	-0.6822	-2.4235	-12.7711	1.6813	-1.4297	1.6745	-4.4278
960.0000	-5.8858	0.9833	0.9840	23.8179	13.4539	0.5261	0.8164	0.0426	-1.3101	-0.9793	-0.4900	-12.7770	3.4117	-1.3330	2.0585	-3.5902
968.0000	-5.6260	0.4350	0.4305	16.9290	10.6325	0.5160	0.7838	0.5465	-3.1180	-0.7631	-6.5516	-17.0002	2.6096	-1.0453	1.4240	2.2886
976.0000	0.2232	0.1990	0.2051	22.3135	13.6545	0.8742	0.9716	0.8704	1.7341	-0.3081	-10.1034	-21.2589	2.6518	0.2901	1.3569	1.3497
984.0000	-5.9437	0.9267	0.9315	28.8976	15.6689	0.1759	0.1571	-0.6262	7.8964	-1.0353	-12.5588	-9.8643	2.0434	-1.2381	1.9069	-3.2339
992.0000	-11.5286	0.6907	0.6799	12.8474	7.4849	-0.7792	-0.9206	-0.9954	16.4654	-1.3425	-5.3760	-1.5222	-0.1922	-4.3495	0.9749	0.7756
1000.0000	-12.0976	0.6524	0.6345	0.9591	1.0553	-0.7395	-0.5584	-0.9244	6.8062	-1.2449	1.9555	1.0695	0.3661	-4.8436	0.7845	-0.7405
1008.0000	-7.8845	0.3743	0.3644	-1.0878	-0.3601	-0.2446	0.1379	-0.4368	-2.7848	-0.7079	5.4072	3.6220	1.1713	-3.9018	0.5985	4.4259
1016.0000	-1.7497	-0.0453	-0.0517	-10.8904	-5.1173	0.0530	0.5871	0.0773	2.3250	-0.0407	19.6430	5.1250	1.6152	-3.2376	0.0510	6.8615
1024.0000	-2.6078	0.4135	0.4100	-4.4522	-2.6434	-0.2278	-0.0138	-0.2686	2.0669	-0.3162	16.2123	6.9629	0.8151	-3.9307	0.3584	-3.8985
1032.0000	0.2024	0.3557	0.3624	1.7302	0.1536	0.0560	0.2268	0.3308	-1.8458	-0.0714	10.3087	7.8273	1.0914	-4.0923	0.5074	-2.5509
1040.0000	-2.0827	0.3756	0.3678	-12.9454	-6.8087	0.0859	0.8604	0.0886	-0.6411	-0.1796	22.5840	7.0968	2.7269	-4.1919	0.5735	-2.0327
1048.0000	-4.7390	0.1581	0.1418	-15.8188	-7.5552	-0.3772	0.0168	0.0502	4.0703	-0.3874	20.3179	3.1156	0.7626	-4.5628	-0.0038	-1.7248
1056.0000	-4.1611	-0.1926	-0.2076	-9.3321	-3.0075	0.1080	0.5559	0.3428	0.0712	-0.2763	11.6473	-7.2537	1.4099	-2.5906	0.0648	6.9154
1064.0000	-9.5212	0.1197	0.0932	-7.4498	-1.5382	-0.0627	0.4661	-0.8320	-1.6365	-0.8718	4.5318	-14.4600	1.7362	-2.1066	0.5314	1.9382
1072.0000	-3.1483	0.0668	0.0594	-1.5459	-0.2625	-0.5469	-0.8679	-0.4059	9.0404	-0.3813	3.3019	-1.4434	-1.4185	-2.5151	-0.2062	-3.8866
1080.0000	0.0825	0.5579	0.5632	-2.1001	-2.8033	-0.1388	0.1518	-0.5235	2.4094	-0.0393	14.1941	15.9291	1.0391	-0.4950	0.4005	-2.9088
1088.0000	-3.2125	0.6277	0.6266	-4.8332	-4.2492	-0.1588	0.3688	-1.0599	-4.1672	-0.2579	12.8914	16.3262	1.5506	-0.3839	0.5285	-0.6010
1096.0000	-2.8861	0.1520	0.1520	0.3546	-0.4001	-0.5626	-0.7481	-0.0607	9.5463	-0.2506	4.4348	10.2931	-1.1839	-1.2875	-0.1895	3.8197
1104.0000	-12.3594	0.7344	0.7092	-4.1603	-1.7059	-0.8608	-0.6089	-0.9391	10.2414	-1.2536	-1.1913	-0.5982	0.2122	-0.6976	0.6622	-4.6205
1112.0000	-14.2363	0.6336	0.5995	-7.3403	-2.6766	-0.7657	-0.5188	-1.3320	-0.9125	-1.3784	-3.4171	-9.4396	0.0784	-0.1602	0.5447	-7.4937
1120.0000	-10.7639	0.4858	0.4719	4.8768	2.5726	-0.5030	-0.5577	-0.6561	-7.4464	-0.9591	-2.3455	0.4936	-0.6026	0.6203	0.3217	3.9044
1128.0000	-7.1657	0.6962	0.6977	6.9271	1.4307	-0.7049	-0.7839	-0.2930	-0.7373	-0.6281	-3.8207	18.8288	-0.9356	0.5882	0.3302	3.9658
1136.0000	1.0469	0.4598	0.4753	0.0583	-3.2932	-0.6253	-0.5648	0.5988	12.5991	0.1663	1.2005	31.5118	-0.6756	0.1730	-0.0101	4.1349
1144.0000	-1.4600	0.5082	0.5196	-2.1590	-4.4235	-0.2185	0.5685	0.0782	3.6594	0.0536	-5.0606	31.2186	1.8422	0.4940	0.6129	10.5744
1152.0000	-2.4394	-0.0278	-0.0231	-3.7389	-4.2048	-0.3243	0.0397	0.0023	-5.6520	0.0595	-19.3427	19.2191	-0.1528	-0.3690	-0.0538	9.6559
1160.0000	-4.2146	-0.0052	-0.0091	-1.0612	-1.1992	-0.5320	-0.6281	0.0339	0.8003	-0.2893	-13.9912	6.0066	-1.3048	-1.1252	-0.1722	2.9012
1168.0000	-8.3137	0.5001	0.4792	-8.3492	-4.3513	-0.3506	0.2333	-1.1051	-3.4566	-0.8044	-12.0846	-3.1528	1.4041	-1.1159	0.7766	-8.4713
1176.0000	-3.5413	-0.0690	-0.0916	-22.2616	-11.6918	-0.4038	0.1055	-0.6220	-5.5704	-0.2081	-17.0419	-3.8501	0.2145	-1.5823	-0.1027	-13.0292
1184.0000	-2.3276	0.0275	0.0116	-18.3883	-10.3101	-0.4299	0.0450	-0.3854	-0.0650	-0.1058	-16.3732	2.4045	0.1755	-0.1093	-0.0611	-9.8942
1192.0000	1.7494	0.0826	0.0764	-15.9243	-9.8905	-0.0889	0.4832	-0.4419	-5.1701	0.2416	-18.5168	5.1553	0.9129	0.8097	0.1320	-12.9008
1200.0000	6.8354	-0.7112	-0.7146	-20.7537	-11.1283	0.1459	0.3752	0.7111	-7.6996	0.8281	-16.5121	-3.3677	-0.3842	-1.0706	-0.7788	-10.0679
1208.0000	10.4930	-1.0201	-1.0161	-18.2462	-8.9505	0.7284	1.2236	1.3530	-3.1966	1.2227	-7.4929	-5.1853	1.1933	-0.1366	-0.7147	1.2928
1216.0000	16.0468	-1.0957	-1.0788	-21.6871	-12.3832	0.8442	1.4112	1.5157	-3.2154	1.8560	0.0365	9.2370	1.1560	1.7681	-1.0905	4.1404
1224.0000	11.3484	-1.0518	-1.0476	-27.8478	-15.4378	0.3244	0.7976	1.0610	-2.7990	1.4640	-5.0030	8.1064	-0.0203	1.2385	-1.3305	0.8599
1232.0000	5.7820	-0.8328	-0.8419	-28.5826	-15.1772	0.0924	0.7730	0.3595	0.3427	0.8793	-16.4745	1.3293	0.5024	1.1747	-0.8560	-2.3053
1240.0000	3.0222	-0.5135	-0.5236	-30.5851	-17.7121	-0.4982	-0.0016	0.2577	-0.2325	0.6521	-17.9547	12.9216	-0.9054	0.7925	-1.0183	-5.9608
1248.0000	5.1271	-0.4746	-0.4789	-26.4328	-15.6139	-0.1941	0.2955	0.4659	-4.6004	0.8014	-15.8204	11.3215	-0.3682	1.1591	-0.8443	-6.7917
1256.0000	8.2508	-0.8286	-0.8289	-18.8655	-10.0192	0.3703	0.7041	0.7527	-5.0302	1.0193	-14.8817	-2.8267	0.0987	1.8902	-0.8333	-3.3175
1264.0000	4.9488	-1.0713	-1.0808	-21.6485	-10.4601	-0.0973	-0.1036	0.8364	1.8273	0.7657	-14.1361	-6.4500	-1.7010	1.0177	-1.3985	-0.0141
1272.0000	7.9494	-1.4401	-1.4559	-33.8763	-16.0265	0.3593	0.9133	0.6344	0.0785	1.1541	-13.8367	-12.8566	0.0662	1.9880	-1.4603	-0.0319
1280.0000	2.2143	-1.4383	-1.4745	-44.4788	-20.6004	0.3497	1.1774	0.0224	-16.0650	0.7604	-11.5445	-22.2662	0.4607	2.4618	-1.5332	-2.6737
1288.0000	-2.6142	-0.9458	-0.9858	-37.8604	-17.4560	-0.1437	0.1885	0.1395	-18.4874	0.1869	-6.2079	-21.3326	-1.1455	2.1040	-1.4703	-8.4449
1296.0000	3.8917	-0.7837	-0.8047	-27.2483	-12.6117	0.1043	0.3161	0.3205	-2.4918	0.5864	0.2222	-14.7930	-0.5232	3.3961	-1.1605	-8.1246
1304.0000	-3.8443	-0.9587	-0.9978	-38.3322	-17.8295	-0.6001	-0.2447	-0.5733	3.2503	0.0768	-2.2937	-11.5256	-1.5498	1.9265	-1.6056	-0.2595
1312.0000	-5.3155	-0.9971	-1.0414	-44.7285	-21.3959	-0.6539	-0.0617	-0.4578	-2.8231	0.0310	-8.9053	-10.8160	-1.2456	0.7884	-1.5816	-1.7056
1320.0000	-2.0512	-0.5853	-0.6181	-35.1277	-17.2704	-0.1265	0.6264	-0.0545	-9.8029	0.1656	-11.4223	-10.7987	0.4728	1.9395	-0.7684	-7.8038
1328.0000	-6.7956	-0.4850	-0.5305	-43.4808	-21.6419	-0.6652	-0.0220	-0.0923	-13.1523	-0.2052	-8.9452	-9.4681	-0.7801	0.4138	-1.0934	-11.8275
1336.0000	-5.0780	-0.5120	-0.5585	-51.9594	-26.3217	-0.8914	-0.2050	-0.0354	-4.6089	-0.0354	0.9888	-3.5495	-1.0323	-0.5174	-1.3947	-14.3781
1344.0000	-10.0572	-0.0853	-0.1321	-41.2640	-20.9069	-1.0305	-0.3111	-0.6449	-1.1481	-0.5812	-1.5597	-1.2490	-0.5639	0.4601	-0.7861	-9.4908
1352.0000	-14.1625	-0.1086	-0.1652	-41.3654	-20.4523	-1.1415	-0.5209	-0.5035	-12.2308	-0.9303	-14.7830	-10.0510	-1.1946	-0.0320	-0.7636	-12.8312
1360.0000	-9.5048	-0.3918	-0.4486	-47.6804	-23.0313	-0.7541	-0.0333	-0.0505	-14.6903	-0.5149	-11.0583	-17.7485	-0.5481	-0.5130	-0.9208	-18.2971
1368.0000	-7.6007	-0.3500	-0.3956	-40.9395	-19.8870	-0.4655	0.3214	-0.3673	-13.6825	-0.3234	0.4482	-10.9380	0.2403	0.1457	-0.7892	-9.5633
1376.0000	-12.6537	-0.1065	-0.1511	-32.9712	-16.3979	-0.8621	-0.3681	-0.7398	-16.7425	-0.7486	0.2607	-3.7150	-1.0385	0.2557	-0.8217	-3.2528
1384.0000	-21.3329	-0.0807	-0.1375	-29.0861	-13.3663	-1.5620	-1.3222	-0.8436	-5.2654	-1.5164	-5.1064	-4.9806	-2.5831	-0.3303	-0.9491	6.4449
1392.0000	-20.4210	0.0108	-0.0362	-19.7075	-8.4601	-1.4369	-1.1801	-0.3395	5.3768	-1.5074	-1.9083	-0.8803	-1.8909	-0.4434	-0.6010	14.2512
1400.0000	-24.6856	0.5674	0.5180	-9.0027	-2.9886	-1.6033	-1.7280	-0.4587	-3.3273	-2.0989	-2.0067	-5.7757	-2.5455	-0.8714	-0.1301	5.6526
1408.0000	-29.0199	0.5862	0.5280	-2.3577	1.5975	-1.8529	-2.4669	-0.2817	-6.2686	-2.5919	-11.8968	-18.6552	-4.1309	-0.6326	-0.1922	2.0198
1416.0000	-22.6194	1.0355	1.0013	14.7525	9.1491	-1.4220	-2.0294	0.1599	5.1521	-2.2724	-12.9856	-10.8394	-2.6198	1.1914	0.6771	0.4442
1424.0000	-27.2795	1.8343	1.8048	27.5554	14.4610	-1.7839	-2.5539	-1.3114	6.1771	-2.9029	-9.9179	-1.3555	-2.7010	0.7537	1.4012	-2.9228
1432.0000	-24.4253	1.3549	1.3290	23.4203	12.4781	-1.7661	-2.7789	-1.8313	1.7182	-2.5282	-5.9861	-1.0787	-3.8886	-1.2590	0.6931	-0.9603
1440.0000	-10.6810	1.1576	1.1617	32.3753	16.4086	-0.9536	-2.0829	-0.7791	10.0402	-1.4281	3.6547	3.3666	-2.7738	-0.8526	0.7738	-2.5126
1448.0000	-3.6052	1.1693	1.1900	39.2948	19.3988	-0.4706	-1.6614	-0.3833	11.7338	-0.8884	6.9296	5.3100	-2.0474	0.4020	0.9516	-4.8089
1456.0000	1.2432	1.1863	1.2116	31.0237	13.7493	-0.2784	-1.1516	-0.6449	6.5971	-0.4216	1.6107	10.6968	-1.1921	0.5055	1.0134	-14.0194
1464.0000	0.6011	1.5220	1.5490	33.0412	13.7247	-0.5957	-1.4918	-1.0121	12.8004	-0.5924	-7.8582	16.3564	-1.4345	0.5641	1.3205	-20.4927
1472.0000	8.1873	0.5100	0.5505	35.6871	16.1112	-0.0874	-1.3437	-0.0063	11.8469	0.2922	-11.6431	10.5537	-2.5930	1.1420	0.3524	-8.0042
1480.0000	20.6712	-0.2803	-0.2156	41.1534	19.4850	1.0397	-0.3047	1.0894	4.8599	1.5226	-3.5049	6.1739	-1.7157	1.4308	-0.0915	0.2932
1488.0000	23.8707	-0.2087	-0.1369	42.3514	19.9237	1.4271	0.2884	1.0607	3.6355	1.7750	6.0757	8.1437	-0.3687	1.1677	0.1756	0.3487
1496.0000	24.1737	-0.5448	-0.4819	27.8401	12.8250	1.5815	0.9839	0.9930	0.7458	1.9830	5.1639	6.6573	0.8105	0.3504	0.0046	2.2156
1504.0000	21.1387	-0.5440	-0.4814	37.3135	18.4040	1.4287	0.5765	0.9834	5.4042	1.6332	-3.8576	2.0236	0.1447	-0.1233	0.1616	6.3817
1512.0000	20.8703	-0.5201	-0.4492	48.0158	23.7979	1.3623	0.1334	1.0063	7.2874	1.5837	-2.2680	5.0047	-0.8473	0.5301	0.0647	12.6024
1520.0000	19.7778	-0.5897	-0.5318	29.9688	14.2992	1.4288	0.8320	0.5956	-1.0733	1.6727	2.7456	6.5705	0.4873	0.6330	-0.0442	10.2854
1528.0000	18.7549	-0.7991	-0.7531	26.1489	13.9717	1.3897	0.6167	0.9767	0.5638	1.5213	0.6363	-8.2888	-0.0977	0.5653	-0.2610	4.8701
1536.0000	20.6736	-0.8990	-0.8526	31.5370	17.9152	1.5342	0.4245	1.3772	5.3508	1.5535	1.4876	-19.4135	-0.5819	1.5407	-0.3177	1.2595
1544.0000	17.2832	-0.4903	-0.4451	32.7313	17.6089	1.3368	0.4991	0.6409	7.0862	1.2279	0.4965	-11.0454	0.1861	1.7949	0.1523	2.3748
1552.0000	19.3347	-0.6868	-0.6253	43.6710	22.7435	1.2122	-0.1738	1.5933	11.0143	1.4650	3.9383	-1.8812	-1.5885	0.8676	-0.3081	13.1547
1560.0000	17.7044	-0.5186	-0.4586	48.2539	25.5384	1.1552	-0.3843	1.9378	12.6460	1.2267	6.8038	-5.0609	-1.7552	0.8065	-0.1423	12.2194
1568.0000	12.3757	0.1022	0.1492	47.1524	24.7348	0.9400	-0.3293	1.0232	10.8472	0.5894	0.0523	-8.7980	-0.8068	2.1459	0.6016	1.2657
1576.0000	17.2384	-0.1660	-0.1120	47.3709	24.9820	1.1127	-0.4879	1.8662	9.1416	1.0322	5.0014	-11.0443	-1.7008	2.1222	0.1349	-1.0356
1584.0000	16.6024	-0.4262	-0.3810	39.1427	22.0100	1.2037	-0.1606	1.9287	12.4759	1.0398	13.8324	-16.6028	-1.0243	1.0088	-0.0348	2.1734
1592.0000	12.6593	-0.5315	-0.4962	28.0082	15.9775	0.9927	0.0413	1.3362	8.5019	0.9174	15.8850	-9.8589	-0.6851	0.8174	-0.2675	9.4287
1600.0000	12.0515	-0.7460	-0.7113	19.2166	10.4427	0.8135	0.0202	1.5842	1.8613	1.1233	14.9466	0.6077	-1.2326	0.7188	-0.7749	15.7708
1608.0000	16.3566	-0.9966	-0.9601	15.0448	8.8228	1.3359	1.0726	1.6856	9.0489	1.5396	12.4554	-2.9973	0.9004	2.4472	-0.5282	18.7899
1616.0000	19.6060	-1.1166	-1.0760	16.4240	10.0158	1.8271	1.6883	1.5570	5.9470	1.8284	19.1143	-7.5411	1.9602	3.8557	-0.4519	20.0993
1624.0000	12.5829	-1.0085	-0.9817	13.2940	8.6206	1.2366	0.7245	0.8857	-4.2630	1.2462	21.7947	-9.3229	-0.0931	2.1984	-0.8656	17.4415
1632.0000	12.2682	-1.0043	-0.9845	5.7770	4.7376	1.0093	0.5079	0.4759	-2.3773	1.1996	21.0858	-10.7492	-0.4878	1.6705	-1.0282	10.3520
1640.0000	13.2046	-0.6427	-0.6229	5.4200	4.3163	1.1150	0.7804	0.1620	-1.0273	1.1239	27.1656	-11.1947	0.6432	0.9986	-0.5327	1.4586
1648.0000	11.2101	-0.4258	-0.4022	11.9852	7.2368	0.7279	0.1007	-0.1331	5.8363	0.8555	26.9466	-5.3183	-0.3780	-0.2830	-0.4733	2.2030
1656.0000	7.2498	-0.1072	-0.0854	12.6954	6.3255	-0.0057	-0.9086	-0.0859	11.5477	0.5072	22.6009	6.0858	-2.1771	0.2963	-0.6590	1.6521
1664.0000	-5.6172	0.6598	0.6520	3.6417	1.5524	-0.6335	-1.0931	-0.5335	1.2257	-0.6828	13.5939	2.5243	-1.5481	0.3293	0.0587	-8.3914
1672.0000	-3.0049	0.3945	0.3860	-4.8394	-3.0807	-0.2021	-0.1267	-0.1852	-7.4741	-0.2848	5.0252	1.6916	-0.0012	1.0236	0.1173	-7.4389
1680.0000	6.3917	0.0393	0.0517	-5.1195	-4.7749	0.1199	0.1715	0.4912	-5.1838	0.6758	2.5051	13.3745	-0.1368	2.1877	-0.3093	-4.5724
1688.0000	9.3014	0.0179	0.0391	3.8309	0.2088	0.3013	0.1615	0.5780	3.2368	0.7978	1.4947	10.4729	-0.0332	2.3782	-0.1214	-4.1612
1696.0000	14.6779	-0.3856	-0.3507	11.8474	5.2414	0.9048	0.7193	0.7954	7.8019	1.2961	9.9964	7.6653	0.7431	2.8602	-0.2094	6.7380
1704.0000	12.0041	-0.5086	-0.4802	4.9573	1.6963	0.6957	0.6185	0.6039	4.6411	1.1968	12.7216	10.8273	0.4092	1.7282	-0.5022	10.7453
1712.0000	12.9220	-0.7428	-0.7207	-5.6091	-3.7243	0.6416	0.6780	0.6374	0.4587	1.3596	7.6525	8.2144	0.1914	0.5378	-0.8051	5.2612
1720.0000	16.0940	-0.9093	-0.8821	-6.9374	-4.6447	0.8291	0.8783	0.8292	-1.2904	1.6925	8.3901	9.4154	0.2721	0.9195	-0.9787	5.6090
1728.0000	15.4411	-0.8953	-0.8692	-4.7483	-3.1053	0.8441	0.9694	1.0792	4.7464	1.5902	4.2835	7.0417	0.6835	1.1966	-0.7670	7.3775
1736.0000	15.2801	-0.6896	-0.6661	-3.4828	-2.1064	0.9203	1.1726	1.0396	8.6758	1.4276	1.3166	1.9030	1.5720	0.8247	-0.2938	1.1564
1744.0000	3.2786	-0.1619	-0.1662	-14.0861	-7.3309	0.2840	0.9294	-0.1666	1.0175	0.3542	-1.2436	-0.5419	1.9514	-1.0080	0.1517	-5.0799
1752.0000	-1.0200	-0.5568	-0.5783	-24.3867	-11.1095	0.3775	1.3552	-0.0435	-7.2453	0.1787	-3.1695	-10.5376	2.4290	-0.8803	-0.1217	1.7219
1760.0000	6.2566	-1.0768	-1.0810	-11.8996	-3.7141	1.0325	1.4407	1.2225	-10.9448	0.8549	4.4590	-18.0680	1.5675	1.4852	-0.6616	9.8063
1768.0000	8.0610	-0.9251	-0.9206	-8.0045	-2.6679	0.9474	1.2590	1.6244	-6.4267	0.9800	3.8787	-10.1999	1.3183	1.7532	-0.5947	9.7274
1776.0000	5.8268	-0.5041	-0.5093	-21.7746	-11.0007	0.7484	1.9710	1.1503	1.0981	0.7921	-3.5039	-0.7522	3.6973	1.7504	0.1072	3.9220
1784.0000	-5.3598	0.2648	0.2364	-24.2602	-12.4195	-0.0998	0.9557	-0.1740	-4.3940	-0.3601	-4.5205	-3.6189	2.5017	1.7434	0.4316	-8.8484
1792.0000	-12.7769	0.5531	0.5149	-23.8922	-12.7090	-0.8910	-0.4437	-0.4845	-15.5964	-1.0106	-1.9498	-0.6771	-0.3926	-0.1266	-0.0151	-13.3702
1800.0000	-12.4334	0.7377	0.7086	-22.0069	-12.9325	-0.8401	-0.0620	-0.2171	-13.7015	-0.9312	-0.6846	12.3871	0.7530	-1.4892	0.3608	-7.1688
1808.0000	-11.4248	0.9284	0.9030	-16.3830	-9.7044	-0.5537	0.4968	-0.6565	-5.0648	-0.9813	0.0888	10.4690	2.4854	-0.8582	1.0071	-6.4004
1816.0000	-9.4136	0.7521	0.7272	-17.7309	-9.8873	-0.4813	0.4292	-0.7870	-2.3033	-0.7992	8.1260	7.8889	2.1277	-0.3212	0.6925	-6.0353
1824.0000	-11.9443	0.8397	0.8161	-17.5175	-10.5851	-1.0355	-0.3722	-0.7744	3.6371	-0.9660	11.6364	19.3067	0.5901	-1.1189	0.3428	-1.2820
1832.0000	-10.9859	0.7317	0.7071	-20.1014	-11.8385	-0.9867	-0.2186	-0.5315	5.7064	-0.8556	6.7185	17.9301	0.8061	-0.5089	0.3148	-1.6207
1840.0000	-10.1063	0.7657	0.7353	-23.6736	-12.9932	-0.4351	0.7410	-0.4519	-4.5615	-0.7875	7.9723	7.8594	2.7473	0.9143	0.7136	-6.0712
1848.0000	-8.9809	0.8585	0.8343	-21.2122	-12.1608	-0.3353	0.9155	-0.6084	-4.0400	-0.7071	11.9457	12.5381	3.2696	0.1209	0.8921	-4.6724
1856.0000	-4.8015	0.5075	0.4879	-26.9505	-15.4080	-0.3869	0.7966	-0.5114	1.1650	-0.2709	9.5384	15.6095	2.6228	-1.0748	0.4278	-5.7158
1864.0000	-8.5940	0.7372	0.7050	-30.0387	-16.8597	-0.7277	0.2419	-0.5261	-6.0458	-0.6911	2.3716	8.2656	1.5628	-1.1514	0.4247	-17.5952
1872.0000	-7.0347	0.9998	0.9745	-24.6455	-14.7403	-0.5505	0.3973	-0.1429	-9.7000	-0.6281	3.2684	10.4753	2.0168	-0.3089	0.7434	-20.8471
1880.0000	-3.6312	0.8026	0.7844	-23.2555	-13.8086	-0.2217	0.9006	0.2635	-3.4686	-0.2812	6.5806	11.8575	2.9374	0.9100	0.7561	-13.9534
1888.0000	-6.0965	0.7477	0.7203	-22.3004	-11.8438	-0.1945	0.9656	0.5531	2.3883	-0.5633	3.9043	1.0540	3.2829	1.7547	0.9152	-12.6425
1896.0000	-8.7102	0.7728	0.7356	-27.7373	-13.8356	0.0498	1.7627	0.3930	0.4219	-0.7492	6.1555	-3.6600	5.2320	1.8620	1.3138	-9.4724
1904.0000	-16.0949	0.5941	0.5400	-35.5775	-17.2525	-0.5599	1.0008	-0.1201	-4.2931	-1.2518	3.8047	-5.3168	3.4635	0.1725	0.7463	-5.6531
1912.0000	-17.2213	0.3864	0.3308	-34.1720	-16.4250	-0.9378	-0.0052	0.2542	-9.5761	-1.3180	-1.3004	-7.9315	0.8168	-0.8345	0.0820	-7.8361
1920.0000	-15.7628	0.7680	0.7219	-28.5594	-14.4605	-0.4352	1.0283	0.1483	-12.8696	-1.2260	1.5056	-1.3451	3.4338	0.4753	0.9348	-5.0424
1928.0000	-12.6076	0.8155	0.7857	-19.4197	-10.7157	-0.4822	0.7646	0.7102	-3.3691	-0.9855	1.4438	9.3376	2.9844	0.1241	0.9620	0.1854
1936.0000	-7.0013	0.5755	0.5592	-21.3102	-13.1601	-0.6249	0.3103	1.5396	-3.5279	-0.4117	-3.8294	19.5120	1.4512	-1.5235	0.4029	-2.7175
1944.0000	-14.5401	1.1089	1.0735	-35.0432	-21.4029	-0.9387	0.8408	-0.1076	-12.2856	-1.0096	-12.6369	25.4730	3.2864	-1.2753	1.0635	-9.0602
1952.0000	-16.9379	1.1662	1.1272	-32.4372	-19.7219	-1.2660	0.3223	-0.5132	-3.4974	-1.2899	-15.5456	24.4209	2.4697	-1.0090	1.0255	-8.4636
1960.0000	-14.7012	0.8252	0.7962	-25.4969	-15.7988	-1.0549	0.2554	0.0560	-5.7401	-1.0222	-14.3086	24.2135	1.8120	-1.7959	0.7168	0.1494
1968.0000	-17.4164	0.7338	0.6957	-31.4937	-18.4574	-1.0452	0.4789	-0.5979	-12.7887	-1.1736	-13.7842	21.0422	2.1769	-2.3129	0.6605	1.3076
1976.0000	-15.9168	0.4315	0.3844	-33.5269	-17.2567	-1.1196	-0.0798	-0.2806	-1.7690	-1.1963	-6.0046	3.6039	0.8997	-2.4716	0.1835	-5.7188
1984.0000	-21.5090	0.3770	0.3159	-32.4119	-15.0967	-1.1484	-0.1476	-0.2419	-6.1611	-1.6755	-7.5935	-8.5073	0.7452	-1.2891	0.1951	-1.8608
1992.0000	-23.0953	0.4155	0.3598	-30.6082	-15.5526	-1.2867	-0.2324	-0.1027	-12.9508	-1.6453	-13.5005	3.5348	0.3163	-0.4477	0.0842	6.1716
2000.0000	-15.8622	0.3542	0.3214	-20.1278	-10.9795	-1.0143	-0.1399	0.7673	-2.2006	-1.0944	-13.4453	11.6203	0.5068	-1.2458	0.2173	9.0410
2008.0000	-15.5925	0.4006	0.3711	-11.1007	-5.4724	-0.4675	0.6786	0.4363	-2.2198	-1.1506	-16.0145	4.2096	2.4363	0.2164	0.8731	14.0812
2016.0000	-17.6792	0.4905	0.4575	-2.6540	0.0033	-0.5008	0.1658	0.0115	-4.5397	-1.4815	-11.6380	-6.5081	1.4056	0.8115	0.8467	11.1657
2024.0000	-16.1755	0.6054	0.5781	13.8918	9.9497	-0.5781	-0.7782	-0.0671	4.9116	-1.7492	-13.2547	-21.6858	-0.1971	-1.5371	1.0380	-0.1083
2032.0000	-10.1083	0.6807	0.6732	27.2049	16.1190	-0.1952	-0.5972	-0.1985	9.1761	-1.3552	-14.8457	-18.6354	0.1773	-0.7250	1.3491	-0.6490
2040.0000	-8.8978	0.7998	0.8037	29.8481	15.8783	-0.2942	-0.7526	0.0305	8.1230	-1.1274	-7.5186	-2.5672	-0.2884	0.6064	1.1357	6.6685
2048.0000	-6.7587	0.5384	0.5411	27.1720	15.4128	0.0640	-0.0846	0.1811	11.7694	-0.9348	-11.3515	-9.5274	1.0520	0.1771	1.3121	8.0533
2056.0000	1.7346	0.1159	0.1304	32.4875	19.5305	0.9408	0.7572	0.1939	12.8561	-0.2806	-4.2369	-22.1804	2.3542	0.2653	1.3629	7.2065
2064.0000	0.8291	-0.0045	0.0177	44.8162	26.1995	0.6514	-0.4982	0.5744	8.2803	-0.3884	3.7593	-22.6739	-0.7281	-1.0373	0.6956	11.1965
2072.0000	-1.9726	-0.1637	-0.1488	41.4520	24.7797	0.2382	-1.0942	0.7997	11.6186	-0.5856	-3.7900	-23.9926	-2.0888	-1.7649	0.3356	12.0448
2080.0000	1.4933	-0.2938	-0.2805	34.2887	21.6192	0.5396	-0.4539	0.6123	16.9461	-0.3011	2.6006	-27.5811	-0.6701	-1.9646	0.4283	8.8558
2088.0000	10.0970	-0.5057	-0.4719	39.8403	23.7295	1.0746	-0.1061	1.2642	11.5556	0.4479	5.8880	-24.4700	-0.5117	-3.0238	0.3154	6.9200
2096.0000	13.8272	-0.5533	-0.5146	32.0150	18.1404	1.0808	0.0894	1.3021	7.3451	0.8834	-0.1726	-15.7364	-0.4528	-2.5770	0.1301	1.9363
2104.0000	9.8911	-0.5263	-0.5033	18.7437	11.2475	0.6774	-0.0566	0.1857	7.9044	0.6260	0.2404	-14.4467	-0.6302	-2.2111	-0.1006	-1.0204
2112.0000	17.0757	-0.6962	-0.6557	28.8466	16.3954	1.2058	0.2136	0.1476	7.5102	1.1631	0.8281	-17.1337	-0.4459	-1.8523	-0.0568	-2.4127
2120.0000	21.0993	-0.7301	-0.6756	39.3151	21.5530	1.4130	-0.0382	0.5184	5.7999	1.4537	6.2248	-16.3030	-1.2864	-1.3001	-0.2149	-1.7797
2128.0000	18.4401	-1.0248	-0.9767	35.2355	19.9173	1.1022	-0.5771	1.1855	4.9471	1.3877	8.2591	-15.8217	-2.8692	-0.9463	-0.8980	5.6549
2136.0000	18.3686	-0.6428	-0.5985	34.3890	19.4059	1.1520	-0.1563	0.9754	15.3149	1.2255	5.7983	-17.1491	-1.2457	1.0753	-0.2359	-0.5598
2144.0000	12.1410	-0.0778	-0.0500	30.7536	17.5797	0.4424	-1.0112	-0.4152	22.4294	0.4635	7.8130	-19.4596	-2.1090	0.9437	-0.0135	-13.7260
2152.0000	13.5441	-0.6456	-0.6195	21.6536	12.8578	0.2298	-1.6348	-0.0239	11.2191	0.8165	9.4746	-18.9536	-4.5167	-0.8337	-1.1537	-12.9935
2160.0000	14.9835	-0.4869	-0.4542	29.0798	16.9415	0.8685	-0.6258	0.2138	7.7121	0.9011	13.8756	-21.1300	-2.1862	0.6771	-0.4702	-8.0050
2168.0000	10.0330	-0.1900	-0.1569	40.8194	23.1479	0.7178	-0.7844	-0.0996	14.5168	0.3940	9.7743	-19.0694	-1.9405	2.2213	0.0148	1.1033
2176.0000	9.1815	-0.5086	-0.4771	31.8257	17.2211	0.2443	-1.3053	-0.0015	10.4255	0.5632	-6.2829	-9.3070	-3.6828	1.6133	-0.6695	3.6001
2184.0000	5.6738	-0.4455	-0.4295	18.1390	10.0004	0.0948	-1.0703	-0.7795	-0.5366	0.3444	-9.8758	-11.3340	-3.1875	0.7468	-0.6627	-3.5042
2192.0000	4.8121	-0.4493	-0.4341	14.2639	7.5165	-0.0702	-1.1979	-0.8328	-2.3078	0.3517	-6.4025	-5.4678	-3.5061	0.0597	-0.8575	-1.6762
2200.0000	1.5460	-0.0038	0.0124	16.0358	7.0116	-0.6863	-1.7514	-1.2831	11.2126	-0.0139	-13.4474	8.1745	-3.8424	-0.3310	-0.5253	-2.0721
2208.0000	0.4481	-0.0711	-0.0602	16.6285	8.1784	-0.6647	-1.7770	-1.7076	12.6217	-0.1585	-15.2968	0.6081	-3.8755	0.1053	-0.5063	-3.0870
2216.0000	5.9550	-0.7898	-0.7764	6.4964	3.3856	-0.0573	-0.9988	-0.7306	-2.0803	0.6416	-9.2136	-2.6412	-3.5833	1.3465	-1.2879	3.6973
2224.0000	5.2165	-0.7140	-0.7032	0.8168	-0.0102	-0.1358	-0.7383	-0.8360	1.4676	0.6398	-8.0967	3.3493	-2.8157	1.6274	-1.1871	5.6618
2232.0000	8.3781	-0.8395	-0.8228	3.9584	2.1274	0.0049	-0.8143	-0.9226	6.3908	0.8356	-0.3999	0.5665	-3.0119	0.5461	-1.2995	4.6503
2240.0000	4.2583	-0.7464	-0.7446	-7.3459	-3.3270	-0.0426	-0.4650	-1.2895	-2.6716	0.5522	5.9383	-1.9684	-2.1120	-0.6183	-1.2190	2.1863
2248.0000	-2.3204	-0.4455	-0.4594	-14.1060	-6.8095	-0.4145	-0.5176	-1.8622	-4.5005	-0.0368	0.1570	-2.5794	-1.6534	-1.5369	-0.8783	-1.5156
2256.0000	3.3322	-0.4474	-0.4449	-4.3937	-2.5023	-0.4303	-1.1621	-0.8725	-0.4790	0.3265	-1.8072	-0.2425	-3.2400	-1.9856	-1.0912	-7.3727
2264.0000	1.9422	-0.1972	-0.1961	-4.4709	-3.0235	-0.6499	-1.3872	-0.3858	2.8664	0.1686	-1.4264	3.7670	-3.3998	-1.3517	-0.9758	-9.1989
2272.0000	4.1134	-0.4434	-0.4326	-1.6871	-1.8503	-0.1711	-0.6845	0.0493	-4.3065	0.5674	4.8604	9.6068	-2.4693	0.4649	-1.0966	5.0338
2280.0000	5.8999	-0.4085	-0.3874	4.6984	0.8738	0.1034	-0.4656	0.1106	-11.4280	0.7646	10.2960	14.2993	-2.2279	0.9980	-1.0505	9.6930
2288.0000	2.4852	-0.3093	-0.3059	-6.4111	-4.2615	-0.4040	-0.8305	-0.5285	-1.2533	0.3479	1.0300	7.7561	-2.4256	-0.7224	-0.9522	-2.1610
2296.0000	7.9565	-0.6817	-0.6734	-9.4524	-5.4911	-0.1192	-0.5882	-0.3814	-0.0482	0.8375	-1.3634	2.9729	-2.3942	-1.3027	-1.2154	-5.6514
2304.0000	9.8308	-0.5256	-0.5052	-2.4218	-2.9143	0.0889	-0.3356	-0.7563	-3.1399	1.0099	1.0250	11.2954	-1.8516	-0.5213	-0.9858	-1.7519
2312.0000	16.2278	-0.8559	-0.8194	-4.4904	-5.0968	0.2302	-0.0431	-0.3379	6.2435	1.7127	2.0381	24.9079	-1.5810	-0.9522	-1.2920	6.2031
2320.0000	22.7807	-1.0850	-1.0338	-1.3726	-3.7009	0.7147	0.4345	0.5313	5.6973	2.3129	7.1634	26.9931	-0.9619	-1.4980	-1.3520	8.5756
2328.0000	21.5203	-0.8984	-0.8514	0.9511	-2.2265	0.9570	0.8010	0.3324	-3.9539	2.1189	0.6575	18.8169	-0.0893	-1.0875	-0.8883	2.3846
2336.0000	24.5243	-1.2611	-1.2115	-1.1905	-3.0920	1.2100	1.0841	0.7385	-7.4629	2.4692	-6.5679	14.9869	-0.0616	-0.9663	-1.1178	3.3709
2344.0000	22.4723	-1.1889	-1.1428	5.8534	1.8140	1.3043	1.1054	0.7253	-1.8181	2.1627	-5.6089	6.0263	0.3263	-0.2749	-0.8051	5.5604
2352.0000	20.6871	-1.1358	-1.0941	6.2851	2.3317	1.1572	0.9380	0.2192	2.0892	1.9580	-8.8389	3.5840	0.1680	0.1150	-0.7361	4.6298
2360.0000	16.7421	-1.1312	-1.1005	-6.2859	-4.9998	0.4013	0.0921	-0.0241	1.6337	1.7377	-10.5325	11.9516	-1.6438	-1.6059	-1.3231	1.2573
2368.0000	8.9248	-0.6239	-0.6152	-13.6244	-8.1091	-0.0512	-0.0744	-0.1816	6.1429	0.9311	-8.4310	6.8381	-1.0173	-1.4405	-0.8514	-5.9872
2376.0000	6.2152	-0.2819	-0.2763	-9.6047	-6.0002	0.2201	0.5059	0.0452	-2.0137	0.6471	-10.8862	3.5646	0.5359	-0.0022	-0.1828	-6.2365
2384.0000	-4.2073	0.0375	0.0293	-7.6561	-5.3080	-0.6409	-0.7695	-0.2055	-9.6816	-0.2296	-16.2218	6.8037	-1.9190	-0.6130	-0.4174	-4.6031
2392.0000	-10.8283	0.3044	0.2799	-13.0745	-7.7336	-1.2696	-1.3740	-0.3973	-0.0508	-0.8402	-15.1653	7.1042	-2.5867	0.5131	-0.4431	-5.2122
2400.0000	-5.8656	0.1805	0.1685	-8.9074	-5.8023	-0.5544	-0.2265	-0.1536	-1.5552	-0.3546	-15.9487	8.7203	-0.3565	1.8924	-0.0245	1.3538
2408.0000	1.7148	-0.5796	-0.5751	-3.4705	-2.3872	-0.0442	-0.0466	0.5350	-3.0326	0.4214	-18.5363	4.9472	-1.0527	0.6676	-0.6239	9.3274
2416.0000	2.6693	-0.7471	-0.7458	-9.2638	-4.8601	0.0456	0.1426	0.9831	-2.5041	0.5608	-11.7939	2.8612	-0.7959	0.2960	-0.8253	10.0355
2424.0000	-5.3477	-0.1788	-0.1909	-8.0197	-4.1462	-0.1518	0.1044	0.6491	-13.3228	-0.2119	-9.6146	0.4101	-0.2265	0.3822	-0.2558	6.9598
2432.0000	-0.7096	-0.6611	-0.6657	-6.4014	-2.8587	-0.1850	-0.4993	1.4188	-8.6620	0.2357	-7.7894	-2.0025	-2.2250	0.3104	-1.0633	8.5101
2440.0000	0.4785	-0.6077	-0.6129	-11.6263	-5.9099	-0.1528	-0.1440	1.4483	-2.7144	0.3624	-6.4983	2.0339	-1.2808	1.1444	-0.9355	8.2834
2448.0000	-4.7773	-0.0479	-0.0618	-8.8637	-4.6257	-0.3043	-0.1007	0.9029	-6.0027	-0.2661	-13.2856	-1.0640	-0.3858	0.7668	-0.1488	0.5916
2456.0000	3.0170	-0.4794	-0.4799	-10.1811	-5.3441	-0.1663	-0.3069	1.8857	1.0791	0.4431	-4.8367	1.6375	-1.3690	-0.9015	-0.7858	0.2090
2464.0000	1.6263	-0.4030	-0.4122	-22.1179	-11.6349	-0.0087	0.5429	1.6364	-2.6153	0.4382	1.6358	4.7036	0.6364	-0.9479	-0.5384	1.3515
2472.0000	-0.6723	-0.3796	-0.3999	-27.1486	-13.8773	0.1138	0.9154	1.4057	-12.9515	0.2686	-7.9664	-3.7029	1.2735	0.5367	-0.3648	-3.5730
2480.0000	4.3906	-0.5348	-0.5373	-20.4014	-11.5818	0.0684	0.4788	1.9959	-7.4562	0.7588	-8.2619	7.2403	-0.0629	1.2283	-0.7859	1.1021
2488.0000	5.1746	-0.0916	-0.0804	-13.8453	-10.1184	0.0022	0.5339	1.6073	-4.6871	0.7947	-3.6736	24.4022	0.5544	1.2169	-0.3652	3.9468
2496.0000	4.3654	0.0511	0.0589	-15.6912	-11.2403	-0.1116	0.3301	1.4734	-9.4465	0.6722	-3.6725	22.7147	0.1973	0.4620	-0.3460	-3.0980
2504.0000	-1.4542	0.1861	0.1838	-15.0086	-10.3897	-0.5151	-0.1964	1.2032	-8.2761	0.1350	-5.4237	20.6043	-0.5862	-0.2460	-0.3348	-1.7399
2512.0000	-4.7519	0.3665	0.3554	-22.0612	-14.1786	-0.7868	-0.2248	0.8567	-4.9966	-0.1106	1.6355	25.2267	-0.2736	0.0955	-0.3242	-0.7322
2520.0000	-14.0738	0.4665	0.4186	-47.7480	-26.3175	-1.4421	-0.4396	0.5065	-8.4905	-0.8146	8.6413	18.3762	-0.3450	-0.8833	-0.6295	-8.5944
2528.0000	-19.4511	0.4449	0.3792	-47.8088	-24.3766	-1.2935	-0.1958	0.3981	-17.8883	-1.3681	-2.0951	-2.2482	0.2491	-1.1698	-0.2575	-13.1637
2536.0000	-7.7884	0.2763	0.2445	-26.0976	-13.7902	-0.3634	0.3212	0.8690	-20.2879	-0.4896	-5.5036	-3.2300	0.7297	0.1662	0.0091	-12.5080
2544.0000	-11.1417	0.4211	0.3846	-31.4322	-17.2002	-0.8968	-0.1410	-0.0528	-11.9770	-0.7308	0.5803	7.6913	0.1563	-0.4112	-0.1750	-9.1420
2552.0000	-14.7462	0.2420	0.1888	-39.4281	-19.7734	-1.0775	-0.3305	-0.1801	-11.5756	-1.0327	3.0341	-3.4267	-0.2636	-0.9606	-0.4461	-11.0707
2560.0000	-11.7122	0.0811	0.0273	-39.9489	-19.0162	-0.6258	0.0359	0.7998	-19.7026	-0.8030	8.5475	-15.1025	0.1326	-0.9661	-0.4978	-16.1848
2568.0000	-19.6611	0.2188	0.1449	-49.0166	-22.9674	-0.9187	0.3100	0.1942	-16.5824	-1.4262	5.2890	-16.8964	1.2871	-0.7145	-0.1858	-11.3870
2576.0000	-20.5102	0.1557	0.0840	-40.8649	-18.2574	-1.0131	-0.0757	-0.2149	-9.7912	-1.5567	1.5622	-19.6917	0.4784	0.6681	-0.2536	-6.8924
2584.0000	-23.4084	0.3708	0.2993	-32.7673	-14.0164	-1.3309	-0.9201	-0.6340	-10.9039	-1.9071	8.0676	-19.5989	-1.1415	0.5372	-0.3960	-7.4356
2592.0000	-26.1621	0.3184	0.2377	-37.3755	-15.5359	-1.2302	-0.4655	-1.1467	-11.5130	-2.1059	10.4173	-24.1046	-0.0170	0.3504	-0.2225	-4.0042
2600.0000	-16.6318	-0.0096	-0.0661	-25.1840	-9.3391	-0.3949	0.2636	-0.3748	-12.0539	-1.2956	9.5655	-25.2686	0.9241	1.0011	-0.1069	0.5511
2608.0000	-10.3478	0.0824	0.0513	-13.4383	-5.0816	-0.1417	0.3206	0.0732	-11.5435	-0.7627	10.3806	-11.3304	0.8844	0.9651	0.0065	3.9141
2616.0000	-5.9083	0.3188	0.3068	-3.8908	-1.8223	-0.0482	0.3982	0.0243	-4.0162	-0.4595	6.0722	1.1908	1.3097	1.3639	0.3834	4.4689
2624.0000	0.1190	0.4936	0.5094	18.6432	8.7389	0.2762	0.3235	0.2347	2.8130	-0.1460	-3.4210	6.5531	1.3045	1.2887	0.9222	5.4066
2632.0000	6.3559	0.3572	0.3928	30.1711	14.1858	0.5776	0.2419	0.3008	3.9383	0.3184	-4.1941	8.9045	0.8217	0.3501	0.8845	5.6029
2640.0000	7.8355	0.0728	0.1029	24.4375	12.0630	0.5349	-0.0799	0.3164	0.5305	0.4334	-2.9951	-0.2426	-0.2640	-1.2420	0.4122	-2.0009
2648.0000	5.9781	-0.0819	-0.0661	16.8033	9.5919	0.7786	0.5040	0.4218	-4.9991	0.2760	-7.2081	-14.4095	0.9289	-1.7577	0.6005	-5.8553
2656.0000	6.5604	0.1209	0.1395	24.2304	13.9473	1.1022	1.0295	-0.0299	2.4791	0.1894	-4.9592	-18.1850	2.5164	0.2206	1.2053	-3.9873
2664.0000	4.7410	0.2713	0.2933	35.0344	19.6300	0.5714	-0.1336	-0.4136	17.5022	-0.1318	-5.5425	-16.4122	0.4375	0.7541	1.0384	-2.8900
2672.0000	7.2347	-0.0081	0.0155	28.3446	16.0063	0.7676	0.2334	0.0415	12.5442	0.2457	-2.3382	-13.9931	0.7155	0.7162	0.7127	0.1220
2680.0000	7.9023	0.0929	0.1164	25.1120	14.1147	1.1795	1.0392	-0.1137	2.1322	0.3827	7.4348	-12.6842	2.3382	1.8903	0.9358	1.5742
2688.0000	2.0634	-0.0743	-0.0653	18.8341	11.6703	0.7525	0.5939	-0.1141	2.9187	-0.0055	5.2090	-15.0432	1.3297	1.7794	0.5448	7.3124
2696.0000	0.4617	-0.3028	-0.3011	9.2107	6.7571	0.6153	0.7110	0.4092	2.7530	0.0409	3.6430	-12.2054	1.3320	1.9277	0.2190	12.7853
2704.0000	4.5980	0.0519	0.0760	27.6763	14.9020	0.4794	-0.0709	0.5137	12.8604	0.1698	2.9692	-2.8623	0.0116	2.1865	0.4174	9.7301
2712.0000	12.8919	-0.1481	-0.0983	42.1421	21.8155	0.7491	-0.3441	1.0100	21.8835	0.7925	4.3513	1.9973	-0.8841	1.6711	0.2464	12.2113
2720.0000	7.6576	0.0626	0.0937	33.6848	18.5519	1.0558	0.6856	0.1560	11.3720	0.3430	7.9456	-8.1610	1.7144	1.9480	0.8925	10.0818
2728.0000	-2.2145	0.3834	0.3846	24.8614	15.4119	0.6199	0.4737	-0.9870	6.4352	-0.6448	-0.7532	-23.6044	1.9591	0.8584	1.3094	-1.3170
2736.0000	-1.7991	0.0096	0.0042	14.3661	10.5318	0.4050	0.1039	-0.6575	5.3174	-0.4955	4.7033	-25.5119	0.7378	-1.3153	0.5989	-2.5842
2744.0000	-6.0656	0.4574	0.4471	17.5374	12.1524	0.2599	0.0080	-1.2809	5.4123	-0.9523	15.6954	-23.4238	1.1534	-0.3671	0.9473	-2.0475
2752.0000	-1.5908	0.6836	0.6956	37.9965	21.8430	0.4348	-0.2438	-1.1319	15.6803	-0.7478	11.0876	-18.0411	0.8054	2.0504	1.3059	0.6244
2760.0000	6.9708	0.2263	0.2648	45.2027	24.2809	0.7992	-0.1666	-0.1749	14.7069	0.1765	13.4520	-5.2277	0.0202	2.2994	0.7285	11.5887
2768.0000	7.3453	0.0268	0.0601	33.7843	18.1741	0.9133	0.4626	-0.5802	12.0272	0.3732	11.2522	-2.5944	1.1465	2.2486	0.6582	13.6530
2776.0000	13.1604	-0.2937	-0.2561	24.5057	12.9752	1.1275	0.9793	-0.5905	17.2231	0.9677	8.6430	0.3384	1.9017	2.1534	0.4516	11.5256
2784.0000	17.0379	-0.3526	-0.3048	22.5221	10.7181	1.0455	0.6221	-0.4519	13.4004	1.3901	19.6600	10.9963	0.7334	1.6285	-0.0929	10.4998
2792.0000	19.9303	-0.1587	-0.1111	17.4400	7.6211	1.3185	1.2666	-0.8467	12.5450	1.5817	20.5730	10.4549	2.2861	2.8658	0.2807	1.8006
2800.0000	21.2477	-0.2687	-0.2213	17.0865	7.9103	1.5765	1.7459	-0.9359	13.9770	1.6709	14.9818	5.4695	3.3155	2.5509	0.5321	1.2337
2808.0000	20.6719	-0.6677	-0.6145	21.1772	9.9988	1.4270	1.1312	-0.1656	6.2898	1.7872	11.9634	8.2740	1.2727	0.8139	-0.1439	10.5915
2816.0000	24.8398	-0.6173	-0.5562	18.6381	7.6174	1.7980	1.9265	0.5162	3.7088	2.2028	6.6467	13.8472	2.8660	1.7129	0.1864	8.9969
2824.0000	22.6523	-0.2072	-0.1503	15.1749	4.9446	1.4647	1.8296	0.1516	10.5394	1.9320	3.8934	20.4490	3.3497	1.7525	0.5682	3.5008
2832.0000	19.7042	-0.4669	-0.4178	7.6727	1.0023	0.7446	0.7507	0.5899	16.3386	1.8139	1.6634	25.3622	0.7801	0.9511	-0.2996	6.6506
2840.0000	19.0205	-0.6871	-0.6465	2.2315	-0.6341	1.0815	1.4909	1.3683	14.1937	1.8388	-1.0358	16.4938	2.1823	1.9727	-0.1725	10.3430
2848.0000	18.6239	-0.6834	-0.6500	3.4028	1.6069	1.6988	2.4343	1.5029	6.8867	1.7247	0.6608	0.2512	4.2494	2.8685	0.3754	8.2467
2856.0000	16.0414	-0.5400	-0.5139	3.1522	1.8506	1.6903	2.4725	1.3585	2.0208	1.4514	-2.4132	-5.5425	4.4708	3.2587	0.5855	4.4626
2864.0000	7.5098	-0.0544	-0.0354	14.4359	7.7886	1.1571	1.6405	0.6359	2.9281	0.5476	-10.0565	-6.6307	3.4539	2.9287	1.0229	5.1856
2872.0000	10.6627	-0.0976	-0.0624	24.9016	12.5222	1.0516	0.9539	0.7424	7.1161	0.7910	-2.0246	1.5680	1.8106	2.3468	0.6507	9.4777
2880.0000	13.7003	0.0152	0.0597	18.6921	7.3124	1.0143	1.1682	0.9667	4.8676	1.1987	4.4394	19.0951	2.1679	2.3315	0.5157	10.5789
2888.0000	10.0389	0.2752	0.3093	11.0692	2.7652	0.7928	1.3007	0.7318	0.0608	0.9004	-3.8819	20.9298	2.7571	2.1773	0.8059	4.9107
2896.0000	12.2293	0.0337	0.0644	3.4787	-0.6936	0.8044	1.4094	0.8237	6.0749	1.1212	-2.4615	18.3628	2.8490	1.8872	0.5514	2.8944
2904.0000	10.7695	-0.2433	-0.2143	1.9029	-1.2003	0.5620	1.0283	0.7004	9.8093	1.1017	-2.3977	20.5756	1.8093	1.2265	0.0975	10.3748
2912.0000	14.4211	-0.6569	-0.6231	4.1828	0.4807	0.7600	0.7411	1.4300	0.6549	1.4640	-5.7234	12.5420	0.3086	1.0783	-0.4806	8.0030
2920.0000	18.5932	-0.5119	-0.4767	-0.2963	-1.8853	1.2887	1.7071	1.6094	-2.7991	1.7541	-0.8339	8.7843	2.5055	1.4098	0.0101	-0.6153
2928.0000	16.6045	-0.3510	-0.3177	-0.0365	-1.6682	1.4678	2.3906	0.7668	-0.9786	1.5619	-1.4333	10.1443	4.4549	0.7904	0.6195	3.2710
2936.0000	13.2634	-0.6099	-0.5848	0.4193	-0.1442	1.1272	1.5155	0.7648	-2.0829	1.2882	2.7357	2.4461	2.3062	-0.3508	-0.0131	5.4598
2944.0000	3.3813	-0.2953	-0.2942	-4.4516	-1.4532	0.2173	0.3655	0.2708	8.7169	0.3041	6.8915	-2.9798	0.7207	-1.1027	-0.1242	1.8738
2952.0000	5.7173	-0.3229	-0.3231	-8.8961	-3.5218	0.5291	1.1732	0.0280	14.5581	0.4736	1.7929	-6.0830	2.6453	-0.5707	0.3018	-0.6842
2960.0000	10.6789	-0.4285	-0.4239	-13.0469	-5.9445	1.2657	2.2714	0.4489	-3.4941	0.9778	2.9192	-10.2382	4.4244	-0.5552	0.5084	-6.1132
2968.0000	5.5750	-0.0980	-0.0987	-10.6985	-5.1657	0.8844	1.6519	0.4553	-12.3628	0.4922	2.2661	-8.5211	3.3589	-1.9138	0.5729	-9.6639
2976.0000	1.9129	0.1302	0.1245	-7.5322	-3.1916	0.4716	1.1019	0.2619	-0.5338	0.0480	1.2701	-8.6117	2.8206	-2.1304	0.7409	-9.8500
2984.0000	-8.0760	0.4705	0.4458	-11.7962	-4.8480	-0.1973	0.6068	-0.4959	7.0942	-0.8242	6.5128	-6.0753	2.6264	-2.2282	0.8849	-4.4353
2992.0000	-11.1510	0.2938	0.2616	-21.9072	-10.4847	-0.5063	0.4465	-0.4793	2.1781	-0.8575	8.0899	1.0794	1.9624	-2.3860	0.3740	1.9481
3000.0000	-7.3689	-0.0537	-0.0865	-29.9152	-14.4786	-0.0492	1.2182	0.1442	-6.5176	-0.3745	4.4872	-3.1134	2.9095	-1.1438	0.1904	1.4960
3008.0000	-5.2656	0.0021	-0.0215	-21.5296	-10.6312	0.1160	1.1257	0.4843	-11.3626	-0.2303	0.5306	-2.9281	2.4752	0.0533	0.2385	0.6358
3016.0000	-2.8536	0.3048	0.2936	-13.3414	-7.7962	0.0276	0.6572	0.6625	-13.0411	-0.1053	2.7211	5.0835	1.5095	1.0453	0.2464	-3.7209
3024.0000	-11.2519	0.6952	0.6603	-23.4562	-12.3574	-0.3965	0.7039	-0.0917	-9.2500	-0.8803	3.4117	1.4870	2.4784	1.4491	0.6635	-7.1080
3032.0000	-11.0260	0.4466	0.4046	-30.8856	-15.4530	-0.4966	0.6749	-0.2021	-3.7191	-0.8450	0.8063	-3.4769	2.3533	0.3533	0.4439	-9.3208
3040.0000	-4.4111	0.3897	0.3599	-26.0723	-13.1900	-0.2117	0.6946	0.1079	-1.3602	-0.4013	0.5671	-6.0495	2.2172	-0.0779	0.4596	-17.4301
3048.0000	-5.8084	0.6772	0.6483	-25.2395	-13.5707	-0.1987	1.0885	-0.1655	0.6542	-0.5297	-4.3739	0.3037	3.4818	0.9272	0.9712	-15.7725
3056.0000	-3.5502	0.4667	0.4445	-29.2368	-16.7904	-0.1232	1.2958	0.2006	-7.2629	-0.1477	-10.5430	8.7383	3.3739	0.3870	0.7080	-12.5595
3064.0000	-4.2352	0.0572	0.0322	-24.8126	-12.8785	-0.0761	0.7776	0.8512	-14.5195	-0.2029	-10.5155	-4.6439	1.6679	-1.2841	0.1912	-11.0115
3072.0000	-4.1131	-0.2555	-0.2847	-26.1478	-11.9090	0.1661	1.0936	1.3061	-9.1241	-0.1440	0.2260	-12.1201	2.2094	-0.8417	0.0068	-2.7949
3080.0000	-6.2936	-0.0315	-0.0766	-42.7105	-20.4738	0.2564	1.9956	0.8730	-11.9555	-0.2730	5.5985	-12.5771	4.5284	0.0806	0.3806	-8.4003
3088.0000	-6.6356	-0.1718	-0.2201	-43.0936	-20.4956	0.1647	1.6774	0.7422	-17.2341	-0.2992	-4.0190	-18.1390	3.5052	0.0847	0.1506	-12.6573
3096.0000	2.1104	-0.4928	-0.5116	-29.7660	-14.8797	0.3149	1.1753	1.2326	-11.5935	0.4862	-1.8769	-6.2908	1.7657	-0.2659	-0.4008	-6.1437
3104.0000	-3.5864	-0.0549	-0.0840	-32.0876	-16.0575	-0.1571	0.8338	0.4407	-3.9565	-0.1236	4.2034	-3.0727	1.9760	-1.6071	-0.0502	-8.6317
3112.0000	-8.7673	0.1347	0.0899	-38.8993	-19.0236	-0.5219	0.6117	0.0523	-0.8914	-0.6108	4.9869	-6.4881	1.9736	-1.6969	0.0375	-12.1222
3120.0000	-9.2077	0.8032	0.7638	-37.8293	-20.6385	-0.5168	0.9114	-0.4542	-9.6451	-0.6944	7.9548	6.5445	3.1026	-0.5916	0.6412	-18.5673
3128.0000	-16.5731	1.2651	1.2172	-37.2629	-21.2512	-0.9873	0.5366	-1.0708	-16.1429	-1.3383	0.9091	12.6116	2.8171	-0.8485	0.9770	-19.2707
3136.0000	-15.2776	0.6039	0.5586	-39.9016	-22.1725	-1.1840	0.0241	-0.2417	-10.8181	-0.9978	-1.4104	15.1277	0.8954	-0.7391	0.0019	-6.9245
3144.0000	-14.7532	0.4621	0.4148	-40.0840	-21.5812	-0.9191	0.4630	-0.2959	-10.9124	-0.9351	-3.4346	9.4152	1.7081	0.2597	0.1085	-4.6227
3152.0000	-16.3009	0.2899	0.2334	-40.3164	-20.3390	-0.8147	0.5111	-0.0942	-14.7698	-1.1285	-14.3574	-5.5504	1.6625	-0.2093	0.1861	-9.0528
3160.0000	-19.3717	0.5052	0.4392	-44.1444	-22.1361	-1.2405	-0.1827	0.4347	-15.6715	-1.4748	-10.1006	-7.9785	0.4576	-1.4851	0.0310	-17.3356
3168.0000	-22.4202	1.2571	1.1915	-36.3483	-18.8829	-1.4860	-0.5180	-0.1517	-12.4805	-1.9780	-3.5284	-3.5949	0.7228	-0.8481	0.6900	-24.7021
3176.0000	-17.4607	1.1608	1.1171	-23.8980	-13.4316	-1.3475	-0.6869	-0.1368	-4.4045	-1.5284	0.7539	8.0489	0.1445	0.3869	0.5202	-14.5843
3184.0000	-19.7849	0.9479	0.9038	-20.5338	-10.7970	-1.2558	-0.6052	-0.2381	-4.8950	-1.6298	8.9876	7.4140	0.1774	0.1870	0.3530	-1.5054
3192.0000	-16.9155	0.6035	0.5661	-10.0750	-3.8297	-0.6551	-0.2505	0.0350	-10.1753	-1.4360	9.7576	-6.2992	0.4667	-0.2187	0.3925	2.4456
3200.0000	-8.2269	0.7032	0.6889	-3.3853	-1.9710	-0.3926	-0.2488	0.3753	-7.3999	-0.7656	16.8468	4.0850	0.3291	-0.3757	0.3755	-2.8144
3208.0000	-6.6082	1.2287	1.2217	0.2445	-1.3707	-0.1862	0.2700	-0.1557	-7.1281	-0.7443	20.9676	11.5601	2.0174	0.8853	1.0856	-7.8473
3216.0000	-2.4893	0.8755	0.8845	21.7990	10.8473	0.2453	0.0010	0.1386	-6.2344	-0.5217	8.0301	-0.9621	0.8662	1.9722	1.0554	-3.3964
3224.0000	-4.9503	0.7710	0.7790	31.0131	16.5311	-0.3441	-1.4258	-0.0680	5.5490	-0.8884	3.7423	-6.5179	-2.0583	0.6815	0.6100	-3.8601
3232.0000	-5.9230	1.0281	1.0358	32.6825	17.3330	-0.2858	-1.1123	-0.4193	9.9844	-1.0595	5.4989	-5.1922	-0.8505	0.5183	1.1084	-4.3081
3240.0000	-2.6422	1.1731	1.2006	47.6741	24.0784	0.1231	-0.7469	-0.0272	6.5371	-0.8297	0.2577	0.9849	-0.0662	0.3499	1.6212	0.4604
3248.0000	-3.9465	1.3253	1.3486	39.2809	18.8982	-0.3585	-1.2499	-0.4263	10.1274	-0.9117	8.3702	10.3661	-0.8896	-0.8873	1.3235	-3.1666
3256.0000	-4.5984	1.5333	1.5490	25.4732	10.7746	-0.7164	-1.3959	-1.1080	10.6197	-0.9113	18.9324	19.1139	-0.9866	-0.8537	1.0823	-10.1552
3264.0000	-8.7400	2.1009	2.1204	37.2414	15.7358	-1.0996	-2.0143	-1.7278	10.3364	-1.4538	8.7981	24.7599	-1.6009	-1.7750	1.6578	-14.2713
3272.0000	-3.2477	1.6920	1.7247	45.3758	20.5784	-0.6385	-1.6941	-1.3892	14.8487	-0.9977	3.9418	19.9395	-1.3353	-2.3976	1.6304	-9.3114
3280.0000	0.6212	1.0153	1.0523	46.2471	22.5311	-0.1151	-1.2165	-0.6086	14.2957	-0.5092	7.9414	11.7142	-1.1700	-1.6527	1.1459	2.1221
3288.0000	-8.4115	1.4891	1.5101	42.4965	20.3572	-0.6475	-1.4881	-0.8307	13.4026	-1.2925	5.4774	15.3542	-1.0100	-1.3232	1.5050	2.9792
3296.0000	-11.8159	1.7592	1.7707	31.7785	13.7778	-1.0325	-1.5122	-1.0006	12.5996	-1.5136	3.2937	23.6883	-0.7253	-1.1598	1.5793	-0.4576
3304.0000	-20.3021	1.6716	1.6656	31.9313	15.0979	-1.6076	-2.4008	-1.1484	10.6554	-2.2433	-8.6689	14.4011	-2.5712	-2.1870	1.3294	1.6764
3312.0000	-22.9252	1.5653	1.5534	34.9709	17.8227	-1.5271	-2.2896	-0.9798	10.5408	-2.5026	-16.3872	5.0506	-2.2845	-2.5533	1.5261	4.4082
3320.0000	-16.6456	1.5531	1.5519	30.5834	14.4794	-1.1271	-1.5790	-0.7034	8.4665	-1.9071	-10.6580	12.2056	-0.9604	-2.4468	1.6142	1.3756
3328.0000	-19.2482	1.7942	1.7877	31.6816	15.0022	-1.4620	-2.0944	-1.0700	10.5625	-2.2600	-15.5522	10.0257	-1.6765	-3.1115	1.7503	-5.8311
3336.0000	-20.4318	1.7393	1.7310	36.8054	18.4962	-1.2929	-1.9199	-1.3240	11.8348	-2.3898	-17.9493	3.5094	-1.3089	-1.4375	1.9016	-1.4819
3344.0000	-25.6742	1.5374	1.5154	28.5509	14.7867	-1.6223	-2.1925	-1.7218	8.6891	-2.6516	-14.2449	3.8145	-2.1452	-0.5791	1.3712	6.4522
3352.0000	-26.1224	1.4604	1.4277	15.7376	8.2724	-1.9731	-2.4966	-1.7580	12.3225	-2.6759	-14.2392	2.6563	-2.7460	-2.0254	1.0417	-1.8067
3360.0000	-17.1518	1.6441	1.6354	23.1953	10.3423	-1.4625	-1.9442	-1.6724	12.1024	-1.9879	-12.1398	12.4385	-1.6175	-1.6963	1.4236	-7.2310
3368.0000	-14.9649	1.7861	1.7979	33.3233	13.2412	-1.4548	-2.1383	-1.9679	4.3980	-1.6804	-11.5489	31.4377	-2.3610	-0.6739	1.3102	0.9929
3376.0000	-13.5814	1.6984	1.7158	32.5123	12.2663	-1.5269	-2.3487	-1.5085	3.3109	-1.4689	-4.1006	38.7545	-3.0506	-1.1879	0.9500	4.7470
3384.0000	-16.2116	1.5155	1.5273	36.5455	16.2359	-1.5766	-2.7370	-0.9312	6.7696	-1.7492	5.8156	28.7232	-3.8304	-2.7176	0.7299	9.9299
3392.0000	-15.1225	0.9293	0.9401	33.5419	16.1106	-1.1534	-2.0976	-0.6432	5.1014	-1.4643	11.0163	23.0616	-3.0705	-2.9260	0.3989	23.1476
3400.0000	-7.2684	0.7244	0.7449	21.3709	8.6525	-0.5469	-0.7146	-0.6210	3.9689	-0.6106	16.6560	32.9008	-0.4472	-2.8551	0.5032	23.5661
3408.0000	-8.6332	1.0029	1.0152	13.1242	3.7681	-1.0623	-1.2245	-1.0204	10.6805	-0.8353	13.2540	35.5245	-1.0192	-4.0746	0.5360	10.9905
3416.0000	-16.4114	1.2115	1.2054	7.4586	0.9604	-1.6690	-1.9154	-1.4557	5.5010	-1.4934	5.8847	32.7343	-2.2860	-3.6262	0.4057	6.9380
3424.0000	-24.8363	1.5735	1.5574	9.7828	1.4923	-2.1495	-2.5439	-1.4379	-8.0720	-2.1548	-0.3377	36.3179	-3.5275	-2.4312	0.4148	9.1275
3432.0000	-23.4127	1.7375	1.7247	10.5150	1.2169	-2.2429	-2.6601	-0.7133	-2.7710	-2.0807	-3.8559	40.0397	-3.6039	-1.4236	0.5221	5.6709
3440.0000	-21.4217	1.8178	1.8054	4.4213	-2.3219	-2.0514	-1.9372	-0.9086	3.6735	-1.8874	-1.4907	44.4996	-1.7830	-0.5154	0.8436	5.6779
3448.0000	-22.9974	1.5992	1.5869	3.2843	-3.0413	-2.2936	-2.3518	-1.1892	1.8318	-1.8955	-0.2918	49.2414	-2.9731	-1.5768	0.3709	12.4649
3456.0000	-11.7337	1.1041	1.1101	-0.3473	-5.4700	-1.6860	-1.6231	-0.5278	5.3893	-0.8155	3.7785	53.5011	-2.1763	-1.5185	0.0199	12.8950
3464.0000	-5.4835	0.7404	0.7522	-3.0371	-6.3965	-1.0310	-0.6406	-0.2359	5.5727	-0.2124	1.7893	48.0180	-0.5805	-0.0144	0.0628	13.9264
3472.0000	-5.1020	0.1594	0.1717	3.0822	-1.5785	-0.8002	-0.7336	0.6268	4.6304	-0.0892	-5.1610	36.4079	-1.5263	0.8303	-0.3834	24.2365
3480.0000	0.1475	0.0779	0.0999	5.2948	-0.4090	-0.0570	0.5074	0.8299	4.8345	0.3716	-5.4637	35.0805	1.0365	2.1125	0.1381	27.1162
3488.0000	4.0708	-0.0249	0.0033	6.3524	-0.3496	0.0652	0.4115	0.4470	-0.2353	0.6766	-11.9300	33.0326	0.4311	2.0880	-0.0145	19.3883
3496.0000	8.2705	-0.2256	-0.1827	14.5401	3.1239	-0.2454	-0.8038	0.8762	2.4075	1.0153	-11.7938	38.2189	-2.7121	1.4954	-0.7981	17.6745
3504.0000	2.1894	0.4411	0.4789	13.2103	1.3062	-0.7227	-0.8896	0.0036	11.2292	0.4418	-1.8067	53.3022	-1.7421	1.6349	-0.2449	21.1355
3512.0000	-5.6079	0.6625	0.6758	-3.6281	-7.4353	-1.4352	-1.3548	-0.6241	8.4731	-0.1768	-3.9267	53.6020	-2.3252	0.5642	-0.3988	13.5674
3520.0000	-3.8730	0.8928	0.9041	-10.5092	-11.9571	-1.3498	-0.9538	-0.6644	2.6436	-0.0690	-11.6576	54.3185	-1.3500	0.4435	-0.0531	1.0898
3528.0000	-6.1859	1.3082	1.3206	-5.1399	-9.8560	-1.3297	-0.6818	-1.1194	2.8840	-0.3512	-16.6591	58.1291	-0.2187	1.5324	0.6083	1.1052
3536.0000	-14.0510	1.3106	1.3083	-4.6951	-8.9156	-2.0569	-2.0785	-0.7211	-3.8595	-0.9987	-17.7467	53.1096	-3.3701	1.2988	-0.0554	1.5600
3544.0000	-22.0312	2.0143	2.0003	-2.8731	-8.3644	-2.5295	-2.5497	-1.1627	-7.4343	-1.8149	-12.4306	55.7903	-3.4883	1.6452	0.4148	-2.8807
3552.0000	-22.5213	2.1588	2.1439	-2.2253	-7.5633	-2.5426	-2.4603	-1.2888	3.2470	-1.9220	0.7286	57.3167	-2.8093	2.1940	0.5699	0.4408
3560.0000	-18.2293	1.7816	1.7696	-6.3867	-8.8381	-2.2395	-2.2364	-0.4952	2.7229	-1.4989	13.1234	52.8957	-2.7665	0.4844	0.1682	1.1035
3568.0000	-12.5280	1.7221	1.7207	-5.2248	-8.3569	-1.4148	-0.9644	-0.7888	-6.5821	-1.0221	15.7086	50.2964	-0.2191	-0.7649	0.7110	-1.2994
3576.0000	-5.8836	0.9667	0.9749	-5.7786	-7.7903	-0.9747	-0.6295	-0.6461	-2.7668	-0.2973	16.5589	46.3747	-0.4517	-0.3173	0.0686	7.3164
3584.0000	-7.0805	0.9002	0.9101	-11.2675	-12.0709	-1.6660	-1.5288	-0.6489	3.9801	-0.2464	15.3831	62.5902	-2.4891	-0.6965	-0.6037	11.8585
3592.0000	-8.0601	1.3097	1.3145	-14.1259	-13.9916	-1.8232	-1.6220	-1.0391	3.5141	-0.4763	16.4944	62.0022	-2.1721	-0.9712	-0.2591	-0.1177
3600.0000	-5.8538	0.0960	0.0683	-13.4316	-4.8974	-0.2589	-0.2684	0.0866	-3.8540	-0.5599	16.0397	-15.9002	-0.3223	0.1662	-0.2547	-9.2132
3608.0000	-0.0611	-1.8029	-1.8577	-16.9924	2.4038	1.5713	1.5415	1.7397	-8.1486	-0.1022	9.2272	-92.6486	1.7422	0.8259	-0.7197	-6.3006
3616.0000	4.8106	-2.4893	-2.5510	-29.1446	-1.8864	2.0131	2.1848	2.0338	-3.4568	0.4127	15.8026	-106.5005	2.4814	0.8460	-1.2283	-6.2806
3624.0000	-0.0592	-2.3402	-2.4181	-34.1385	-3.6326	1.8893	2.2399	1.3247	-6.5435	-0.0440	14.3492	-114.9266	2.8587	1.9952	-1.0558	-10.1621
3632.0000	5.2424	-2.7977	-2.8673	-30.7412	-1.6082	2.3666	2.6628	1.7473	-11.1529	0.4621	-2.9452	-122.8168	2.9666	2.8295	-1.1569	-10.4705
3640.0000	12.1038	-3.1106	-3.1627	-27.9527	-1.0317	2.5874	2.7977	2.4464	-6.5493	1.1179	-7.6842	-115.4160	2.8086	1.7268	-1.3708	-7.4843
3648.0000	9.6704	-2.9996	-3.0511	-24.5623	0.6109	2.6603	3.0277	2.4464	-11.0181	0.9369	-8.0433	-113.1229	3.4474	1.2414	-1.0898	-2.0881
3656.0000	10.5464	-3.1304	-3.1798	-29.7153	-3.0045	2.4574	2.6868	2.6612	-16.2345	1.1692	-6.1486	-105.0891	2.2396	1.6162	-1.6573	-0.8542
3664.0000	5.5627	-2.8808	-2.9361	-33.0756	-5.7778	1.6915	1.7897	2.4350	-10.3787	0.7742	-8.3342	-93.6998	0.7145	1.3386	-1.8852	0.0680
3672.0000	7.8297	-2.7617	-2.8039	-27.8321	-4.4240	1.8492	2.1132	2.3500	-11.2586	0.9946	-12.6551	-83.0690	1.4686	0.8819	-1.5679	3.5608
3680.0000	18.0872	-2.9084	-2.9283	-32.9726	-9.4555	2.1039	2.4057	2.4418	-13.7152	2.0084	-4.2533	-65.1502	1.5138	-0.0937	-1.9761	-0.0820
3688.0000	18.7269	-2.6139	-2.6322	-36.4225	-12.4610	2.0179	2.6194	2.2342	-10.5643	2.0458	-6.3392	-56.7124	2.3346	0.6025	-1.6664	-4.1470
3696.0000	18.6939	-2.1964	-2.2086	-29.0634	-9.4916	2.3228	3.2616	1.8916	-12.6264	1.9680	-9.5532	-52.8437	4.1222	2.9078	-0.8921	-3.5309
3704.0000	18.1098	-2.2981	-2.3084	-29.2201	-9.9230	2.1080	2.7589	1.4361	-16.0428	2.0090	-1.7234	-47.3758	2.7480	2.6873	-1.4099	0.3621
3712.0000	18.6205	-2.7577	-2.7749	-39.4970	-14.6248	1.9884	2.5501	1.9984	-19.2763	2.2042	-2.6384	-51.1978	1.6914	1.2820	-2.0974	0.3455
3720.0000	17.6882	-2.3413	-2.3654	-46.3719	-18.6749	1.9744	3.0024	1.5805	-18.5824	2.0129	-3.6760	-50.6440	3.3232	0.7571	-1.4793	-10.4176
3728.0000	14.3904	-2.0343	-2.0585	-42.2164	-17.0695	1.6766	2.7041	0.3721	-13.7168	1.6602	-2.5722	-44.1904	3.2308	0.6987	-1.2275	-8.4664
3736.0000	14.1620	-2.5318	-2.5553	-41.4708	-16.0951	1.5450	2.1173	0.8575	-17.8624	1.8057	-2.2796	-45.8833	1.1758	0.4337	-2.0677	-0.0073
3744.0000	12.8638	-2.3396	-2.3638	-41.1694	-16.5214	1.2439	1.6401	0.9576	-17.7234	1.6502	-3.7689	-42.4450	0.3346	0.0304	-2.1045	-4.1033
3752.0000	16.6217	-1.9829	-1.9874	-30.8239	-13.1128	1.3667	1.8048	0.9388	-12.4036	1.9160	-3.7134	-27.1149	1.0036	1.3047	-1.6628	-1.6223
3760.0000	10.6969	-1.3949	-1.4105	-32.7288	-14.2829	1.1047	1.6622	0.6126	-17.0228	1.3332	10.1461	-24.7439	1.3941	2.1970	-1.3315	-4.9637
3768.0000	-2.9772	-0.5468	-0.5906	-33.5053	-13.7904	0.2332	0.6952	-0.6778	-14.5962	-0.0991	17.7743	-30.9396	0.7537	2.0663	-0.8159	-13.3157
3776.0000	-3.8950	-0.6703	-0.7016	-18.8066	-6.4094	0.0321	0.0189	-0.6196	-7.5622	-0.1572	14.0676	-24.0942	-0.7916	2.2064	-1.0303	0.4637
3784.0000	-6.2952	-0.8877	-0.9188	-14.7601	-3.8911	-0.1269	-0.3730	-0.3779	-8.6348	-0.2997	9.2814	-24.7166	-1.8436	0.8814	-1.2795	8.0647
3792.0000	-4.1671	-0.6745	-0.7021	-6.3895	0.9360	0.1785	-0.1017	-0.1114	-5.4067	-0.3635	0.6221	-34.8215	-0.8767	0.7946	-0.6006	-1.2009
3800.0000	1.7578	-0.4306	-0.4386	9.0885	8.5145	0.5976	0.1284	0.1706	3.8961	-0.0613	4.8515	-32.9331	-0.0759	2.3709	-0.0863	-2.1886
3808.0000	4.2242	-0.3483	-0.3470	12.2791	9.4804	0.6041	0.0876	-0.7035	10.1827	0.1212	13.3975	-24.8751	-0.0038	2.4937	-0.0909	-0.2582
3816.0000	12.8626	-0.4629	-0.4361	22.4928	13.1671	1.0167	0.2651	-0.8020	7.0890	0.8412	5.3231	-17.4744	-0.1339	2.2205	-0.0554	-2.5999
3824.0000	14.4701	-0.5526	-0.5154	33.6739	18.6676	1.0013	-0.2694	-0.3465	4.6566	0.9318	-4.5788	-18.4523	-1.6139	2.1143	-0.2000	-2.2831
3832.0000	14.9541	-0.6770	-0.6395	37.7571	21.6640	1.1780	-0.1161	-0.0293	9.7641	0.9392	-5.9473	-24.4534	-1.3040	3.1672	-0.1207	1.4116
3840.0000	16.2298	-0.4429	-0.4004	41.7959	23.5181	1.4647	0.4433	0.4267	12.4041	0.9755	-5.4508	-23.1403	0.2536	3.9393	0.4462	1.5856
3848.0000	13.7249	-0.2980	-0.2629	33.3186	18.5820	1.0004	0.0815	0.5410	17.0309	0.7888	-4.6879	-16.7039	-0.1977	2.9771	0.3213	-1.2735
3856.0000	19.0667	-0.4185	-0.3684	34.6817	18.0988	1.0998	0.0900	0.4981	19.9402	1.3224	0.5992	-5.5488	-0.4905	3.1643	0.0350	1.6688
3864.0000	20.8987	-0.5380	-0.4743	48.8379	25.6451	1.3950	0.0281	0.4307	17.4036	1.4593	4.7664	-5.7412	-0.8906	3.1610	0.0140	10.1582
3872.0000	21.0021	-1.0035	-0.9486	41.2637	23.3043	1.6149	0.4188	0.9217	16.5647	1.5807	6.0208	-15.9133	-0.4837	2.7506	-0.2941	14.1887
3880.0000	20.0779	-0.7699	-0.7259	26.8612	15.2802	1.6483	1.0205	1.0809	8.9424	1.5599	8.7167	-14.1545	0.9891	2.8191	-0.0611	5.6516
3888.0000	16.1471	-0.5325	-0.4990	23.4864	13.5149	1.2728	0.5238	0.9849	5.2706	1.1554	5.8212	-16.8479	0.1886	2.1808	-0.0487	-2.2559
3896.0000	19.4326	-0.8795	-0.8374	31.1499	18.1913	1.5644	0.6705	1.3044	12.5556	1.4446	0.6623	-21.1051	0.1579	3.4865	-0.1471	5.2475
3904.0000	19.9161	-0.6835	-0.6290	41.2408	22.2692	1.6263	0.7427	0.7519	13.9909	1.4767	-2.5846	-11.3476	0.4722	4.5680	0.1653	11.6076
3912.0000	20.6809	-0.8476	-0.7980	28.8296	15.0189	1.2486	0.2768	0.5851	9.5535	1.6543	-6.3707	-6.9621	-0.9157	3.1029	-0.4384	3.9517
3920.0000	19.8047	-0.6931	-0.6532	16.1315	7.9790	1.2176	0.6416	0.3527	1.7327	1.6265	-4.4741	-6.1164	-0.0492	2.5905	-0.3476	-4.6246
3928.0000	15.8903	-0.1450	-0.1042	26.0731	12.8449	1.1540	0.5471	-0.2918	-0.6741	1.1094	-1.3930	-4.8716	0.5026	1.8903	0.3390	-6.4775
3936.0000	16.9076	-0.2770	-0.2340	33.7192	17.8199	1.1436	0.1103	0.1611	6.2262	1.0603	-5.7258	-13.9182	-0.4397	1.4683	0.2766	-8.1886
3944.0000	13.2694	-0.1021	-0.0641	34.6870	18.3394	0.9271	0.0114	-0.1823	11.3897	0.7330	-7.5184	-11.8020	-0.2654	2.5173	0.4676	-4.5221
3952.0000	15.4022	-0.4154	-0.3649	34.1389	17.1080	0.7500	-0.2850	-0.1973	16.7851	1.1287	3.6171	5.1675	-1.2576	1.0527	-0.1865	9.7458
3960.0000	15.3955	-0.6001	-0.5517	30.1015	15.5275	0.8381	-0.1605	0.4101	12.2401	1.2021	9.8926	3.4074	-1.1946	-0.9302	-0.3814	11.8044
3968.0000	9.5694	0.1019	0.1373	30.4208	15.3562	0.7741	0.0103	-0.1331	-2.2324	0.5087	1.0050	-3.5345	-0.1300	-0.9582	0.5173	-3.2979
3976.0000	15.1970	0.0470	0.0960	29.8477	13.3179	0.5533	-0.5922	-0.0049	-0.9376	1.0027	-2.4377	7.2164	-1.7691	-2.0052	0.0599	-10.5972
3984.0000	10.8043	0.1353	0.1696	19.3272	8.4837	0.2611	-0.4314	-0.3192	9.6175	0.6574	3.3500	8.4848	-0.8426	-2.0512	0.1664	-7.6048
3992.0000	3.2063	0.2883	0.2987	3.6022	1.0633	0.0848	0.1750	-1.1062	8.2678	0.1282	9.4102	7.4640	0.9458	-1.2977	0.4040	-3.9011
4000.0000	5.7234	-0.0365	-0.0173	-3.5544	-4.5810	-0.3330	-0.6334	-0.3956	-1.1530	0.6282	9.5409	24.0556	-1.7278	-2.6375	-0.6939	-1.2535
4008.0000	8.7495	0.2683	0.3012	3.9369	-2.1011	-0.0790	-0.2243	0.2729	-1.2828	0.8390	4.7762	32.3984	-0.6500	-1.4971	-0.1557	-1.6034
4016.0000	13.1864	0.4173	0.4574	7.5548	-0.1349	0.5330	0.8423	0.1652	4.6956	1.1058	5.2162	29.5531	1.9529	0.3976	0.5794	-3.4519
4024.0000	10.5929	-0.0400	-0.0097	-1.1875	-4.3120	-0.0341	-0.2241	0.0654	-0.7096	1.0691	4.2325	28.5808	-1.0868	-0.6431	-0.5680	-2.0286
4032.0000	12.6973	-0.4986	-0.4693	-7.9500	-7.3574	0.2362	0.2634	0.5570	-3.8587	1.4497	3.8828	26.9409	-0.7030	0.1182	-0.9586	4.6765
4040.0000	13.4796	-0.4515	-0.4234	-10.1212	-7.9595	0.6611	1.3235	0.4829	1.3018	1.4936	4.8970	24.6124	1.9589	0.2218	-0.3206	7.4637
4048.0000	4.9498	0.1216	0.1432	-1.6782	-4.1330	0.0071	0.3261	-0.0152	-2.7608	0.6157	-0.0698	27.9140	0.5611	-1.3598	0.0137	4.9899
4056.0000	6.4115	0.4037	0.4459	15.2556	3.0341	-0.0090	-0.1091	0.4687	-4.7767	0.6930	-0.4186	40.5038	-0.3150	-1.1892	0.1815	10.4430
4064.0000	4.1068	0.1634	0.1991	12.2057	2.1478	-0.3052	-0.4938	0.6348	1.5384	0.5445	-4.8902	38.4871	-1.1825	-2.2308	-0.1290	14.5068
4072.0000	7.5951	-0.1358	-0.1063	5.5563	-0.0290	0.0362	0.0428	0.9968	5.0194	0.7993	-11.8709	24.4586	-0.2672	-1.6683	-0.0957	7.0893
4080.0000	15.8731	0.1609	0.2102	13.6080	2.9939	0.6861	0.9516	1.1007	10.2599	1.3504	-9.6637	29.2204	1.9627	-0.0487	0.6528	1.2878
4088.0000	4.8595	0.5288	0.5512	1.5032	-3.0573	-0.3761	-0.2379	0.0863	8.9604	0.3619	-8.2258	28.9842	0.1139	-2.5388	0.4178	-7.0758
4096.0000	2.3747	0.4462	0.4475	-13.9450	-9.7534	-0.4326	-0.1778	0.2496	-1.0014	0.1654	-2.3303	15.4588	0.0874	-3.3807	0.1481	-18.4790
4104.0000	7.7851	0.4120	0.4265	-9.0976	-7.7427	0.0973	0.5788	0.4837	0.4166	0.6298	-3.1242	18.1050	1.5687	-1.9212	0.4699	-16.1573
4112.0000	8.3718	0.2729	0.2893	-7.9603	-7.3486	0.0318	0.4674	0.1785	3.3826	0.7080	-13.2378	18.6383	1.1507	-1.1299	0.3674	-14.6978
4120.0000	13.0628	0.2222	0.2444	-1.2767	-3.0975	0.7288	1.1161	0.4230	-3.1364	1.0101	-11.2393	6.3932	2.2146	1.1361	0.6367	-19.3322
4128.0000	9.4227	0.1206	0.1399	-0.2741	-2.4368	0.5407	0.7664	0.3032	-9.2818	0.8169	-7.4893	8.7658	1.2297	0.9239	0.2915	-11.1087
4136.0000	3.0939	-0.1195	-0.1169	-15.7167	-10.2162	-0.0747	0.2916	0.2483	-12.4618	0.4995	-5.5754	13.5663	0.1019	-2.2422	-0.3347	-5.7934
4144.0000	5.0280	-0.1727	-0.1711	-10.7145	-5.9300	0.3150	0.7326	0.6898	-3.3131	0.4713	-6.3432	-0.9171	1.3607	-2.4264	0.1325	-8.9368
4152.0000	5.0533	-0.3641	-0.3611	-2.3777	-0.4844	0.4030	0.5565	1.2177	3.8989	0.4235	-10.9650	-8.7784	0.8678	-0.7733	0.0761	-3.2275
4160.0000	-0.4621	-0.0282	-0.0375	-14.7268	-7.9713	0.1711	0.9165	0.9853	-7.0172	0.1104	-8.1014	0.8431	1.9050	-0.5171	0.2613	-2.7928
4168.0000	0.5759	0.2668	0.2513	-28.1053	-16.0823	0.0791	1.3511	0.3733	-6.7915	0.1862	-10.1067	6.3967	3.2040	-0.4629	0.5581	-15.0742
4176.0000	3.9607	0.0037	-0.0098	-30.3875	-17.2830	-0.1489	0.7567	0.4581	1.9081	0.4658	-15.8043	5.0617	1.5882	0.3170	0.0078	-19.7380
4184.0000	0.9657	0.0847	0.0733	-19.4505	-11.0804	-0.1256	0.5625	0.4196	1.4454	0.1756	-12.2039	3.5710	1.2906	1.1800	0.1264	-10.9918
4192.0000	7.9383	-0.3268	-0.3227	-13.7556	-7.6549	0.4347	0.9649	1.0564	2.5820	0.8103	-4.0759	1.8216	1.5913	0.5488	-0.1022	-5.3130
4200.0000	13.3590	-0.6981	-0.6870	-14.8446	-7.3978	0.9081	1.4174	2.1717	0.9935	1.2962	2.9795	-3.8388	2.1442	-1.8564	-0.2584	-5.3529
4208.0000	6.8028	-0.4597	-0.4619	-16.4169	-7.2469	0.8495	1.8426	1.9806	4.6064	0.6909	2.9715	-7.6426	3.8012	-2.4187	0.3639	-0.5025
4216.0000	-0.1972	-0.3100	-0.3311	-28.3693	-13.6630	0.1445	1.3337	0.9735	8.6121	0.1756	-0.1762	-3.2940	3.0470	-1.2276	0.1247	-0.7382
4224.0000	-7.8940	0.1396	0.1102	-24.6666	-12.5669	-0.4432	0.3688	0.1671	-5.1276	-0.5176	-2.8398	-0.0889	1.1944	-1.2843	0.0831	-4.5606
4232.0000	-1.2399	0.1839	0.1805	-8.3326	-5.3602	-0.0050	0.4770	0.6399	-8.3266	-0.0144	-5.1663	6.5593	1.1474	-1.3434	0.2993	-2.9296
4240.0000	5.7819	0.0910	0.0997	-11.9606	-8.1714	0.1627	0.7950	0.9256	1.6495	0.5944	-1.8723	14.8017	1.7884	-1.6438	0.2461	-5.7025
4248.0000	-0.4127	0.3421	0.3338	-20.5103	-12.0135	-0.2529	0.6198	0.1081	6.6716	0.0397	8.4393	14.8586	2.0759	-2.0669	0.3218	-6.1629
4256.0000	0.2457	0.2852	0.2792	-21.1743	-12.6622	-0.5462	0.0244	0.0803	12.7750	0.1323	16.3145	20.6280	0.6984	-1.3153	-0.1764	-4.0087
4264.0000	0.5658	0.3403	0.3432	-14.3275	-10.1169	-0.6587	-0.4340	0.2752	6.6450	0.1944	13.3849	27.0328	-0.5550	-0.9736	-0.3683	-2.0753
4272.0000	3.4363	-0.0009	0.0061	-14.1969	-9.3538	0.0418	0.6126	0.5647	-2.5847	0.5664	14.6429	21.5784	1.1394	-0.6610	-0.2577	5.0252
4280.0000	5.5283	-0.3663	-0.3743	-34.1027	-18.6532	0.1956	1.3285	0.8357	1.6111	0.8541	13.2266	13.2511	2.4266	-0.1416	-0.4799	-0.7395
4288.0000	-1.8111	0.1071	0.0826	-38.9857	-21.6588	-0.3764	0.9091	0.2160	-0.2518	0.1453	0.8252	13.0831	2.1684	0.3096	-0.1210	-9.1623
4296.0000	-2.6191	0.3870	0.3745	-21.9445	-13.2091	-0.3345	0.5814	0.0005	-0.7427	-0.0528	2.5662	16.1786	1.7389	0.4766	0.2117	-4.6571
4304.0000	-3.7686	0.0954	0.0768	-19.9284	-10.4445	-0.3614	0.2076	0.2830	1.9977	-0.1895	4.7478	4.1443	0.7368	0.0426	-0.1221	-2.8308
4312.0000	-5.3403	-0.3785	-0.4122	-33.9381	-16.5537	-0.0568	0.9881	0.3074	-11.3488	-0.0797	1.0155	-5.5569	1.6764	0.7352	-0.4333	0.7325
4320.0000	-5.6674	-0.4408	-0.4769	-39.2126	-19.3614	0.0406	1.3304	0.1793	-16.4417	-0.0150	4.5672	-3.7916	2.2945	0.1572	-0.4646	2.5386
4328.0000	-7.2765	-0.3979	-0.4347	-31.0895	-14.2073	-0.2405	0.5627	0.4516	-6.0543	-0.3301	4.0133	-9.9611	1.0023	-0.9153	-0.4849	1.3307
4336.0000	-6.9628	-0.5173	-0.5495	-26.3586	-11.6036	-0.0358	0.7837	0.7861	-7.1756	-0.2316	4.6838	-9.1435	1.2508	0.3725	-0.5022	9.8058
4344.0000	-17.0943	-0.3232	-0.3695	-25.8402	-11.1969	-0.6873	0.0420	0.5751	-10.8898	-1.0402	-0.6742	-6.6161	0.0037	-0.3368	-0.5532	17.0008
4352.0000	-19.9944	-0.4600	-0.5114	-24.9658	-10.0534	-0.8756	-0.2836	0.6189	-9.7446	-1.2710	-4.4165	-10.1964	-0.7273	-1.1227	-0.7118	20.7553
4360.0000	-8.2382	-0.6900	-0.7220	-30.2517	-14.0111	-0.0677	0.9527	0.3972	-11.4456	-0.1609	6.6554	-1.9791	1.3644	-0.3347	-0.7247	18.5040
4368.0000	-2.5106	-0.7235	-0.7430	-28.0190	-13.8138	-0.0801	0.6539	0.2168	-6.4635	0.2633	6.0214	3.1121	0.5822	-0.9012	-0.9139	11.9311
4376.0000	-3.1423	-0.5350	-0.5481	-15.4287	-7.2846	-0.3272	-0.1224	0.2310	1.9594	0.0393	4.1895	2.9230	-0.7697	-0.3851	-0.8559	11.7181
4384.0000	-7.6107	0.1134	0.0929	-11.8253	-5.7820	-0.7334	-0.7104	-0.4880	1.9362	-0.5937	3.8847	1.2898	-1.1724	-0.7742	-0.3573	-0.9427
4392.0000	-8.0650	0.1816	0.1540	-13.9077	-6.4121	-0.6827	-0.7781	-0.5665	-8.3465	-0.7415	-3.0733	-9.9740	-1.3878	-2.0339	-0.2322	-14.0297
4400.0000	-11.0082	0.2414	0.2111	-7.6733	-2.2372	-0.2973	-0.2212	-0.7067	-16.9389	-0.9868	1.7506	-16.5852	-0.1677	-0.9478	0.1401	-6.5957
4408.0000	-14.8938	0.7058	0.6778	7.4924	5.8470	-0.6926	-1.1000	-0.9936	-4.7217	-1.5821	4.4016	-16.4895	-1.1825	-0.7729	0.5139	-6.2816
4416.0000	-9.8844	0.7789	0.7674	20.5340	12.1973	-0.6642	-1.6127	-0.7453	5.3629	-1.3425	3.4402	-15.1720	-2.1775	-0.8044	0.5554	-10.0229
4424.0000	-9.4868	0.5353	0.5309	26.2748	15.0718	-0.3314	-1.2904	-0.8920	-5.7869	-1.1523	2.3290	-13.6862	-2.1018	0.1267	0.4104	0.7889
4432.0000	-3.0293	0.1150	0.1274	30.9432	16.8242	-0.1207	-1.3664	-0.1765	-4.5805	-0.4888	-3.8117	-8.8804	-3.0449	0.6975	-0.0665	5.6547
4440.0000	4.2034	0.5310	0.5611	36.0187	17.8912	0.1528	-0.7895	-0.1875	12.4777	-0.0545	-2.6910	1.9744	-1.1186	2.2946	0.6685	-0.4954
4448.0000	2.5336	0.7246	0.7555	40.9957	20.5435	0.1343	-0.6973	-0.7864	19.5280	-0.2687	-0.6974	3.9373	-0.4558	3.0479	1.0203	3.5429
4456.0000	3.8651	0.1326	0.1669	41.0881	21.1252	0.0300	-1.3633	-0.1714	13.6203	0.0158	0.6135	2.1081	-2.8444	1.6531	0.0339	10.1218
4464.0000	0.0656	0.5994	0.6236	35.1485	17.2500	-0.1225	-1.1629	-0.7431	4.7859	-0.3634	-4.5476	3.2751	-1.9446	1.5285	0.5388	0.2080
4472.0000	2.0064	0.8415	0.8666	36.4994	17.8621	0.1033	-0.7082	-0.8850	9.6219	-0.3287	-7.3638	0.2934	-0.6093	3.3506	1.0568	-6.2019
4480.0000	-1.5240	0.9780	0.9987	42.2085	21.7388	-0.2046	-1.4150	-0.7711	16.3193	-0.7446	2.1173	-3.2334	-1.7471	3.2584	0.9517	-4.1310
4488.0000	-18.4334	1.5597	1.5444	33.8518	18.1187	-1.1437	-2.1748	-1.7552	5.4172	-2.2475	-7.0377	-9.7839	-2.4308	1.5375	1.3249	-9.2932
4496.0000	-22.7320	1.2175	1.1859	17.4709	9.9756	-1.3142	-1.9282	-1.4211	-3.8429	-2.3168	-9.7849	-9.3205	-2.3986	1.3849	0.8334	-2.8047
4504.0000	-27.7587	1.4911	1.4592	23.7595	13.0743	-1.5493	-2.2516	-1.3310	-4.1331	-2.7315	0.2585	-2.3541	-2.7078	1.5571	0.9280	6.8263
4512.0000	-24.9082	1.9306	1.9195	50.3310	26.4715	-1.2479	-2.4160	-0.8701	1.7783	-2.8317	-9.5182	-5.0031	-2.5027	1.8925	1.8339	3.8218
4520.0000	-12.9502	1.1189	1.1297	52.9677	28.4257	-0.5874	-1.8721	0.5457	15.2965	-1.6918	-5.4710	-5.0748	-2.2398	1.9692	1.2748	13.3501
4528.0000	-9.7704	0.2884	0.2945	36.5419	20.7195	-0.4633	-1.5418	0.5960	14.9837	-1.0905	1.0069	-5.3361	-2.5476	1.5214	0.2571	22.1794
4536.0000	0.0477	-0.2251	-0.2048	36.9354	21.1092	0.5920	-0.1664	0.4781	5.9883	-0.1496	-3.0724	-12.1739	-0.5700	2.9552	0.3122	22.5006
4544.0000	-0.2417	-0.3031	-0.2814	39.5411	23.4345	0.9674	0.4457	0.3484	6.7647	-0.1481	11.7734	-13.8312	0.8685	2.3718	0.5109	32.3050
4552.0000	-5.3850	-0.0421	-0.0316	36.0253	21.7632	0.3061	-0.5552	0.1580	8.1073	-0.6892	17.5196	-13.8701	-0.7922	-0.1468	0.3121	25.1867
4560.0000	-2.3302	0.4244	0.4387	32.5662	18.2473	0.1080	-0.6645	-0.3015	13.0777	-0.5872	12.4202	-6.6272	-0.5169	0.1450	0.6744	8.7938
4568.0000	-10.4597	0.8306	0.8273	19.1377	10.3685	-0.6400	-0.9641	-0.7632	15.3966	-1.2093	11.3128	4.4513	-0.4104	-0.8929	0.8038	7.8229
4576.0000	-13.6603	0.7365	0.7216	13.9859	8.2288	-0.9279	-1.4401	-0.2159	7.8372	-1.4802	0.8513	-3.5959	-1.6154	-2.6703	0.5748	0.9405
4584.0000	-13.0816	0.6959	0.6795	19.4603	12.1933	-0.5258	-0.9151	-0.5898	8.9144	-1.5432	-6.0978	-15.9016	-0.4244	-1.3045	1.0228	-0.2223
4592.0000	-16.8639	0.6100	0.5843	11.8687	8.2095	-0.7824	-0.8966	-0.5163	9.4302	-1.7140	-10.1330	-12.1223	-0.4124	-0.7633	0.8565	5.9292
4600.0000	-16.9904	0.6405	0.6080	1.7594	2.4551	-0.9077	-0.9315	0.0124	1.0872	-1.6518	-11.9011	-11.5929	-0.7081	-0.8593	0.6435	-1.8763
4608.0000	-20.4578	0.6201	0.5742	-5.8825	-0.2920	-0.7099	-0.2033	-0.8440	0.3236	-1.8804	-0.1224	-16.6400	1.0651	0.1387	0.8208	3.8039
4616.0000	-22.5471	0.3152	0.2672	-10.2586	-2.4089	-1.0651	-0.6001	-0.5553	7.3053	-1.8866	3.7776	-9.3234	0.0600	-1.0402	0.2639	15.6145
4624.0000	-19.2554	0.4278	0.3933	-1.0640	1.3613	-1.1965	-1.2617	0.1823	7.9346	-1.7282	-3.2753	-5.7385	-1.3981	-2.5178	0.2314	8.9018
4632.0000	-7.7382	-0.1369	-0.1497	4.6042	4.6866	0.1655	0.3662	0.7359	-4.6074	-0.6293	0.3920	-12.4844	0.9873	-1.6951	0.3437	13.8992
4640.0000	0.7539	-0.7439	-0.7410	2.2799	3.4162	0.7940	1.2219	1.3287	-3.1739	0.2823	2.9690	-9.0555	2.0254	-2.3234	0.0291	22.1260
4648.0000	-4.5652	0.0794	0.0746	3.2564	2.6453	-0.2967	-0.3026	0.9010	10.6839	-0.4869	-0.5159	-1.4464	0.0542	-3.7722	0.3038	5.0201
4656.0000	-7.1482	0.6023	0.5884	-0.2762	0.3884	-0.4354	-0.4147	0.9489	1.9368	-0.8302	3.7218	-3.8359	0.2285	-3.0418	0.6188	-8.2869
4664.0000	-5.7909	0.2648	0.2465	-6.8849	-2.3274	-0.0027	0.4570	0.9544	-3.4826	-0.5846	-1.3580	-10.4078	1.6518	-2.3143	0.6436	-5.3905
4672.0000	-1.9301	0.0078	-0.0039	-5.9215	-2.1677	0.0046	0.2775	1.1999	0.3727	-0.2380	-13.6460	-10.6969	0.8577	-1.8039	0.3875	-7.5701
4680.0000	-1.7604	0.0624	0.0535	-3.5487	-1.3994	-0.0149	0.0631	1.9816	-5.5914	-0.1859	-13.5024	-8.7075	0.1565	-0.7112	0.2316	-7.5060
4688.0000	-3.9708	0.0104	-0.0058	-7.7529	-3.0410	-0.0030	0.4595	1.6091	0.0078	-0.3266	-15.2296	-9.8034	1.2100	0.1669	0.3982	-2.2847
4696.0000	5.1689	-0.2735	-0.2730	-6.3132	-3.0098	0.3868	0.7167	1.3853	2.5846	0.4601	-15.7497	-7.3487	1.2036	0.6374	0.1523	-6.3853
4704.0000	8.0291	-0.4610	-0.4526	-0.5292	0.1499	0.4281	0.1921	1.0488	-1.2160	0.6760	-8.7748	-9.5484	-0.3687	-0.0931	-0.3211	-7.7373
4712.0000	8.5238	-0.9105	-0.9059	-4.2541	-0.4961	0.6605	0.6219	0.5486	1.0032	0.8005	-9.9055	-16.6484	0.2563	-1.0824	-0.4761	-1.6196
4720.0000	16.3820	-1.1314	-1.1070	0.0195	0.8347	1.3548	1.5034	0.9564	-5.2569	1.5473	-10.8408	-11.7468	1.6172	-1.8025	-0.3163	0.8902
4728.0000	18.8767	-0.9612	-0.9226	7.3783	3.4817	1.0554	0.7021	1.0155	2.5778	1.6979	0.5365	0.8480	0.0693	-2.5429	-0.5975	1.8006
4736.0000	18.7317	-0.9102	-0.8791	-5.5077	-3.5673	0.7107	0.5052	0.6721	9.1833	1.7449	12.2050	7.3463	-0.1785	-2.3275	-0.9616	-1.6408
4744.0000	17.8961	-1.0157	-0.9967	-17.2145	-9.1051	1.2035	1.6273	0.3877	-9.3536	1.8051	10.9259	-1.3359	1.8473	-1.9132	-0.7485	-5.2086
4752.0000	24.0921	-1.4727	-1.4474	-14.3702	-6.5328	1.6533	1.8217	0.7851	-8.1110	2.2897	6.3824	-13.8308	1.6448	-1.7366	-0.9894	-8.8290
4760.0000	25.3048	-1.2839	-1.2553	-9.5833	-4.2757	1.3343	1.0432	1.0710	1.6090	2.2182	5.7783	-13.8281	0.2837	-1.7487	-1.0545	-16.5866
4768.0000	12.7960	-0.9120	-0.9044	-12.3648	-5.4411	0.8302	0.8410	0.3496	-6.4141	1.2291	3.9366	-12.4394	0.4000	-0.9925	-0.7812	-8.4731
4776.0000	8.5090	-1.1477	-1.1509	-17.3576	-7.0476	0.8038	1.1366	0.3145	-4.5998	1.0356	5.2676	-14.0378	0.9153	0.6719	-0.9480	4.4458
4784.0000	5.6421	-0.8820	-0.8895	-15.7531	-6.3602	0.3470	0.3828	0.5722	-0.5237	0.6692	3.4690	-13.7188	-0.2778	-0.1678	-0.9334	-1.3723
4792.0000	2.8822	-0.8220	-0.8374	-24.8434	-11.8207	0.0803	0.1908	0.6711	-13.2570	0.5498	0.8637	-10.0320	-0.8887	-1.3820	-1.1655	-5.7548
4800.0000	3.4864	-0.8057	-0.8167	-28.7213	-14.9682	0.3621	0.9665	0.7804	-22.3326	0.8144	4.1736	0.7219	0.5000	0.2412	-1.0820	2.4950
4808.0000	2.6035	-0.4138	-0.4134	-14.0485	-8.2698	0.1255	0.4584	0.5507	-11.1334	0.5817	1.3816	9.3427	0.0309	1.1132	-0.6854	6.0484
4816.0000	4.8130	-0.4805	-0.4862	-23.7799	-13.1526	-0.1524	0.1087	0.3156	-1.9213	0.6835	-0.6971	5.9075	-0.5934	-0.0377	-0.9275	-6.4889
4824.0000	0.1616	-0.1745	-0.2022	-38.7519	-20.5611	-0.3204	0.3873	-0.5895	-10.2614	0.2376	0.1092	-1.3062	0.4275	-0.5735	-0.6385	-20.1781
4832.0000	0.5015	0.0633	0.0418	-30.2398	-16.6843	-0.2342	0.2644	-0.7448	-15.1574	0.1875	-0.4002	-0.5571	0.2002	0.7522	-0.4374	-22.1864
4840.0000	6.7305	-0.3624	-0.3758	-29.2770	-15.5686	0.1611	0.5487	0.1978	-10.5591	0.7540	-1.6534	-6.0214	0.2361	1.7639	-0.7266	-20.8893
4848.0000	5.0350	-0.7067	-0.7282	-29.4769	-13.9491	0.2207	0.5907	0.1814	-6.4919	0.6045	-7.7124	-18.1818	0.1961	1.2488	-0.8176	-17.1335
4856.0000	6.4709	-0.7843	-0.7969	-24.0419	-11.6204	0.0149	-0.0836	0.1486	-3.6825	0.7418	-2.0954	-11.8769	-1.4524	0.9936	-1.2648	-13.7409
4864.0000	4.1163	-0.5333	-0.5429	-22.8460	-11.9426	-0.1328	-0.0962	0.5568	-4.7386	0.6135	4.9636	-0.1176	-1.2108	1.0272	-1.1508	-6.7914
4872.0000	5.4539	-0.3053	-0.3016	-20.3219	-12.5063	0.1644	0.8207	0.7435	-7.5546	0.8440	1.4433	16.6327	0.9664	0.9456	-0.5286	1.8702
4880.0000	11.0027	0.0262	0.0444	-27.6538	-19.4245	-0.0247	0.8184	0.5720	-6.7256	1.3795	7.4578	40.3110	1.0914	0.2012	-0.5839	-5.9344
4888.0000	5.9986	0.0665	0.0706	-36.2129	-23.7648	-0.5408	0.2096	0.2325	-9.3392	1.0282	10.7387	41.2012	-0.2062	0.4770	-1.0236	-7.0574
4896.0000	6.7827	-0.1058	-0.0914	-28.5196	-20.3213	-0.2646	0.4711	0.0204	-15.9971	1.2632	10.0530	47.2765	-0.2031	3.1772	-1.1779	6.4840
4904.0000	6.3936	0.3630	0.3865	-20.2739	-17.3845	-0.5318	0.0423	-0.2411	-9.0686	1.1059	13.0342	58.6418	-0.5164	3.5341	-0.8638	5.6044
4912.0000	1.9019	0.2444	0.2422	-30.1238	-19.8668	-0.7789	-0.1273	-0.1217	0.1990	0.5486	5.3512	36.3018	-0.4183	1.8282	-0.7482	-5.2442
4920.0000	2.3320	-0.3548	-0.3754	-49.0771	-28.0812	-0.3558	0.9231	-0.3454	-10.6597	0.7743	-4.8106	19.9769	1.0998	1.5313	-0.9531	-8.8285
4928.0000	-1.9615	-0.5243	-0.5451	-43.9581	-25.5019	-0.4961	0.6208	-0.4660	-19.4912	0.5736	-10.3968	23.0536	0.0284	2.1248	-1.2485	3.8327
4936.0000	-7.3310	-0.1403	-0.1613	-27.0719	-16.1315	-0.7955	-0.1880	-0.4373	-12.4980	-0.0835	-8.5772	19.9941	-1.0935	3.8457	-0.9630	8.7324
4944.0000	-12.4736	0.5196	0.4858	-29.4560	-17.4483	-1.2305	-0.5262	-1.3665	-7.1355	-0.7583	-4.5030	18.7879	-0.7284	3.5832	-0.3996	-3.3161
4952.0000	-12.9854	0.0716	0.0408	-27.3850	-15.9783	-1.2546	-0.8438	-0.6421	-14.4017	-0.6464	-8.4997	18.0833	-2.0789	1.3997	-0.9337	5.4209
4960.0000	-11.3645	0.0330	0.0131	-18.6605	-11.6658	-0.8270	-0.4188	0.1165	-22.9458	-0.4538	-7.3867	19.5831	-1.4654	1.7337	-0.7544	12.6821
4968.0000	-11.9854	0.6467	0.6278	-14.1728	-10.0279	-1.1044	-0.6945	-0.6229	-9.1291	-0.7755	-5.8307	23.4957	-1.0114	2.4173	-0.1280	3.1585
4976.0000	-7.0661	0.3537	0.3519	1.3803	-1.4301	-1.2059	-1.6292	-0.1193	8.9441	-0.5065	-7.0565	21.9181	-3.1437	1.6972	-0.5191	6.8773
4984.0000	-6.7562	0.5881	0.5896	8.1056	2.4297	-0.8497	-1.1629	-0.7575	5.5460	-0.6340	-2.1495	17.0830	-1.7545	0.4823	0.0955	3.8689
4992.0000	-2.3552	0.4323	0.4338	3.6209	0.6244	-0.3581	-0.4855	-1.5168	-1.4268	-0.3127	-1.7839	7.4207	-0.5617	-0.6061	0.2447	-5.9886
5000.0000	7.4025	-0.1043	-0.0797	16.3037	7.4260	0.0105	-0.9646	-0.3603	1.9052	0.5041	0.3880	4.0681	-2.5710	-0.0641	-0.4758	-4.2042
5008.0000	2.5370	0.5089	0.5359	33.1697	16.2594	-0.2203	-1.4266	-0.2216	12.5562	-0.1595	2.2256	5.3268	-2.5413	1.4426	0.2367	-0.6597
5016.0000	-6.9274	0.6839	0.6928	36.6303	19.5077	-0.4537	-1.4498	-0.6225	15.3042	-1.0315	-9.6234	-4.8094	-2.0122	2.7580	0.7420	5.6081
5024.0000	-10.3466	0.4586	0.4553	28.4144	15.9344	-0.5096	-1.3873	-0.9715	5.0805	-1.1800	-9.3803	-9.6714	-2.2540	2.3661	0.4113	7.8174
5032.0000	-3.1701	0.0404	0.0472	22.2553	12.7931	-0.0812	-0.9512	-0.5830	1.0350	-0.4510	6.7766	-7.5890	-1.9402	-0.1850	-0.0693	8.0012
5040.0000	3.1976	-0.4009	-0.3794	31.4759	18.6362	0.4613	-0.6931	0.4409	5.2375	0.0606	10.5760	-14.3948	-1.8447	-1.4879	-0.2023	13.2254
5048.0000	-0.1497	-0.0449	-0.0262	39.9486	23.5196	0.4630	-0.6446	0.0822	10.5764	-0.3939	9.1229	-18.5445	-1.0836	-0.1746	0.4104	13.8232
5056.0000	-0.4230	-0.0798	-0.0645	38.1759	22.8449	0.4688	-0.5650	-0.2809	12.3158	-0.4159	7.8034	-20.7360	-0.9148	0.7234	0.4049	13.5004
5064.0000	-3.4919	-0.2964	-0.2935	29.1069	18.5530	0.1144	-0.9304	-0.5403	9.4463	-0.6131	-3.2049	-25.3110	-1.8882	-1.0541	0.0744	9.7547
5072.0000	-6.1236	-0.0725	-0.0776	19.0327	12.3089	-0.2508	-1.0208	-0.8780	5.8274	-0.8095	-9.5933	-19.2630	-1.7973	-2.7483	0.1817	2.2853
5080.0000	-6.7256	0.4380	0.4421	26.4448	14.4686	-0.2426	-0.9578	-0.7329	0.5272	-0.8917	-7.1108	-7.4318	-1.3238	-1.3709	0.6268	2.9481
5088.0000	-9.5280	0.9573	0.9653	32.4289	16.4222	-0.4197	-0.9893	-1.0785	4.8625	-1.1837	-2.1092	4.2338	-0.7173	0.2832	1.0966	7.1289
5096.0000	-7.8084	0.6395	0.6438	22.5794	11.4752	-0.5699	-1.0808	-0.9374	11.1546	-0.9267	-1.3614	5.6058	-1.1994	0.1638	0.5924	7.5629
5104.0000	-9.3575	0.4786	0.4755	24.9636	13.6953	-0.6755	-1.6491	-0.5462	4.4903	-1.1134	-12.2126	-7.9949	-2.8234	0.7578	0.3000	1.5222
5112.0000	-5.6979	0.9518	0.9588	30.0940	15.0429	-0.4646	-1.3544	-0.8253	3.9732	-0.9782	-13.1084	-3.8686	-1.7674	1.4590	0.9272	-9.4780
5120.0000	0.9750	1.2466	1.2690	28.2456	12.2155	-0.4043	-1.1217	-0.9888	13.1957	-0.4926	-4.3036	10.9918	-0.8439	0.2275	1.1870	-17.1453
5128.0000	0.0622	1.2344	1.2610	37.0817	17.3651	-0.3470	-1.2677	-0.8935	16.8986	-0.6066	1.1494	10.0142	-1.0693	0.6323	1.2169	-9.4618
5136.0000	-0.3361	0.9302	0.9573	36.6158	17.5929	0.0886	-0.5195	-0.9783	7.6234	-0.4290	5.2290	9.6357	-0.0098	2.1044	1.1122	3.8758
5144.0000	-6.9308	0.9800	0.9869	24.9194	11.4379	-0.7439	-1.5787	-1.3120	1.9215	-0.9748	-8.6305	6.3744	-2.2641	0.3581	0.6683	-7.1562
5152.0000	-8.3110	1.1589	1.1566	21.9711	10.1713	-1.2655	-2.4065	-1.1142	11.9823	-1.2821	-17.2504	0.5205	-3.6022	-0.1872	0.6311	-20.6884
5160.0000	-4.3650	0.8255	0.8229	9.7839	4.1212	-0.4119	-0.5295	-1.3541	5.7398	-0.6919	-9.2575	1.3649	-0.0209	1.5073	0.8487	-11.8142
5168.0000	-2.2925	0.2472	0.2452	3.9923	1.4832	-0.1136	-0.1530	-1.5505	-5.1240	-0.2689	-9.9044	-0.6448	-0.1924	1.4783	0.2588	-4.6060
5176.0000	11.4967	-0.5486	-0.5153	18.8545	9.2662	0.4284	-0.4852	-0.0416	5.6205	0.9795	2.3394	3.4985	-2.0943	1.3840	-0.7261	6.6725
5184.0000	16.9183	-1.2714	-1.2384	5.2047	3.3862	0.8899	0.3561	0.7311	9.1196	1.6809	15.8124	1.1498	-0.9956	0.2240	-1.3240	14.9280
5192.0000	13.0160	-1.1392	-1.1349	-15.5847	-6.2147	0.6596	0.5700	0.4082	6.0843	1.2611	11.6144	-13.7668	-0.1370	-1.0647	-1.1528	-4.3422
5200.0000	12.5877	-0.2965	-0.2862	-4.0630	-1.4418	0.7788	0.6750	-0.0196	1.6081	0.9393	11.8529	-12.1404	0.9111	0.5620	-0.1681	-16.5558
5208.0000	11.1072	-0.2753	-0.2628	-6.3505	-3.7907	0.6620	0.6424	-0.4890	-7.7966	0.9794	13.5739	-1.5485	0.5799	0.6540	-0.3842	-11.1990
5216.0000	14.3364	-0.6365	-0.6143	-3.8081	-2.5425	0.6543	0.2782	0.1862	-5.2086	1.3607	17.8638	2.6050	-0.7438	0.2450	-0.9914	-4.2978
5224.0000	14.7251	-0.5151	-0.4720	26.9588	14.1266	1.2681	0.6277	1.0148	-0.2464	1.2462	15.8063	-0.3867	0.2369	2.4474	-0.2091	13.8222
5232.0000	17.7587	-1.2115	-1.1692	22.2482	12.9967	1.5101	0.9672	1.6650	5.7589	1.6377	6.7738	-8.3273	0.3302	1.7812	-0.6137	20.4499
5240.0000	18.1082	-1.4721	-1.4524	-6.1996	-1.1876	1.0925	0.8662	1.7004	9.2296	1.7366	6.3380	-14.2980	0.0298	-0.6552	-1.1888	3.7609
5248.0000	9.7529	-0.7004	-0.7008	-12.8832	-5.1249	0.8375	1.1688	0.8418	-0.7076	0.9043	1.1008	-16.2132	1.6244	0.1183	-0.2935	-7.6444
5256.0000	14.5498	-0.6085	-0.5898	-4.7608	-2.4667	0.9365	1.0910	0.8153	2.0341	1.3102	3.4360	-3.7225	1.3770	0.4966	-0.2879	-5.3120
5264.0000	16.3280	-0.6801	-0.6464	3.5508	1.0179	0.7089	0.4295	0.6542	9.2035	1.4884	11.5304	8.7083	-0.0914	-0.8323	-0.6663	3.2186
5272.0000	13.2230	-0.7608	-0.7399	-6.4094	-3.7691	0.5641	0.5209	0.4839	4.0650	1.3069	8.7259	5.5473	0.0400	-1.5718	-0.7828	1.3917
5280.0000	14.8722	-0.7766	-0.7591	-12.2055	-6.6621	0.4196	0.2717	0.7619	8.0325	1.3954	10.4033	3.1366	-0.4664	-2.0680	-0.9799	-6.9094
5288.0000	9.2708	-0.6856	-0.6763	-6.9962	-3.1582	0.1586	-0.2223	0.5620	8.2623	0.8896	10.3938	-1.4194	-1.3694	-0.5616	-1.0317	-1.6851
5296.0000	7.4714	-0.7035	-0.7038	-14.6554	-6.9536	0.3402	0.2587	0.6049	-4.5442	0.8680	12.8629	-4.7593	-0.6701	1.4714	-1.1004	-1.6824
5304.0000	6.0780	-0.1803	-0.1745	-5.3357	-2.8838	0.2699	0.0951	0.4346	-4.2450	0.5759	17.1120	0.3211	-0.3449	0.6783	-0.5323	-4.8102
5312.0000	7.0797	-0.3460	-0.3247	10.2212	5.1673	0.3859	0.0119	0.8129	4.2873	0.6468	8.2539	4.3355	-0.5192	-0.0825	-0.3507	8.5609
5320.0000	13.9275	-0.8406	-0.8090	1.8147	0.0304	0.8495	0.9337	1.5850	2.4765	1.4832	3.2543	11.4505	0.6889	-0.0629	-0.6088	14.2649
5328.0000	11.5357	-0.5309	-0.5071	-5.5757	-4.4773	0.7170	1.2148	1.1325	0.3405	1.2744	0.6494	14.9652	1.6959	0.1889	-0.2574	8.7923
5336.0000	9.2975	-0.8096	-0.7979	-13.1445	-7.7267	0.4615	0.8721	0.9267	-1.0166	1.1735	-6.8182	8.6844	0.5745	1.1221	-0.7503	7.8013
5344.0000	8.8232	-1.2348	-1.2332	-21.7026	-11.3122	0.4647	0.8210	0.8749	-9.7099	1.2606	-13.5454	-0.6618	-0.2354	1.1272	-1.2865	5.7600
5352.0000	10.1429	-1.0926	-1.0899	-18.7063	-9.3119	0.7738	1.3962	0.7918	-4.5433	1.2382	-15.7591	-5.8344	1.4098	1.1924	-0.6809	2.7096
5360.0000	11.5506	-0.7730	-0.7612	-12.3809	-6.7683	0.6318	1.2186	1.1163	9.2050	1.2054	-14.7008	1.8469	1.7100	0.4572	-0.2737	1.3733
5368.0000	3.5676	-0.4722	-0.4718	-11.9242	-6.7149	0.1701	0.6734	0.8363	-1.2189	0.5139	-20.7254	2.1362	0.8542	-1.1369	-0.1347	0.3845
5376.0000	-1.5715	-0.3458	-0.3672	-20.0934	-9.4553	0.3021	1.1149	0.3512	-13.5060	0.0307	-19.9125	-14.1069	1.9334	-0.5195	0.1527	-7.4369
5384.0000	-4.0283	-0.1996	-0.2328	-23.8362	-10.6555	-0.1757	0.2877	0.2982	-5.9350	-0.3214	-15.8120	-20.6350	0.5064	-0.3125	-0.0921	-16.8286
5392.0000	-6.1739	-0.4238	-0.4621	-29.3573	-13.6343	-0.7447	-0.5623	0.9089	-1.0339	-0.3908	-20.0126	-16.3062	-1.5446	-1.0309	-0.7670	-13.8652
5400.0000	-6.1474	-0.2953	-0.3362	-34.0674	-16.1063	-0.4022	0.3411	0.9448	-4.9232	-0.3518	-15.6478	-15.7422	0.5899	-0.7645	-0.3158	-13.1860
5408.0000	-6.1725	0.1665	0.1327	-23.2508	-10.9227	-0.1672	0.5068	0.4899	-11.4486	-0.5481	-12.2013	-16.5794	1.4121	-1.4779	0.3643	-18.8436
5416.0000	-3.4924	-0.1853	-0.2152	-26.4607	-12.7182	-0.2244	0.2005	1.2122	-13.2616	-0.1999	-12.2280	-14.7231	0.1573	-2.3198	-0.2484	-17.4377
5424.0000	-1.0148	-0.5040	-0.5314	-30.4184	-14.4177	-0.1590	0.3612	1.7590	-4.2824	0.1193	-6.7513	-11.9925	0.2864	-2.0744	-0.5835	-10.2434
5432.0000	6.2931	-0.8713	-0.8802	-24.7081	-11.5803	0.4454	1.0044	2.0098	-2.7821	0.8168	-2.3860	-9.0204	1.1513	-2.3287	-0.6533	-2.6398
5440.0000	5.9269	-1.0415	-1.0602	-36.8376	-17.6352	0.6155	1.5747	1.9820	-13.5198	0.9138	-4.9937	-13.2590	2.0337	-2.8271	-0.7278	-6.1308
5448.0000	-3.3156	-0.4712	-0.5038	-29.3355	-13.4178	0.0482	0.7926	1.4684	-12.0319	-0.0767	-14.0522	-18.2930	1.2014	-1.6318	-0.2415	-9.8255
5456.0000	-3.0076	-0.2649	-0.2838	-18.9981	-9.2284	-0.2805	0.0965	1.3046	-0.8462	-0.0726	-5.5273	-3.2273	-0.0029	-0.6743	-0.3901	-1.3260
5464.0000	-7.4638	-0.1392	-0.1760	-42.3248	-22.1623	-0.7220	0.2591	0.2368	-7.5287	-0.2491	6.1101	7.3432	0.5329	-2.2870	-0.6763	-4.4205
5472.0000	-6.6058	-0.1250	-0.1660	-43.6421	-22.4600	-0.3529	0.7225	-0.0554	-22.1428	-0.2345	-0.7408	-4.0642	1.2809	-2.6506	-0.4030	-14.6804
5480.0000	1.8843	-0.1351	-0.1506	-24.5680	-12.7064	0.3841	1.2329	0.6726	-15.9027	0.3257	-1.6624	-5.9507	2.2714	-1.0516	0.0751	-12.7207
5488.0000	-4.4760	0.2731	0.2526	-21.2311	-11.5172	-0.1700	0.7678	0.0146	-5.2349	-0.2767	-4.5169	2.8294	2.1103	-0.5532	0.4114	-7.4124
5496.0000	-12.2596	0.2147	0.1770	-31.0257	-16.6120	-0.9336	-0.1314	-0.3653	-9.6584	-0.7767	-5.9452	6.5611	0.0781	-1.0533	-0.2377	-3.8602
5504.0000	-16.9989	0.2567	0.2029	-42.4008	-22.0072	-1.2228	-0.2475	-0.3517	-14.0995	-1.1023	1.3528	4.9737	-0.0609	-1.7047	-0.4532	-5.0610
5512.0000	-15.4542	0.4173	0.3677	-37.3205	-19.4116	-0.9373	0.1043	-0.0640	-16.2179	-1.0715	-1.9841	1.5242	0.8390	-1.4158	-0.0084	-8.9368
5520.0000	-12.6748	0.3299	0.2845	-38.7378	-20.4729	-0.8494	0.1639	0.0629	-16.5978	-0.8110	-1.8893	2.9311	0.7504	-1.2817	-0.1439	-10.9680
5528.0000	-21.1021	0.9720	0.9079	-45.0539	-24.0086	-1.3991	0.1052	-1.5826	-9.6831	-1.6668	-4.9851	5.6241	1.8509	-1.1056	0.5665	-16.6543
5536.0000	-22.6461	1.3522	1.2990	-30.5636	-17.9582	-1.6225	-0.4368	-2.0351	-10.3432	-1.8937	-16.5625	13.8856	0.9383	0.3033	0.8864	-15.4967
5544.0000	-16.8025	0.7177	0.6841	-24.7919	-15.9106	-1.6375	-1.1885	-0.6631	-16.0842	-1.1398	-18.2051	23.1176	-2.0350	0.6360	-0.2992	-4.9142
5552.0000	-9.7130	0.4004	0.3759	-22.7029	-13.9103	-0.8835	-0.1295	-0.0567	-8.9809	-0.5693	-19.3113	15.1889	0.0225	1.3493	0.0115	-3.5459
5560.0000	-5.5169	0.4095	0.3937	-13.0426	-7.8856	-0.1423	0.8629	-0.2078	-3.1644	-0.3738	-17.8096	5.8598	2.3980	2.2151	0.7476	-2.4940
5568.0000	-6.3919	0.2238	0.2120	-10.0610	-6.6061	-0.2982	0.3614	-0.5683	-9.7600	-0.3457	-15.2948	9.9256	0.8931	1.2289	0.2611	3.3291
5576.0000	-3.9932	0.9509	0.9591	12.3983	3.7003	-0.2158	-0.0368	-0.8309	-6.9539	-0.5018	-15.0808	14.5525	0.8206	1.2301	1.1083	-5.4297
5584.0000	-4.3768	1.7348	1.7592	42.8151	19.7777	-0.1556	-0.7066	-0.4424	5.1444	-1.0231	-4.9273	10.9307	0.5669	1.7361	2.0621	-8.5496
5592.0000	2.3779	0.9053	0.9438	48.2090	23.9814	0.5607	-0.2090	0.8609	3.9401	-0.2440	5.3341	5.4820	0.4797	2.2446	1.3831	7.8920
5600.0000	10.7378	0.4122	0.4626	43.6069	21.5314	1.2060	0.7642	1.4862	5.5269	0.6270	7.3976	7.0054	1.8710	2.8944	1.1826	12.3620
5608.0000	8.3199	0.7011	0.7492	45.1610	21.9211	0.6529	0.0082	1.2272	18.0724	0.2854	4.6589	11.5202	0.8873	2.3951	1.2599	8.3663
5616.0000	10.9950	0.7486	0.8113	56.5294	27.0771	0.6305	-0.5347	1.2560	17.9954	0.4543	7.2652	16.7111	-0.4288	2.2549	1.0966	9.4012
5624.0000	12.6538	1.1405	1.2112	62.3413	29.1889	0.7055	-0.5728	0.7030	15.7454	0.4620	15.3283	21.2874	-0.1740	2.2819	1.4158	3.2484
5632.0000	15.7529	1.1362	1.2055	53.1482	24.0530	0.9311	0.1105	0.2971	15.3081	0.7292	12.1152	21.0579	1.3350	1.6834	1.6614	-4.6171
5640.0000	18.3022	0.8785	0.9481	46.2009	20.3574	1.1714	0.5914	0.2173	8.0630	1.0378	6.9832	19.3987	1.9647	-0.0772	1.5883	-7.5521
5648.0000	11.5600	0.7966	0.8517	44.6416	20.8481	0.5976	-0.2833	-0.1444	13.8180	0.4508	9.9578	14.4570	0.3216	-1.2314	1.2058	-3.2244
5656.0000	7.2171	0.7439	0.7877	45.6460	22.9125	0.5199	-0.3353	-0.1934	19.4963	0.0461	10.8445	5.5004	0.4453	-0.2359	1.2694	2.0687
5664.0000	0.6150	1.0564	1.0879	47.1518	24.1174	0.3325	-0.5763	-0.1903	7.9232	-0.5834	7.6707	-1.0768	0.2075	-0.6124	1.5502	-1.6582
5672.0000	2.7290	0.6962	0.7285	43.7079	22.6185	0.5008	-0.4603	0.3956	2.9297	-0.2634	7.5968	-3.2694	-0.1970	-0.0248	1.1023	1.4772
5680.0000	3.3671	0.7104	0.7386	38.3821	20.1768	0.6849	0.0839	0.0801	5.6258	-0.2039	11.6409	-5.0602	1.1179	0.7979	1.2906	0.6791
5688.0000	-10.4406	1.5639	1.5636	33.4203	17.6120	-0.4485	-1.2476	-1.0933	1.5817	-1.6236	9.5363	-7.9670	-0.4454	-1.7438	1.6582	-14.7651
5696.0000	-10.8357	1.2270	1.2241	27.1602	14.2523	-0.5695	-1.3453	-0.7516	-1.7921	-1.4627	5.0141	-5.2235	-1.1963	-1.6862	1.1455	-9.2795
5704.0000	-13.7420	0.7946	0.7818	17.2281	9.8833	-0.5489	-0.8174	-0.6747	1.0871	-1.4307	4.5433	-3.6864	-0.4108	-0.1336	0.8137	6.5567
5712.0000	-17.4853	0.9678	0.9446	18.0373	11.2317	-0.5886	-0.7887	-0.7549	2.2089	-1.8387	4.0285	-11.7445	-0.0010	1.1198	1.0946	5.1575
5720.0000	-7.5620	0.7450	0.7455	32.5362	19.0325	0.4164	0.1784	-0.5624	4.3141	-1.0725	8.0701	-16.4335	1.6473	3.1274	1.4329	8.8162
5728.0000	-4.9650	0.2029	0.2097	33.4703	20.0477	0.3039	-0.3974	-0.7472	9.0694	-0.7487	13.0425	-15.7228	-0.2017	1.6684	0.6025	15.9989
5736.0000	-0.2643	-0.3304	-0.3226	26.4068	16.8339	0.3674	-0.5914	-0.1537	7.6856	-0.2443	11.6816	-20.6158	-1.4281	0.9082	-0.1478	12.6389
5744.0000	4.1714	-0.5539	-0.5431	22.4718	15.1642	0.7575	0.1222	0.1279	12.8156	0.1523	10.3903	-23.6477	-0.0297	1.0538	-0.0233	12.1176
5752.0000	6.1139	-0.5651	-0.5519	16.1187	11.1438	0.6252	0.0507	0.4642	15.0347	0.3706	15.1161	-16.2854	-0.1885	-0.2467	-0.2272	9.8424
5760.0000	8.8213	-0.3737	-0.3549	19.1603	12.2015	1.2499	0.9243	0.6975	-0.6733	0.6067	16.8009	-18.5786	1.4318	1.9423	0.2105	6.2384
5768.0000	2.7595	-0.6600	-0.6529	23.7509	16.4280	1.0258	0.4463	0.3690	2.5923	0.1156	10.5541	-29.5529	0.2835	2.9282	-0.0578	16.6481
5776.0000	5.2861	-0.9602	-0.9449	22.0938	15.0850	0.6369	-0.2086	0.8329	17.8820	0.4178	13.2281	-18.5796	-1.2436	1.3976	-0.6829	23.3558
5784.0000	7.1583	-0.4287	-0.4080	14.8396	9.1407	0.9085	0.8402	0.2233	9.9519	0.6172	20.7707	-3.2342	1.4657	1.4770	0.0187	18.0604
5792.0000	3.9267	-0.6767	-0.6713	0.2158	1.7005	0.6425	0.6893	-0.2272	-1.6157	0.5360	18.3417	-5.1531	0.6324	1.0251	-0.5625	16.0588
5800.0000	11.0524	-0.9748	-0.9571	-0.4941	0.8823	1.0337	1.1035	0.1273	-1.2575	1.2046	17.0626	-3.4060	0.9846	1.2396	-0.7499	15.0629
5808.0000	12.6497	-0.8250	-0.8023	-0.9599	0.1531	1.1693	1.6175	-0.7710	6.8745	1.3049	22.3508	3.3464	2.5396	0.9467	-0.3511	16.8370
5816.0000	10.0867	-1.2915	-1.2805	-9.8214	-3.4857	0.5919	0.6405	-0.8149	11.7925	1.2062	21.8774	-0.0721	0.0038	-0.0943	-1.3437	19.1208
5824.0000	9.8745	-1.0188	-1.0049	1.3066	2.2769	0.7566	0.6386	-0.7772	7.8684	0.9946	7.3356	-8.1071	0.1993	0.9270	-0.7600	11.7445
5832.0000	10.0545	-0.5097	-0.4903	7.0621	3.8460	0.6522	0.5463	-1.2749	6.9868	0.8253	-4.3679	-3.8612	0.5499	0.5750	-0.1074	0.7136
5840.0000	7.6864	-0.3425	-0.3359	-5.9815	-3.4929	0.0275	-0.1375	-1.2420	8.4781	0.6204	-5.2203	-0.9233	-0.7122	-0.1967	-0.4497	-10.7747
5848.0000	-1.1258	-0.0196	-0.0377	-9.6367	-3.7895	-0.2977	-0.3255	-1.6416	8.7684	-0.2761	-8.3124	-14.9317	-0.4136	0.4851	-0.0475	-16.2904
5856.0000	-3.7019	-0.1038	-0.1213	-0.2541	2.0502	-0.2249	-0.5597	-1.2545	4.6020	-0.5130	-6.1577	-20.8462	-1.0298	0.0902	-0.0831	-9.0358
5864.0000	-2.3512	-0.2887	-0.2940	10.2257	7.7559	0.1271	-0.2829	-0.5005	3.3737	-0.3401	-2.7496	-18.8853	-0.6604	-0.5727	-0.0150	3.7148
5872.0000	-1.1276	-0.5684	-0.5751	2.6458	4.0688	0.1357	0.0863	-0.2661	13.0859	-0.1348	-4.8778	-16.0531	0.1301	-1.5871	-0.1008	8.9091
5880.0000	-1.7131	-0.2291	-0.2363	-2.4335	-0.1494	-0.1496	-0.1677	-0.3884	6.5059	-0.1767	-5.0931	-6.8791	-0.2681	-1.9087	-0.0866	0.5576
5888.0000	-6.4390	0.0174	0.0098	10.5431	6.7547	-0.0905	-0.4033	-0.6184	-7.4607	-0.6342	-8.5816	-11.7504	-0.8026	-0.5269	0.1752	3.8232
5896.0000	-5.5194	-0.7277	-0.7379	5.7305	5.7886	-0.1219	-0.5539	0.3169	2.5611	-0.3476	-5.8250	-15.2387	-1.7896	-0.4492	-0.6709	18.2243
5904.0000	-5.5813	-0.3910	-0.4037	-2.6805	0.4760	-0.3603	-0.4623	0.6600	10.0566	-0.3691	2.1983	-5.2104	-1.0067	-0.8111	-0.4795	13.8379
5912.0000	-1.2717	-0.2764	-0.2790	-0.9392	0.4206	0.1108	0.1239	0.5703	-3.5339	-0.0074	3.9115	-3.4162	-0.0099	-1.2394	-0.2126	7.6099
5920.0000	7.1655	-0.7415	-0.7354	-10.9015	-5.3709	0.4992	0.5806	0.9779	-11.4300	0.8583	3.4208	-2.3457	0.0594	-2.6698	-0.7208	0.8901
5928.0000	4.3579	-0.1390	-0.1451	-14.5661	-7.4216	-0.0639	-0.0388	0.3453	1.1729	0.3140	-0.1367	-5.6809	-0.1904	-2.7112	-0.2634	-17.7455
5936.0000	3.2385	-0.2453	-0.2549	-11.5778	-5.1566	-0.5346	-1.2095	0.2231	7.8388	0.1190	0.6262	-11.2496	-2.7678	-2.9680	-0.8300	-21.6618
5944.0000	3.8165	-0.3718	-0.3779	-15.5284	-8.2598	-0.3853	-0.8783	0.6887	-7.2602	0.3826	-2.7352	-4.2297	-2.6526	-2.9953	-1.0289	-17.7566
5952.0000	2.6789	0.0038	-0.0059	-18.8279	-10.7366	0.1516	0.5451	0.6509	-19.7920	0.3316	-10.6402	-3.5977	0.6275	-0.3058	-0.0774	-19.2616
5960.0000	5.4756	-0.4067	-0.4182	-24.9265	-13.1231	0.3418	0.7700	0.2789	-17.9206	0.6773	-3.9800	-7.4983	0.6043	0.6859	-0.5613	-16.3238
5968.0000	6.6777	-0.6097	-0.6167	-24.4376	-12.9788	0.0018	0.0952	-0.1921	-6.0103	0.8094	1.1288	-1.4438	-0.9259	0.4786	-1.1145	-11.6986
5976.0000	3.9281	-0.5956	-0.5970	-14.3909	-7.8294	-0.2106	-0.4072	0.3521	-0.7986	0.6223	4.2370	5.1027	-1.9504	1.5852	-1.2716	1.9288
5984.0000	-1.9656	-0.6409	-0.6460	-10.1158	-5.0702	-0.1403	-0.2626	0.6877	-12.8801	0.2770	10.4572	6.1291	-1.7994	1.3254	-1.2865	17.2086
5992.0000	0.4440	-0.7519	-0.7547	-12.1944	-5.7588	0.3931	0.7505	0.8533	-15.1144	0.5242	12.5418	3.5566	0.3237	1.0170	-0.9200	19.9877
6000.0000	6.0343	-1.1909	-1.1913	-20.7539	-9.5401	0.6929	1.3075	1.2966	-5.3936	1.0855	18.6200	2.1022	1.2206	0.5485	-1.2028	21.9283
6008.0000	7.4988	-1.4009	-1.4038	-27.6118	-13.0953	0.5921	1.2996	0.5912	-0.9751	1.2419	13.6545	1.8745	1.0828	-0.3055	-1.4113	18.8736
6016.0000	11.0945	-1.2967	-1.2927	-24.3947	-12.2039	0.6439	1.2378	0.1323	1.1324	1.4388	3.6368	1.8483	0.9514	0.5386	-1.2429	9.9172
6024.0000	7.9455	-1.1459	-1.1475	-24.3324	-12.1518	0.2692	0.5616	0.2964	-1.0043	1.1203	4.8491	1.1560	-0.3496	-0.3435	-1.4059	6.1115
6032.0000	5.5103	-0.9937	-1.0048	-30.5036	-15.2690	-0.0240	0.2016	0.3333	-4.6692	0.8566	5.6296	-1.5707	-0.9111	-2.1752	-1.4522	-2.8698
6040.0000	1.7392	-0.3168	-0.3401	-36.6023	-18.8551	-0.0896	0.5391	-0.1703	-11.2875	0.3868	11.6578	-2.7071	0.6275	-1.9117	-0.7430	-16.0175
6048.0000	-6.1318	0.0836	0.0404	-43.4594	-21.8976	-0.4804	0.4336	-1.0506	-12.5671	-0.3644	13.5218	-6.3078	1.1589	-2.5304	-0.3691	-20.8029
6056.0000	-5.6090	-0.5484	-0.5955	-46.2941	-22.1494	-0.8836	-0.4787	-0.5606	-0.2715	-0.2475	6.0635	-12.1817	-1.3330	-3.3054	-1.2925	-16.5770
6064.0000	-9.1986	-0.6420	-0.6911	-40.6553	-18.6923	-0.8229	-0.4767	0.2263	-5.9560	-0.4451	4.3418	-13.9732	-1.5893	-1.5162	-1.3680	-4.8781
6072.0000	-6.5959	-0.7476	-0.7854	-33.3978	-14.9866	0.1348	1.0508	0.9565	-19.4374	-0.0830	2.0629	-14.3897	1.2653	0.3344	-0.7603	7.3141
6080.0000	-0.8591	-1.4639	-1.4920	-33.7767	-14.3536	0.3905	1.1617	2.0275	-10.1206	0.5571	2.8711	-15.4612	0.7621	-0.2177	-1.4028	17.8618
6088.0000	-7.7260	-1.4683	-1.5112	-35.7714	-14.1905	-0.0719	0.6061	2.1156	-3.4492	-0.0112	6.7479	-18.8330	-0.1173	0.0791	-1.6177	24.8195
6096.0000	-9.9368	-1.0233	-1.0668	-29.1389	-11.1912	-0.0826	0.5929	1.7791	-5.7821	-0.3242	4.3770	-19.1234	0.2691	2.3130	-1.1289	21.2117
6104.0000	-13.0460	-0.5153	-0.5551	-22.3296	-9.3687	-0.6537	-0.3867	0.8595	-7.9862	-0.6924	1.1430	-8.5575	-1.4376	2.5883	-1.0789	15.7729
6112.0000	-8.5377	-0.1485	-0.1726	-19.3529	-10.2014	-0.5117	-0.1141	0.0453	-13.3772	-0.3541	-0.8420	5.1177	-0.7143	2.1686	-0.6837	8.2328
6120.0000	-1.7341	0.0991	0.0884	-20.6808	-12.5508	-0.3586	0.0790	0.0853	-12.2685	0.1327	2.2775	13.6205	-0.1708	1.3976	-0.4798	-3.9999
6128.0000	-15.0926	0.4066	0.3651	-33.3785	-18.5972	-1.6528	-1.4768	-0.4574	-10.9953	-1.0007	7.1046	14.5646	-2.8309	-0.7279	-0.9954	-7.1983
6136.0000	-21.1572	0.5569	0.5011	-36.2746	-19.5802	-2.0530	-1.8361	-0.9777	-9.0704	-1.5529	1.4438	10.7426	-3.2354	-0.2841	-0.9191	-8.1321
6144.0000	-19.5663	0.7601	0.7158	-25.6129	-15.0913	-2.0851	-2.0751	-1.0197	-5.1536	-1.5079	-8.5734	15.8647	-3.6186	1.1916	-0.6623	-8.6642
6152.0000	-19.1163	0.6172	0.5784	-28.6188	-17.8735	-1.9998	-1.8415	-0.5575	-18.0527	-1.2252	-10.1299	26.1888	-3.7196	1.4518	-0.9517	-1.3846
6160.0000	-16.9091	0.5332	0.4956	-28.4215	-17.1489	-1.4434	-0.9838	-0.1554	-23.5949	-1.0283	-8.1842	19.6173	-2.0365	1.9121	-0.6365	-0.8181
6168.0000	-19.3516	0.7668	0.7266	-17.3352	-9.9979	-1.6092	-1.4981	-0.8638	-9.5465	-1.5474	-6.3377	9.3852	-2.3254	0.8273	-0.2109	-4.3354
6176.0000	-12.2729	0.4193	0.3982	-10.2202	-6.4789	-1.2731	-1.4572	-1.0657	-5.3690	-0.9319	1.1127	13.1786	-2.6759	-0.6997	-0.5138	0.2493
6184.0000	-3.5108	-0.0249	-0.0188	10.0476	4.5847	-0.5960	-1.3904	-0.1644	-1.0075	-0.2296	4.7143	9.5807	-3.2415	0.1454	-0.7263	9.9662
6192.0000	-0.2055	-0.1121	-0.0931	28.9444	15.5540	-0.0577	-1.2271	0.4802	3.2449	-0.1126	3.5461	-1.2246	-2.9864	1.8845	-0.4061	14.7635
6200.0000	-0.4489	0.2726	0.2907	28.4365	14.7249	0.1750	-0.6192	-0.0760	-3.8850	-0.2343	1.8696	-1.6052	-1.2581	1.3201	0.2942	6.6599
6208.0000	-6.5998	0.5965	0.6063	28.1921	14.0880	-0.6559	-1.8095	-0.6592	-1.0900	-0.8691	-3.2287	2.5357	-3.2293	-1.4409	0.2182	0.4923
6216.0000	-7.3934	0.5564	0.5616	25.7971	13.1746	-0.9787	-2.4269	-0.6289	2.2018	-0.9930	-2.8399	-0.1468	-4.4993	-2.8809	-0.0713	-4.6343
6224.0000	-11.0972	1.0798	1.0754	27.3006	14.0749	-1.1038	-2.4633	-1.3516	1.2019	-1.5254	-6.1211	-6.3835	-3.8495	-2.2823	0.5709	-15.8686
6232.0000	-11.5881	1.2751	1.2793	35.4170	17.1661	-1.3375	-2.9046	-1.2328	5.5598	-1.5820	-11.1526	3.0219	-4.6493	-0.9732	0.6191	-11.8721
6240.0000	-7.7326	1.0222	1.0347	30.1659	13.7256	-0.8224	-1.8302	-0.8452	-0.5781	-1.0159	-7.8011	11.4091	-2.8362	-0.4364	0.6221	-2.5162
6248.0000	-8.0339	0.8350	0.8467	30.9871	14.7055	-0.7409	-1.7016	-1.1356	0.4919	-1.0242	-12.2446	7.8290	-2.6594	-1.0427	0.6276	0.7171
6256.0000	2.3284	0.1407	0.1822	42.4611	19.9380	-0.6376	-2.4205	0.2760	12.6926	-0.0032	-10.8772	18.0977	-5.2932	-0.2973	-0.4437	12.7755
6264.0000	5.1140	0.0345	0.0785	41.3300	19.7686	-0.0172	-1.3699	1.0556	8.7501	0.3166	-6.0913	15.0305	-3.2818	1.7649	-0.1893	17.5690
6272.0000	3.1426	0.3731	0.4054	39.8324	20.0017	0.3544	-0.4085	0.3924	7.9862	-0.0648	-15.0065	0.7780	-0.5023	1.8541	0.8841	6.8814
6280.0000	10.2750	0.2598	0.3071	36.6328	16.7523	0.2866	-0.6524	0.0625	11.2099	0.5445	-14.8337	11.6382	-1.2553	-0.9261	0.5650	-1.1180
6288.0000	11.6848	0.2225	0.2694	26.5590	10.4313	0.1778	-0.6424	-0.5316	3.5457	0.7906	-10.6249	19.4254	-1.5287	-1.7886	0.2171	-5.4076
6296.0000	16.9499	0.3210	0.3786	32.2082	12.9271	0.4571	-0.4324	-0.6179	10.1258	1.1347	-9.3680	19.9988	-1.0489	0.6562	0.4020	-9.2968
6304.0000	17.7217	0.3094	0.3686	38.0966	16.7744	0.3871	-0.8814	-0.5884	18.6831	1.0655	-4.5459	14.6705	-1.8553	0.7510	0.3086	-10.7039
6312.0000	16.6629	-0.1305	-0.0866	27.4409	13.1560	0.6064	-0.4828	-0.2843	11.1475	1.0519	-6.7582	-1.6821	-1.4589	-0.5874	0.0592	-13.2142
6320.0000	21.7686	-0.4121	-0.3652	23.2582	11.2839	0.9475	-0.0013	0.3487	12.7863	1.5026	-12.3748	-6.9287	-0.7798	-0.6479	0.0194	-17.5759
6328.0000	13.5686	-0.2366	-0.2066	23.4764	12.0983	0.4470	-0.6425	-0.1370	10.4896	0.7515	-22.5496	-13.8434	-1.8522	-0.0965	0.0654	-18.6771
6336.0000	7.9768	0.0781	0.1008	22.6311	10.9772	0.3446	-0.3315	-0.6742	2.9846	0.3366	-30.6152	-9.3990	-0.8908	1.3304	0.5178	-15.1495
6344.0000	7.4332	0.2964	0.3277	28.8498	13.5030	0.0731	-0.5279	-0.8836	21.2735	0.2153	-29.2432	2.8599	-0.5675	0.3798	0.8466	-7.8684
6352.0000	5.4030	-0.0942	-0.0724	28.7421	15.4627	0.0333	-0.8282	-0.5494	23.0968	0.0213	-32.2824	-11.7240	-1.4412	-1.1645	0.5391	-6.0524
6360.0000	8.0139	0.0346	0.0630	26.4417	13.0651	0.7440	0.4838	-0.0829	0.9898	0.3919	-33.0744	-7.6066	0.9639	-0.1300	1.0224	-6.2053
6368.0000	4.7438	-0.0280	0.0049	26.6898	12.2128	0.3808	0.3710	-0.1288	10.7456	0.3144	-33.3231	10.6879	0.9111	-0.4519	0.8943	12.5389
6376.0000	1.7505	-0.9153	-0.9023	12.0776	7.0085	-0.0192	-0.1095	0.1308	20.6611	0.2623	-42.0636	-1.7724	-0.7695	-1.5684	-0.1404	20.1380
6384.0000	0.3230	-0.5253	-0.5289	-0.0601	0.7879	0.0128	0.2793	-0.2997	10.1911	0.0022	-44.9263	-11.7510	0.4364	-1.9399	0.3302	-0.9350
6392.0000	3.2802	-0.3418	-0.3344	3.2518	1.3621	0.1076	0.3819	-0.2252	10.6076	0.2321	-41.2332	-3.2288	0.7558	-1.8870	0.4859	-2.0624
6400.0000	7.5723	-0.6472	-0.6293	-2.6931	-3.1281	0.2750	0.8749	0.0314	9.4112	0.8611	-43.4960	10.6187	1.2127	-1.0038	0.1461	6.4883
6408.0000	0.3002	-0.1595	-0.1588	-9.5037	-7.2346	-0.3084	0.5458	-1.3353	9.5452	0.1703	-52.0614	12.5601	1.2207	-0.1771	0.4911	-1.1885
6416.0000	1.8027	-0.3243	-0.3149	5.5378	1.5446	-0.1276	0.1767	-1.2711	13.4488	0.1884	-52.9834	4.5284	0.2187	0.9337	0.4049	3.4982
6424.0000	8.4457	-0.3402	-0.3068	14.7716	4.9495	0.3455	0.5667	-0.2758	7.9933	0.8045	-46.9113	15.6458	0.7188	-0.1104	0.4980	8.1379
6432.0000	8.8004	-0.1539	-0.1233	4.1856	-1.8706	0.1018	0.6296	0.2622	7.0368	0.8760	-53.4708	23.7633	1.0393	-1.3401	0.5910	-0.1359
6440.0000	10.9576	-0.4920	-0.4601	6.1738	-0.0330	0.5651	1.3062	1.1399	7.1787	1.1396	-64.9630	15.8959	2.0230	1.1192	0.6807	5.9711
6448.0000	8.8229	-0.4691	-0.4330	13.4472	3.6898	0.6724	1.4889	1.1171	4.4965	0.9978	-67.2835	18.6967	2.4670	0.9363	0.9214	15.5250
6456.0000	9.0097	-0.4681	-0.4298	11.3242	1.7472	0.5332	1.3842	0.9442	1.2734	1.0456	-75.6257	23.4843	2.1874	-0.8091	0.9166	12.7671
6464.0000	16.0237	-0.7312	-0.6749	19.9745	5.7249	1.2559	2.2918	1.1920	-0.4789	1.6917	-88.6686	23.4098	3.5760	1.2127	1.2108	17.4518
6472.0000	25.9372	-1.3440	-1.2705	21.7325	6.5845	1.5886	2.3614	1.6182	10.7039	2.6111	-91.3021	24.3456	2.9101	2.3855	0.6023	20.3304
6480.0000	26.6675	-1.3221	-1.2606	7.0223	-1.2248	1.2035	1.9800	1.5633	13.4790	2.6318	-95.9224	21.1962	2.1363	1.8348	0.3048	4.0753
6488.0000	14.6492	-0.5813	-0.5436	1.8730	-4.0087	0.6816	1.8931	0.6071	5.4002	1.5149	-99.5595	20.5292	3.0122	1.6521	1.0576	-1.2036
6496.0000	10.8428	-0.5620	-0.5262	3.0519	-3.4055	0.3260	1.5141	0.5025	13.3214	1.2588	-94.3217	28.1074	2.4557	1.7549	0.8927	9.7053
6504.0000	7.2661	-0.2456	-0.2148	3.7947	-3.0894	0.1128	1.5156	0.6142	21.4150	0.8912	-94.3309	31.3198	3.1158	2.5226	1.2916	11.8479
6512.0000	-0.1726	-0.0303	-0.0187	0.1853	-3.7857	0.1493	1.8682	0.8581	8.6167	0.2430	-97.2917	19.6631	4.1382	2.6257	1.7301	10.2634
6520.0000	-4.3367	-0.2470	-0.2527	-9.3931	-7.7754	0.2127	2.1056	1.1765	-9.0974	0.0289	-104.4021	8.1219	4.1150	2.7654	1.5170	8.3313
6528.0000	-10.1555	0.0696	0.0505	-11.6811	-7.7682	-0.1032	1.6355	0.4493	-5.5525	-0.5353	-72.2432	6.7094	3.7155	3.4598	1.3291	11.2969
6536.0000	-9.6616	0.1896	0.1668	-9.4936	-3.4410	-0.1095	0.5272	0.2443	1.7980	-0.6491	24.8899	0.6939	1.6585	3.2274	0.0702	17.1992
6544.0000	-10.5886	0.8845	0.8552	-8.9076	-2.1000	0.1165	0.3999	-0.4188	-9.8655	-0.9672	81.6231	-5.6364	2.0031	3.6112	0.1136	5.5949
6552.0000	-11.8880	1.5299	1.4938	-14.1978	-5.7443	0.0621	0.7517	-1.4470	-11.7767	-1.2539	83.3947	-4.0035	3.5806	3.7991	0.8537	-9.4679
6560.0000	-10.0933	1.2640	1.2256	-20.4577	-8.5824	-0.4198	-0.3238	-1.0575	-3.8906	-1.1078	93.2433	-4.4454	1.0324	1.8823	-0.0552	-14.8530
6568.0000	-14.8904	1.4624	1.4216	-13.7203	-5.3944	-0.9379	-1.2931	-0.7480	-4.9209	-1.5750	84.9031	-2.9665	-0.8666	1.5239	-0.1435	-14.8544
6576.0000	-12.8151	1.3801	1.3451	-10.9289	-3.9639	-0.5675	-0.5688	-0.6172	-1.2991	-1.3699	78.6482	-2.3955	0.6840	2.5964	0.2277	-9.3196
6584.0000	-7.6053	1.0408	1.0045	-21.6973	-8.8087	-0.2598	-0.0601	-0.7198	1.1958	-0.9013	87.5185	-7.7341	1.5101	0.8352	-0.0129	-15.0555
6592.0000	-4.7730	1.0953	1.0568	-31.6498	-14.8232	-0.3610	-0.1137	-0.9510	-4.6281	-0.7039	80.6942	-8.0235	1.3174	-1.4974	-0.0575	-31.7780
6600.0000	-1.3843	1.1608	1.1265	-30.1469	-14.2323	-0.1032	0.1832	-1.0859	-6.1544	-0.5199	74.7268	-12.2426	1.9605	-1.5786	0.2397	-40.4839
6608.0000	-3.4225	1.1128	1.0802	-19.1909	-7.6697	-0.0957	-0.0101	-1.5885	-0.3345	-0.7921	68.6833	-17.8641	1.7354	-1.6564	0.4511	-34.5058
6616.0000	-4.4563	0.5213	0.4873	-23.4327	-9.3649	-0.1959	-0.0859	-1.0189	0.8009	-0.6225	62.8923	-15.6267	0.9210	-2.3109	-0.1834	-20.0771
6624.0000	-6.8337	0.3097	0.2695	-28.1966	-11.4742	0.1357	0.7827	-0.2449	-9.4686	-0.6031	56.5546	-17.2509	2.3845	-0.8908	-0.0728	-9.6666
6632.0000	-4.9359	0.4209	0.3997	-10.3575	-3.2592	0.5474	1.0934	0.0658	-15.7398	-0.4320	47.7472	-11.4282	2.8302	1.2966	0.3424	-0.2507
6640.0000	-0.4892	0.0977	0.0895	-5.8354	-1.2084	0.5178	0.5880	0.4649	-11.6528	0.0018	51.8038	-6.6084	1.2431	0.6051	-0.2593	3.9692
6648.0000	-3.1467	-0.0592	-0.0853	-17.7930	-5.9267	0.3759	0.7354	0.1433	-5.3874	-0.2445	50.0998	-17.1404	1.7852	-0.3393	-0.2848	-0.3800
6656.0000	0.3572	-0.4707	-0.4969	-26.1572	-10.1730	0.4388	0.8638	0.1764	-3.8500	0.1765	47.1980	-17.7166	1.5268	-0.5383	-0.7546	-0.9209
6664.0000	1.5133	-0.7306	-0.7604	-34.5580	-14.6711	0.3101	0.6734	0.6653	-7.8038	0.3871	42.5646	-18.1667	0.6338	-1.0754	-1.2411	-4.2834
6672.0000	-2.2095	-0.3673	-0.4070	-32.5139	-13.0496	0.5999	1.5520	1.0224	-8.9951	-0.0489	27.2636	-27.6893	3.1107	1.1696	-0.1965	-7.1913
6680.0000	-5.6576	-0.0875	-0.1328	-32.6760	-13.1872	0.5457	1.6765	0.7576	-11.6338	-0.3585	31.8610	-26.4818	3.7235	2.1082	0.0768	-6.1375
6688.0000	-11.8467	0.1958	0.1383	-42.2762	-19.1678	-0.4304	0.4742	-0.1114	-10.8450	-0.8693	35.4048	-16.1133	1.5653	-0.2028	-0.3685	-11.9179
6696.0000	-13.3286	0.5344	0.4797	-39.8612	-19.1974	-0.7628	0.2072	0.1909	-4.7783	-1.0511	24.6134	-7.0108	1.4749	-0.0020	-0.0318	-13.7683
6704.0000	-20.1077	0.8231	0.7565	-37.7017	-17.5154	-0.8450	0.2634	0.2438	-12.5140	-1.6617	21.7465	-12.4074	1.9422	0.7735	0.3717	-12.1304
6712.0000	-21.0402	0.6701	0.6016	-38.8759	-18.0222	-0.7578	0.3628	-0.1318	-21.2629	-1.6366	21.4166	-13.5761	1.7649	1.1986	0.1700	-8.7346
6720.0000	-15.0279	0.2835	0.2316	-37.7984	-18.4948	-0.5048	0.5178	0.3086	-24.1720	-0.9266	23.7089	-3.3868	1.3034	1.3703	-0.3474	-0.8190
6728.0000	-19.7905	0.2722	0.2071	-41.6625	-19.4876	-0.8571	0.0545	0.2320	-24.1014	-1.3890	21.0327	-10.8358	0.5544	-1.0698	-0.4175	-4.2702
6736.0000	-14.6882	0.3073	0.2592	-26.1918	-11.2441	-0.7659	-0.3780	0.7011	-7.5293	-1.1978	21.7140	-12.2431	-0.0589	-1.8284	-0.2332	-5.7661
6744.0000	-9.5872	0.2810	0.2542	-12.8717	-5.0774	-0.4591	-0.3652	1.7481	-3.9419	-0.7552	28.2356	-4.0445	-0.2610	-0.5209	-0.2675	2.8203
6752.0000	-9.5775	-0.0190	-0.0579	-31.8641	-14.9585	-0.1794	0.6125	2.0954	-19.4233	-0.4820	24.1437	-5.8352	1.2068	-0.4425	-0.4483	1.7443
6760.0000	1.0122	-0.2414	-0.2536	-27.6001	-14.4082	0.2266	0.9078	1.9908	-16.0076	0.4792	29.0998	7.1837	1.3209	-0.7232	-0.6859	2.7404
6768.0000	3.8714	-0.2119	-0.2041	-12.4136	-7.5735	0.0424	0.1537	1.2922	-5.4220	0.6544	31.9041	18.7775	-0.2457	-0.7260	-0.8769	9.6285
6776.0000	1.8306	-0.4128	-0.4245	-30.1804	-15.9887	-0.0859	0.6558	0.7904	0.7550	0.5522	20.0402	11.9354	0.9369	-0.4152	-0.8407	4.9480
6784.0000	1.1026	-0.2523	-0.2684	-31.5561	-16.4590	-0.2368	0.5847	0.7213	9.3985	0.3647	16.3096	9.2594	1.2695	-0.8653	-0.5608	-0.6919
6792.0000	-0.2766	-0.2804	-0.2963	-26.5319	-13.6391	-0.2046	0.3382	0.9615	-0.1039	0.2566	14.9708	5.4854	0.4556	-0.8101	-0.6825	0.2452
6800.0000	-0.3705	-0.6398	-0.6684	-37.0705	-17.9187	0.3461	1.3196	1.0709	-18.5958	0.4182	11.1144	-8.6667	1.7861	0.7242	-0.7783	-1.0511
6808.0000	-3.7229	-0.3041	-0.3290	-17.7492	-7.1236	0.1609	0.5988	0.5935	-8.8906	-0.1612	8.4513	-14.9102	0.9476	0.7565	-0.3044	-0.1670
6816.0000	-2.1202	0.1074	0.1044	0.7587	0.7837	-0.3457	-0.5968	0.4669	8.6397	-0.2339	10.5567	1.8005	-0.9321	-0.4231	-0.1937	1.8869
6824.0000	1.3644	0.3084	0.3179	-0.8865	-2.1284	-0.1452	-0.1366	0.4598	-0.3982	0.1718	16.0375	17.0122	-0.0834	-0.3956	-0.0763	1.6880
6832.0000	3.4093	0.4810	0.5069	18.0022	7.5578	0.4766	0.3882	0.7163	-7.4027	0.2557	16.6249	15.5926	1.0223	0.9337	0.5346	8.1936
6840.0000	1.7453	0.6264	0.6602	33.6733	15.9828	0.2965	-0.1703	0.7532	4.7297	-0.0601	11.7933	15.7925	0.3338	0.2181	0.8424	13.7329
6848.0000	-2.9873	0.6946	0.7209	31.8680	14.8423	-0.3781	-0.9819	0.1116	12.9312	-0.5067	-0.0227	18.8999	-0.9963	-1.8256	0.7632	12.4995
6856.0000	3.8711	0.5858	0.6301	38.8115	17.7012	0.0669	-0.5963	0.0818	14.4225	0.0796	2.1157	23.5706	-0.4960	-0.7387	0.7959	14.3436
6864.0000	11.0816	0.5473	0.6121	49.6103	22.9499	0.6099	-0.3617	0.0072	12.0645	0.6356	18.3117	26.2436	-0.2925	-0.6127	0.7598	15.5124
6872.0000	14.6909	0.3231	0.3952	51.3021	23.9983	0.6836	-0.6590	0.3010	11.3234	0.9427	25.6058	25.3570	-1.3004	-2.0257	0.3409	14.2973
6880.0000	13.5416	0.5305	0.5927	44.6214	21.0159	0.6549	-0.4243	0.5600	15.7512	0.7718	31.1896	21.5461	-0.3563	-1.4024	0.5847	8.4515
6888.0000	6.3096	0.8845	0.9234	37.5626	18.4869	0.2361	-0.7368	0.0303	16.6907	-0.0093	29.3883	10.2588	-0.2915	-1.9106	0.9043	-2.3886
6896.0000	10.5227	0.4805	0.5216	30.8567	14.8812	0.1983	-0.9350	0.8263	18.7275	0.4674	25.1621	10.4431	-1.3715	-1.4810	0.2612	-4.1844
6904.0000	11.3279	0.6575	0.6976	31.5003	15.1202	0.6837	-0.0345	1.2667	10.2309	0.5229	17.9799	5.2742	0.5352	1.1600	0.8444	-7.3889
6912.0000	11.8464	0.8496	0.8943	46.2379	23.2683	1.3506	0.6755	0.6471	-3.7687	0.3612	0.0277	-10.0729	2.0776	1.6535	1.8023	-14.3114
6920.0000	18.5891	0.3876	0.4499	45.9329	22.1589	1.1872	0.1309	0.2563	8.1630	1.0658	8.2991	3.8997	0.3766	0.3196	0.9263	-7.4405
6928.0000	9.1629	0.6200	0.6594	31.1696	14.6893	0.2106	-0.7466	-0.7108	15.2481	0.3156	20.2724	10.7762	-0.7925	-1.5278	0.5515	-6.6737
6936.0000	-0.5992	1.0633	1.0818	31.4086	15.4287	-0.1898	-1.1277	-0.8504	4.5265	-0.6597	3.8840	-0.6433	-1.0416	-2.1758	1.1000	-15.6703
6944.0000	0.1802	0.8601	0.8813	29.9124	14.2078	-0.3886	-1.4261	-0.2808	9.5254	-0.4763	-1.0978	5.1142	-1.9857	-1.0948	0.6928	-10.3696
6952.0000	9.2645	0.1869	0.2211	24.2721	11.6232	0.3808	-0.2841	0.2115	12.3791	0.5313	9.5570	7.3742	-0.4058	-0.2358	0.2870	0.2766
6960.0000	16.2244	0.0454	0.0995	32.1385	15.3675	1.2771	0.8881	0.5924	6.6098	1.1864	18.3862	10.7340	1.7363	0.1222	0.6286	8.1290
6968.0000	8.8727	0.3559	0.4012	32.1919	14.9066	0.6815	0.2113	-0.1835	5.0861	0.5729	19.1413	17.5193	0.7217	-0.2523	0.6092	11.3751
6976.0000	9.3220	0.2232	0.2599	22.8181	10.1276	0.6402	0.3076	-0.8787	0.8211	0.6315	9.5515	11.8139	0.6910	-0.3665	0.4829	2.2707
6984.0000	10.5917	0.4576	0.4973	26.6614	11.7617	0.6701	0.3702	-1.1662	6.1782	0.5927	2.1323	10.7212	1.1866	0.3958	0.9084	-4.3417
6992.0000	5.7947	0.6243	0.6598	32.9871	15.3565	0.3316	-0.1744	-1.2323	10.1565	0.1069	-2.6233	9.7259	0.3985	0.2652	1.0396	-1.2023
7000.0000	6.0874	0.2527	0.2876	31.4811	15.0844	0.5532	0.0695	-0.8409	0.4909	0.2648	-8.1778	5.0939	0.3156	-0.7637	0.8007	3.1278
7008.0000	2.1641	0.3077	0.3355	28.4507	13.3283	0.2528	-0.1414	-0.9172	-0.1906	-0.0120	-14.2972	7.4998	-0.0314	-0.6599	0.7692	5.3575
7016.0000	0.6978	0.6575	0.6825	24.1973	9.9127	-0.1374	-0.4660	-1.2175	3.1383	-0.1573	-14.1767	16.3685	-0.3501	0.4661	0.8143	0.2537
7024.0000	1.0219	0.6796	0.7076	20.2031	6.8197	-0.3763	-0.7501	-1.3266	2.4337	-0.0287	-7.6056	27.1423	-1.0566	0.0808	0.4715	2.0479
7032.0000	1.2573	0.1277	0.1512	7.0677	0.2397	-0.3142	-0.2504	-0.9445	0.9145	0.2985	-8.4699	31.3260	-0.5835	-0.9498	-0.0363	13.0200
7040.0000	-0.0074	0.3174	0.3289	-9.8646	-9.3490	-0.3003	0.5654	-1.2855	-4.7023	0.2883	-12.8051	35.1482	1.3860	-0.8090	0.3029	5.8162
7048.0000	-6.7761	0.8954	0.9020	2.5887	-3.0465	-0.8355	-0.5147	-1.9265	-5.2634	-0.5068	-14.9132	33.6384	-0.2841	0.4631	0.5637	1.7733
7056.0000	-2.3971	0.0954	0.1184	21.1332	8.4996	-0.2280	-0.5410	-0.7485	-3.3265	-0.0322	-14.1188	22.9012	-1.4412	2.3863	-0.0291	22.2781
7064.0000	1.5770	-0.3802	-0.3569	10.0543	3.0406	0.1551	0.3218	-0.0340	-3.2375	0.5240	-12.7552	23.6722	-0.1502	2.4164	-0.2972	28.0778
7072.0000	0.0632	0.0197	0.0344	3.3095	-0.9818	-0.2593	-0.0856	0.1873	0.5945	0.2535	-14.6887	24.1689	-0.4448	1.7749	-0.1127	13.7797
7080.0000	-2.0953	0.2008	0.2063	5.6397	1.5275	-0.3056	-0.3375	0.3952	1.7957	-0.1407	-13.6116	10.7966	-0.5781	0.9523	0.1499	4.6655
7088.0000	-12.7095	0.3629	0.3391	-5.1955	-2.7672	-0.9998	-0.9930	-0.7604	-2.0500	-1.1092	-17.6998	0.2439	-1.4408	-1.6486	0.1296	-2.5151
7096.0000	-12.7853	0.1910	0.1618	-5.7719	-2.1304	-0.7743	-0.6769	-0.9600	-5.1969	-1.1372	-26.6031	-10.6889	-0.9584	-1.1920	0.2456	-4.8286
7104.0000	-7.2313	-0.3515	-0.3757	0.4159	3.1940	0.0625	0.1635	-0.5575	-2.8663	-0.6823	-26.4854	-28.3099	0.2403	0.6896	0.2601	0.2905
7112.0000	-3.3529	-0.9101	-0.9346	-6.9796	0.0991	0.0821	-0.0924	-0.4061	-1.9041	-0.2296	-19.8047	-32.2318	-1.0661	0.1564	-0.6160	0.5778
7120.0000	2.5396	-0.8993	-0.9118	-9.6936	-2.5741	0.5159	0.6334	-0.0236	-7.8490	0.3553	-15.3718	-24.2065	0.2044	0.4554	-0.5079	-1.3048
7128.0000	0.5048	-1.0329	-1.0475	-2.9436	2.1068	0.4952	0.3147	0.2334	-7.1903	0.1112	-19.0921	-33.1175	-0.4936	-0.6882	-0.5229	1.2715
7136.0000	5.0056	-1.7641	-1.7752	-0.9305	5.0310	0.5291	-0.3467	1.1171	1.6324	0.5028	-15.1136	-44.9144	-2.6592	-2.1279	-1.4516	4.0117
7144.0000	8.9347	-1.5225	-1.5280	-3.1153	3.5019	1.1790	1.0812	0.7198	5.4367	0.8218	-4.9596	-40.9150	0.7990	0.1968	-0.7012	5.1895
7152.0000	5.7512	-1.4113	-1.4197	-0.6786	4.6527	1.1686	1.1500	0.2159	-0.6473	0.5874	-7.1263	-40.3374	0.9634	1.3572	-0.5660	9.0777
7160.0000	6.4915	-1.6353	-1.6385	1.8260	5.7566	0.9319	0.3961	0.9815	-3.0842	0.7158	-6.6116	-37.6597	-1.1101	0.0227	-1.1750	11.3111
7168.0000	1.6198	-0.8775	-0.8907	-4.9273	0.9323	0.3633	0.1808	0.0670	2.9921	0.1487	-5.1234	-27.9286	-0.3870	-0.6074	-0.5603	0.3649
7176.0000	1.5501	-0.6493	-0.6643	-7.2680	-1.1007	0.0596	-0.3517	-0.4267	0.6961	0.0805	-4.6553	-25.2525	-1.4496	-0.2620	-0.7104	-9.3317
7184.0000	5.1977	-0.7737	-0.7806	-6.5264	-0.7423	0.4576	0.1885	-0.0467	-0.5227	0.4530	4.3974	-23.0089	-0.5131	-0.0534	-0.7078	-4.9221
7192.0000	5.6126	-0.7865	-0.7995	-17.4915	-6.5967	0.5395	0.8157	-0.2167	-0.0281	0.5404	1.2358	-21.9987	0.9778	-1.0264	-0.4857	-8.4977
7200.0000	9.6095	-1.1353	-1.1452	-21.7279	-9.1257	0.6243	0.7159	0.4620	-6.9528	0.9812	-9.2227	-24.4938	-0.0254	-0.8513	-0.9704	-13.4974
7208.0000	6.9453	-0.9632	-0.9718	-13.8483	-4.9724	0.5615	0.6457	0.5282	-0.9939	0.7250	-9.8160	-22.2129	0.1349	1.3118	-0.7272	-5.5068
