Time	Fz	Fpz	C3	C4	T5	T4	O1	O2	F7	F8	F3	F4	T3	T6	P3	P4
0.0000	-2.3122	-0.7046	5.8805	4.8436	0.4528	2.3946	8.2023	5.7535	-13.5594	1.4252	-8.6460	5.1784	64.6401	5.6003	4.0688	6.8092
8.0000	23.5989	1.0770	24.4175	-7.1858	31.6232	-10.0696	4.1650	-5.7093	6.5659	-2.2454	7.6270	12.5067	261.3922	-38.1765	3.0829	-12.0327
16.0001	-4.2961	-8.2545	-7.2458	-8.8246	-0.6342	-6.5552	-1.4492	-7.2387	-4.4090	-5.8300	-7.2064	-10.7369	-6.8019	-16.9231	-10.0142	-17.5811
24.0001	-2.4460	-2.5210	1.6915	-2.8953	-4.8834	-4.2824	1.4763	-1.9370	6.5878	-5.7281	3.5158	-2.2930	25.3626	-1.4172	0.4450	-6.3194
32.0002	1.5334	-3.5864	4.0217	-3.5250	-6.3820	-3.2356	7.8369	-0.6076	1.3188	-2.3915	0.2910	-4.7202	-9.4158	-4.5284	-3.2122	-9.8258
40.0002	7.7699	-3.3496	14.1510	-6.5015	2.5294	-5.4171	15.5376	0.0466	3.2747	-3.1449	1.4454	-5.8681	-4.4996	-13.4051	-0.3030	-15.3500
48.0003	4.6642	0.7093	22.8908	-4.8111	7.0231	-6.2217	6.3717	-1.2193	12.6028	-8.9897	8.5795	-4.1742	3.8261	-2.7058	6.8235	-11.2930
56.0003	-3.6574	-0.9760	13.4255	-0.1247	-2.5488	-1.6115	3.4739	1.3636	2.8088	-5.1445	1.8166	-2.5526	-11.1803	6.5933	2.9795	-1.5594
64.0004	-1.3464	-1.7595	11.6243	-1.1562	-3.5867	-2.3976	0.0880	-0.9167	-4.7278	-2.3855	3.9774	1.1299	27.5637	-2.2003	1.4665	0.4522
72.0004	-6.0532	-3.1372	5.7895	-4.6326	-9.0102	-5.6381	-18.1621	-9.9641	-2.1153	-7.0399	4.8009	-2.9388	6.4994	-3.4818	-2.3645	-3.9443
80.0005	-0.9941	1.4459	2.1986	2.3024	-4.4128	0.8338	-7.9999	-1.4545	0.6127	-0.0961	4.9967	2.7441	13.7282	6.6837	-2.1748	3.8958
88.0005	6.8844	9.4719	14.4262	8.1343	10.5114	5.6415	7.7923	9.5690	3.1559	4.6340	16.0551	11.2755	29.3101	13.8835	10.1476	15.4081
96.0005	-7.5409	-0.7521	3.5463	-0.1179	4.6779	-0.5557	1.8730	2.3091	-0.1958	-3.6357	5.8593	-0.6442	1.8501	2.0804	2.5034	3.7423
104.0006	-12.7641	-10.7955	-10.1406	-6.2299	-4.2153	-5.4404	0.2402	-4.0664	-4.9415	-6.4560	-7.9586	-7.8287	34.5017	-12.6437	-11.0839	-10.1752
112.0006	-5.3125	-5.6711	1.4878	-1.8114	-2.9828	-1.9204	2.4076	-0.7672	-9.8229	-2.1168	-6.1593	-2.9280	26.1575	-4.9332	-5.9410	-4.1771
120.0007	5.3199	3.3051	13.6093	3.5481	12.5062	3.3059	13.2139	7.8343	-0.3878	2.8240	2.2828	2.9142	5.7873	3.7475	2.9730	3.7322
128.0007	11.2817	11.9797	21.2392	7.1242	24.7857	5.4281	15.2112	12.4126	17.4386	2.9527	16.1210	9.4126	10.8761	12.3847	14.6696	12.1991
136.0008	3.4482	9.5266	19.8414	7.9971	14.6009	5.6842	3.9801	8.8573	10.6622	1.4036	10.1069	8.0496	-3.9044	18.0930	12.1008	15.3876
144.0008	-0.7496	0.4624	10.7345	4.0066	4.5982	3.0432	6.7984	5.9336	5.0032	1.4756	-0.5708	2.9273	16.6784	6.4579	-1.2732	6.2671
152.0009	-11.7040	-5.5388	1.7434	-1.7517	-7.6207	-2.6053	-3.9858	-1.9001	2.1921	-5.5437	-2.9563	-2.9032	8.3127	0.7260	-1.9020	0.9523
160.0009	-15.9616	-7.5739	-6.4233	-2.6447	-11.1466	-3.2564	-18.7002	-8.7368	-14.0103	-6.7439	-12.7180	-5.9913	5.1145	0.0495	-7.1018	-2.4963
168.0009	0.6588	1.9715	3.2990	3.1344	3.3859	2.0725	-6.5915	-0.4130	-2.9925	0.9365	-0.9384	2.4856	19.3540	5.7435	-3.0265	3.0645
176.0010	-3.3878	5.0092	12.5086	4.6935	3.7998	2.7646	3.9588	6.6356	5.9108	-1.0552	10.2612	5.2022	-10.4908	13.4471	12.3210	13.5601
184.0010	-11.4548	-2.2099	2.0391	1.4274	0.9284	0.7265	7.5891	5.4854	-10.9370	-2.2759	-2.7611	0.7975	6.1978	3.2726	8.9933	9.1743
192.0011	-1.7463	3.7564	3.0194	5.3021	2.0877	4.1680	6.3508	7.1225	-5.0662	3.3098	3.2313	6.6341	7.1544	8.6769	10.0667	13.8484
200.0011	-4.8181	4.0691	6.7360	6.4480	-6.5718	4.3342	-2.1636	4.7255	-5.7118	2.0666	5.0930	6.8152	-11.1715	15.8539	10.0264	16.9323
208.0012	-16.9491	-11.1115	-5.3815	-2.9425	-18.0462	-3.8050	-9.5360	-6.4762	-26.1976	-5.6320	-15.8556	-6.2043	24.6322	-2.9266	-8.3116	-4.1425
216.0012	-20.4276	-14.7623	-7.6107	-6.0468	-27.1212	-7.2018	-15.5026	-11.6096	-22.1826	-10.0990	-18.9694	-11.0805	16.3823	-3.7359	-12.8076	-11.7293
224.0013	-15.1510	-8.4339	-4.5799	-1.1158	-19.5059	-2.7117	-8.6467	-4.8736	-12.5797	-6.3159	-11.6173	-6.2271	3.7927	5.7932	-7.6297	-4.0642
232.0013	-13.2096	-9.2895	-8.0718	-3.2664	-6.6287	-2.9776	-2.6954	-3.6296	-15.5311	-5.2463	-14.0890	-7.9357	12.0457	-4.3614	-9.7216	-7.9267
240.0014	-14.0267	-12.5036	-0.8826	-8.4088	-7.8272	-7.1231	-9.4943	-9.7596	-17.4554	-8.5312	-17.1578	-11.7330	0.1232	-14.3920	-10.1871	-13.3305
248.0014	-4.8974	-6.4239	7.5399	-3.6696	-10.9428	-3.9165	-11.5478	-7.9370	-12.6283	-3.5144	-9.2891	-4.0435	9.4516	-6.1516	-6.6643	-5.6196
256.0014	-0.0851	0.5595	3.8178	3.1374	-9.3042	1.5713	-9.3577	-2.2685	-5.9866	1.3185	-0.1863	2.2964	8.5419	8.2868	-4.7991	2.9461
264.0015	0.5990	1.7217	7.6995	4.6587	0.3879	2.8917	2.2109	3.4568	-6.9661	0.8807	-0.2333	1.7714	13.0136	11.0603	-2.4568	2.1798
272.0015	1.7699	2.1510	14.9736	3.0809	-5.6623	0.3673	4.2959	3.0202	-6.2976	-0.6678	6.3338	3.9977	21.5424	8.9576	5.9733	4.0892
280.0016	-4.7936	-5.3015	6.0400	-5.6036	-20.1839	-6.6582	-12.9731	-9.8473	-10.2671	-5.6249	4.8428	-3.0949	5.0025	-5.8403	-2.1190	-5.8639
288.0016	-0.2883	-6.9344	8.7911	-7.2493	3.5846	-5.9952	-5.3627	-8.1076	-13.7000	-5.1391	-4.7325	-8.5736	16.3108	-15.6462	-13.5378	-17.1736
296.0017	3.9909	3.5085	22.1592	2.2678	10.6122	0.3710	2.0223	2.4372	1.2630	-2.6890	6.3568	1.2254	15.2466	7.1868	1.3568	-0.3915
304.0017	-6.4951	-4.6504	7.6593	-2.1225	-23.2289	-4.8951	-17.8992	-9.8183	-4.0446	-6.8128	-0.5923	-2.9125	10.8483	5.5111	-5.3413	-4.9718
312.0018	-5.7811	-16.5523	2.8109	-10.8816	-21.2664	-10.3175	-18.1183	-18.3629	-21.2634	-8.4663	-23.5534	-15.2116	29.4809	-18.9342	-27.0385	-29.2158
320.0018	-3.2825	-7.5613	26.5378	-4.0925	2.5752	-4.6716	2.1309	-3.1564	-10.4414	-7.8440	-11.6103	-9.4410	7.1254	-4.2521	-9.8383	-14.6908
328.0019	-3.7902	2.9509	29.1402	6.5461	4.5998	3.2071	17.6060	12.0628	-5.3156	-2.7756	3.6198	3.1308	-0.7567	18.9151	12.8406	10.2810
336.0019	2.6750	4.5735	20.2031	7.4965	-1.8521	4.5258	12.6940	9.4439	-12.9753	2.9614	-0.5413	7.1599	11.0677	15.5676	13.4992	12.0819
344.0019	-0.7405	-1.5557	20.6383	-0.5897	-4.1628	-1.7047	-2.6944	-2.1396	-17.5935	-2.1712	-6.4068	-0.3598	-0.3410	-0.0801	5.5356	0.6860
352.0020	-2.1007	-5.0496	14.8381	-3.2150	2.5808	-2.5901	5.8928	-0.6596	-25.5339	-2.0988	-11.1360	-4.2863	4.3573	-9.3508	1.2407	-5.5265
360.0020	3.8811	-1.7829	8.4581	-0.2256	1.9401	0.8888	9.1521	2.2647	-25.9928	4.4570	-10.5373	0.6647	4.7515	-8.3289	3.2988	0.1161
368.0021	7.7289	0.7862	10.6370	2.7939	-8.3979	2.6244	-2.4218	-0.7843	-19.2526	7.4520	-7.6684	5.3783	8.5684	-1.2473	0.6968	5.3588
376.0021	19.1166	8.0375	16.4857	8.2617	-10.0064	6.6394	0.4574	3.2995	-8.3520	13.2130	2.9892	12.9629	13.1124	9.0814	3.2894	11.6530
384.0022	21.3164	11.0990	16.8170	6.2924	-3.4450	5.3042	-0.9158	2.6803	2.4603	11.8814	16.4464	13.5363	-0.4375	6.1554	6.5777	12.0516
392.0022	17.2103	8.9612	16.8429	5.0119	3.7136	4.1448	-4.0460	1.1860	4.1017	8.4175	14.6686	10.2247	12.5721	4.4441	0.2280	7.8069
400.0023	17.7408	5.5155	15.1545	2.3194	-3.1393	1.8316	-14.7777	-6.1002	2.4257	7.2030	4.2935	6.6461	12.6538	-0.3567	-6.9356	0.3022
408.0023	8.9703	-4.8769	5.5888	-9.5334	-6.5823	-7.4237	-29.6531	-20.1142	-0.5665	-1.9420	-6.7695	-6.3353	0.8181	-21.5550	-17.7951	-18.6039
416.0023	13.3831	2.1731	15.7678	0.1596	6.1572	0.1373	-8.6441	-4.9937	4.0947	2.2008	-2.1376	-0.0696	11.8578	-2.1848	-11.4497	-8.6444
424.0024	19.3629	10.4971	25.9360	8.0632	1.9454	5.5626	-4.1542	2.1706	6.3401	7.2834	8.4428	9.5047	4.8239	15.4403	0.2540	6.0574
432.0024	6.9496	-2.2102	11.0195	-7.6676	-2.1758	-6.9809	-25.6615	-16.5553	-0.5933	-4.5706	1.7683	-5.2944	3.9238	-13.8833	-12.7225	-15.8558
440.0025	12.7797	4.5382	12.1238	0.1331	3.2776	-0.2177	-9.1488	-4.4530	10.2785	1.6630	9.6244	1.7790	1.4844	0.4083	-7.0463	-5.1754
448.0025	15.3889	11.7605	11.3481	10.5352	-7.8281	8.1568	2.6687	7.4862	10.4813	11.2062	16.8525	14.1873	-8.0486	19.8676	6.7768	17.2498
456.0026	-0.0597	-5.3095	-3.6154	-3.8363	-9.1224	-2.7296	-5.0713	-5.7387	-9.4499	0.8768	-4.6955	-2.4403	12.0186	-11.2067	-8.7417	-6.2657
464.0026	3.6334	-3.7588	7.0674	-2.9705	-0.3282	-2.1271	-0.3535	-3.3393	-2.6579	0.0097	-5.6917	-3.1359	10.5465	-8.8830	-8.7297	-8.5028
472.0027	8.2180	7.6398	14.6962	6.9771	1.4351	5.2987	-3.8460	3.4636	6.4745	5.7029	5.7795	9.1121	-0.5164	12.6383	5.3492	13.0758
480.0027	7.1544	5.2523	11.0320	5.9717	12.3897	5.8150	1.8233	5.0802	-1.0244	6.2472	-3.8111	6.0023	6.7387	5.9944	1.3778	8.8764
488.0028	15.2770	7.3385	22.6003	8.0160	19.7740	8.1497	18.8873	12.4478	2.6769	9.5489	-3.9906	7.0358	-0.4151	7.3136	3.4350	7.9326
496.0028	12.4499	7.2635	23.2507	6.7537	11.5416	5.9778	12.2684	9.3308	8.0471	6.7955	1.0524	7.7727	-3.1508	8.7202	7.5429	10.0722
504.0028	5.0379	-0.3169	15.9704	0.6285	0.1336	0.2867	2.0178	0.4865	7.1352	0.7741	-5.2673	0.3581	-0.6061	0.4805	-1.5121	-1.0426
512.0029	9.4812	6.7721	25.7224	9.3603	1.8841	6.8238	9.3798	9.5724	8.2812	6.2105	1.5286	9.1429	5.0385	17.6286	5.7000	13.0526
520.0029	13.6172	15.0372	27.8062	15.7033	14.8714	12.5217	17.9800	18.7066	8.8089	11.4077	10.1065	17.7738	9.7008	26.4090	18.2804	27.6420
528.0030	9.7130	4.7140	10.1650	1.7336	16.5134	2.7061	13.8132	6.9024	6.8206	4.1644	-0.6880	3.5294	-3.8749	-2.7711	8.4840	3.4077
536.0030	3.3254	1.2114	-1.1881	-2.4545	11.9693	-1.1809	4.1960	0.1711	4.1166	-1.2961	-4.3807	-2.3960	-10.5039	-6.3659	5.1632	-4.7353
544.0031	0.5134	5.1347	-9.9305	2.1230	9.4038	2.0124	2.1134	2.9943	4.3643	-0.5003	1.6066	0.5195	-16.8121	6.9677	7.8920	1.9206
552.0031	3.9264	5.2123	-26.0035	-0.0988	12.1942	1.6414	11.6129	4.9587	12.1849	1.4158	3.9191	-1.2125	-27.3227	0.1381	7.4419	-3.2953
560.0032	8.4894	12.3639	-33.5645	4.3277	18.5778	5.7237	22.2337	13.0140	23.7256	5.7497	11.7070	5.7242	-31.0227	7.1794	20.6496	7.3336
568.0032	4.1342	8.6542	-45.2415	0.5752	8.3938	2.3769	10.9992	5.5118	21.9600	2.7157	7.5372	1.4818	-37.4348	2.8615	15.9291	0.8593
576.0033	0.5310	1.9055	-59.7729	-5.4540	4.1253	-1.8320	-4.4119	-5.6905	13.6433	-0.3683	-3.7664	-7.0687	-36.4239	-9.0831	-0.1270	-14.1894
584.0033	2.7576	7.3786	-57.9535	0.5548	7.3831	3.2046	-4.4825	-0.8619	17.5927	3.8332	1.2631	-0.9352	-38.4221	2.2982	3.0873	-3.2664
592.0033	-3.9391	1.1227	-60.3040	-3.3140	-5.6780	-0.3650	-9.5093	-5.6307	16.3832	0.9610	-0.3098	-4.4719	-38.7806	-3.5899	-2.6352	-6.7683
600.0034	-6.3029	-1.7445	-60.4380	-2.3335	-3.1812	1.1097	-3.7594	-2.9432	4.2537	2.8006	-6.9762	-5.3269	-24.5403	-5.5951	-7.7600	-7.0146
608.0034	-2.0521	-1.1117	-48.8782	-1.4748	3.1939	2.2305	4.2084	0.5917	-0.1320	4.9152	-6.6156	-4.1131	-19.2382	-7.5634	-7.4675	-6.4136
616.0035	-6.1589	-7.3143	-38.1362	-10.8689	-1.7345	-6.7017	-10.7061	-11.3808	8.2006	-4.4968	-3.9518	-11.4014	-20.8624	-21.5275	-12.8594	-18.3612
624.0035	-0.2052	5.8422	-16.3274	1.8851	11.4413	2.7584	-0.8952	3.1346	22.4657	0.8208	10.8670	1.9761	-23.1894	5.3761	3.1778	5.5457
632.0036	5.6938	8.5309	-8.2220	4.6674	16.6004	5.7841	19.7226	13.0431	22.5342	5.8733	12.2106	6.7482	-23.5505	5.5183	13.6248	12.4864
640.0036	-4.6308	-3.7683	-17.9184	-7.1928	8.2891	-3.9524	9.2059	0.1677	12.5026	-3.0187	-1.7745	-5.5258	-18.7359	-16.9785	4.7270	-5.7058
648.0037	-5.4822	4.7811	-6.7897	6.0666	3.3585	4.4754	6.2950	8.3289	13.9291	-0.0588	5.4401	4.1551	-8.8464	16.7666	9.0083	12.0993
656.0037	-5.7219	2.9265	-3.7934	4.5489	-9.0353	1.6152	5.7610	6.0786	13.8755	-2.0437	9.0840	4.6694	8.2904	16.2537	10.3321	10.1575
664.0037	-15.2499	-7.3591	-15.5253	-8.0402	-6.3244	-8.1146	-4.6862	-6.3602	3.8753	-11.1844	-3.8784	-7.0466	15.7345	-10.1031	5.7401	-6.9649
672.0038	-12.6370	-1.8013	-10.0872	0.9149	3.4320	-0.4250	2.1683	2.6669	-1.9456	-5.7997	-5.4294	-1.8547	19.7064	6.1736	5.8087	2.6577
680.0038	-8.9527	-3.5519	-9.4787	-1.0682	-2.0413	-1.5571	4.1142	1.4494	2.4874	-3.9871	-1.3260	-2.3748	16.9671	0.3464	0.0562	-0.9261
688.0039	-12.2831	-10.1521	-17.0169	-10.5184	-2.2552	-8.2548	-7.9237	-9.5036	3.4952	-8.8660	-5.4073	-10.7906	4.5429	-19.2109	-8.8470	-14.2351
696.0039	-12.0380	-12.7540	-19.6428	-11.2059	-4.1416	-8.6409	-12.9529	-13.1422	-6.9631	-8.8642	-13.2666	-14.2344	9.8578	-20.9009	-18.2831	-21.5033
704.0040	-10.2113	-11.1554	-22.4782	-8.5556	-5.7661	-6.0318	-7.5972	-9.2098	-2.7068	-5.2903	-11.5945	-11.1040	8.5326	-17.3530	-17.0179	-16.5006
712.0040	-3.1921	-3.4468	-14.2541	-1.0744	-0.8631	0.5707	1.7061	0.3355	7.3070	1.8807	-3.4682	-1.7196	0.9851	-5.3830	-8.2098	-1.2186
720.0041	1.1517	-6.0169	-8.0627	-3.7834	-13.0066	-2.4935	-5.8577	-6.5294	-4.8997	1.9848	-6.3256	-2.7853	11.5935	-11.1986	-12.6152	-8.0498
728.0041	-4.0663	-10.3210	-14.8687	-8.4492	-15.7528	-6.4520	-12.0840	-11.9960	-6.5425	-2.0495	-8.1861	-7.1267	17.1775	-19.4643	-16.3973	-14.2788
736.0042	-3.0991	-3.5522	-7.8870	-1.3826	1.4786	-0.3304	1.2998	0.0256	5.8283	0.3811	-0.0801	-1.5648	16.2912	-5.7889	-9.3005	-2.2058
744.0042	-0.8013	0.8209	5.3907	2.9555	-1.2263	1.8602	1.9955	3.1689	5.6286	1.0443	2.8000	3.2590	13.3568	5.8813	-0.0521	5.9276
752.0042	-3.8213	1.8828	6.6379	5.3402	-4.6096	3.0991	3.6609	5.8479	5.6542	1.0974	1.9908	6.2668	17.2482	11.8156	7.2857	13.2455
760.0043	-4.1699	0.0179	7.7323	2.9125	2.7458	1.7863	11.8954	7.7571	3.4214	0.1793	3.4038	3.8886	21.4159	4.4149	6.1680	9.3170
768.0043	-5.5132	-2.5288	8.2163	-2.0000	-6.0816	-3.0273	-0.9161	-1.0508	2.8528	-4.0229	4.4184	0.3667	12.4576	-1.6536	4.2823	2.7331
776.0044	-2.1995	2.6847	9.8137	5.0272	-3.8882	2.5355	4.9051	6.1847	10.5577	0.5945	5.6014	6.9627	20.0699	11.5986	8.7599	13.2041
784.0044	6.0533	5.9037	17.9239	8.0399	10.8406	6.6229	27.9560	17.2695	6.8594	6.6701	8.6661	10.1914	21.8530	10.0432	12.5803	16.2399
792.0045	5.6268	4.1300	16.4536	2.6325	0.6872	1.7492	14.8528	8.3953	8.1779	3.7826	15.1995	8.2498	8.8789	1.7370	12.0003	12.0343
800.0045	4.3609	4.9000	9.6261	2.7883	-4.0547	1.1999	-2.4938	1.8368	17.2796	2.1965	17.7928	8.1860	13.0372	5.7767	4.8357	10.9610
808.0046	5.5995	3.9165	12.1916	2.7280	11.2849	2.7611	5.2580	5.0711	12.2274	3.0980	11.4207	4.5952	7.9960	1.8615	-1.3772	5.9895
816.0046	-3.4955	-2.5243	7.7111	-0.6541	6.0560	0.1975	2.8561	2.0591	5.1977	-0.1594	1.4082	-0.2988	4.4474	-4.3613	-4.2419	2.9403
824.0047	-12.7395	-7.8537	-3.6298	-2.8915	-4.1750	-2.4773	-8.3262	-4.2921	-1.8278	-4.3870	-8.7398	-4.6267	14.9193	-5.2718	-9.3676	-1.5769
832.0047	-3.0675	-1.7424	3.0821	1.7501	5.6858	1.9083	3.6366	2.9558	-3.5454	0.5631	-8.0475	-0.6760	8.2153	1.2966	-3.1501	1.6359
840.0047	6.6393	4.2952	11.7332	6.3724	1.2982	5.5961	12.5138	8.9971	3.4525	6.7227	-0.9014	6.9071	-3.1412	9.0171	6.4956	10.8988
848.0048	-3.5237	-5.7664	-2.4033	-3.2531	-15.3379	-2.9254	-8.2192	-6.4455	-1.8632	-1.3649	-8.3196	-3.4014	-5.3770	-5.1273	-6.1358	-4.6619
856.0048	-5.3963	-9.0002	-9.6958	-6.4626	-4.1908	-4.3269	-6.9589	-8.1417	-7.6154	-3.6503	-13.8601	-10.3572	-6.6671	-12.7782	-16.0920	-15.8944
864.0049	6.7458	5.1527	7.2510	6.4057	12.1365	6.8526	16.5452	11.0864	0.1101	6.6942	1.3382	3.4758	-21.3311	9.2787	1.3711	6.3788
872.0049	3.1464	7.5819	11.9989	5.9692	0.6985	4.7329	4.4884	7.0413	8.4656	3.1516	10.3039	6.5796	-38.3505	15.1908	12.7584	14.3417
880.0050	-7.9403	-5.8996	-3.2783	-6.4358	-12.4739	-5.7460	-9.5906	-8.0135	1.4319	-6.2648	-3.7339	-6.4862	-26.7627	-7.2535	-0.3285	-6.3422
888.0050	-8.9133	-9.4846	-5.5217	-6.9675	-9.0742	-5.1428	2.7532	-4.0825	-11.1992	-4.3207	-10.2331	-8.5747	-15.4061	-13.3052	-4.1071	-9.6290
896.0051	-5.0107	0.1269	2.9673	0.5993	-1.7055	0.7376	5.9411	4.0309	-1.1080	-0.1277	2.6478	1.3331	-23.0364	2.0962	9.1475	8.1352
904.0051	-4.9965	0.9115	0.7650	0.8778	4.4449	1.3065	2.9664	3.4734	0.2051	-0.1395	1.2324	1.2958	-17.9549	1.5396	7.6749	8.1161
912.0051	-8.1974	-3.5894	0.1246	-2.6018	7.0048	-1.2919	-0.2829	-0.5046	-10.3071	-2.9509	-4.8792	-4.0090	-9.7688	-6.2005	-0.0377	-0.3389
920.0052	-4.8239	0.0938	1.0064	-0.6707	1.1461	-0.4433	-6.3624	-1.4464	2.7685	-1.8664	5.2176	-0.1800	-14.1821	0.5307	0.7655	3.9387
928.0052	-1.4393	-4.7134	-12.9694	-3.1452	-9.4219	-1.4952	-5.0166	-4.9935	-6.6284	1.2560	-1.6147	-4.3321	-9.6255	-7.3315	-12.9865	-7.8296
936.0053	1.0275	-11.3212	-18.9687	-10.0623	-13.7863	-6.6104	-10.5160	-14.0777	-19.4710	-0.7330	-11.6714	-12.6140	-3.4432	-22.9565	-26.2874	-26.4680
944.0053	10.0967	-2.7784	-5.2972	-7.1671	-7.0134	-5.1870	-14.9362	-12.8976	8.0767	-0.4667	1.4574	-6.3528	-11.9097	-14.1426	-17.5353	-19.3487
952.0054	12.8493	3.6635	6.6952	0.5429	4.4478	1.1783	2.4748	0.2625	13.0065	3.4798	6.0177	0.4295	-14.0975	0.0327	-6.4075	-5.9144
960.0054	9.6848	4.9495	9.6263	3.9579	6.4898	3.6749	10.9546	6.3498	4.0860	4.5905	1.8899	3.6604	-7.4967	5.7446	3.7106	2.6328
968.0055	5.9246	4.8361	3.6114	3.7094	-3.9500	2.6930	-1.9555	1.5665	10.3568	3.8010	1.7794	6.1816	-4.1601	7.1207	6.9239	8.3064
976.0055	1.2319	1.9672	2.4377	4.2149	-2.2283	3.8136	-0.8195	2.6853	-0.7218	4.3733	-0.9172	4.1742	-2.6215	6.5013	-0.3706	7.9940
984.0056	0.6680	2.3349	7.6044	5.2602	11.7752	5.4617	9.6418	8.1145	-8.7171	4.5489	-3.1260	3.0567	-0.5311	5.8653	0.6558	7.9306
992.0056	-4.2493	0.5945	1.6720	3.5773	8.7629	3.5252	3.8405	5.1004	-4.9443	1.6219	-6.4611	2.1643	7.4126	4.1140	2.8186	8.1495
1000.0056	-5.1558	1.5060	3.4183	6.1575	2.5869	5.2034	0.7961	5.6350	-6.9422	3.1174	-4.4274	4.6470	6.3382	10.4538	2.4449	13.1234
1008.0057	-1.1778	0.3661	10.0325	3.1353	3.5785	3.1566	2.7146	3.7983	-10.8180	3.1601	-3.8550	2.8632	-0.7090	2.4793	1.7196	8.1134
1016.0057	-9.1472	-11.8116	0.7028	-10.6366	-6.3244	-8.2612	-5.0408	-9.3689	-11.7700	-6.6276	-10.7497	-10.0981	-1.3520	-22.5886	-7.3921	-13.1386
1024.0058	-5.0854	-7.6714	2.7214	-7.3604	-8.5338	-6.4448	-3.8995	-7.1272	-0.2941	-6.3682	-4.0983	-8.3650	-11.2014	-11.0262	-6.7685	-12.4566
1032.0058	8.2771	6.4773	15.4629	5.1726	5.6578	3.3759	2.3480	3.7732	4.4853	1.1674	3.9318	2.5448	-12.2323	14.2792	2.2005	1.2393
1040.0059	3.2268	5.5270	19.8981	2.8512	17.5497	1.5514	6.0369	5.0555	0.8020	-3.1491	4.4808	-0.0855	-11.5811	9.7905	7.0325	0.5341
1048.0059	-4.5522	2.2695	20.2176	-2.4818	15.6379	-3.4595	6.7382	3.0464	7.6566	-9.6848	8.3542	-3.3042	-20.7824	2.6994	14.7898	-0.3934
1056.0060	-11.6959	-4.6735	4.0444	-4.6962	-11.1762	-6.2747	-12.9689	-7.8607	-4.2401	-9.9487	-2.0455	-4.6578	0.5223	-0.5761	4.9102	-3.0189
1064.0060	-15.6781	-13.1999	-9.2086	-4.5781	-28.3876	-5.1092	-19.3672	-12.3239	-22.6352	-5.0832	-17.5488	-7.6738	18.3827	-5.2351	-16.3483	-8.2966
1072.0061	-7.5593	-9.0864	3.3944	-2.7240	-10.2183	-2.3406	-6.0142	-5.3275	-13.2755	-2.8446	-14.5509	-7.2706	1.8537	-4.1550	-14.9415	-8.8473
1080.0061	-3.1083	-3.3830	10.7878	-1.5437	3.0344	-1.4696	-5.3815	-3.3554	-6.5218	-3.8027	-8.2350	-5.4743	-7.9293	-0.5655	-7.2622	-6.6309
1088.0061	1.6270	0.2098	10.0188	4.2652	4.8428	4.0160	11.5090	6.8669	-7.6840	2.9154	-6.8261	-0.0458	-6.1335	7.1492	-2.6926	1.3095
1096.0062	3.8439	2.5680	14.4205	4.9841	0.2222	3.5508	13.7115	8.1548	0.7613	2.5892	-1.8410	3.3266	-3.6484	10.4518	5.9684	5.4713
1104.0062	-5.9514	-3.5627	10.8969	-3.2959	-17.9229	-5.1128	-21.0429	-10.7891	1.2117	-6.5568	-1.3475	-1.9745	-3.0178	1.1895	-0.4124	-1.3136
1112.0063	-7.6429	-9.3745	7.1090	-7.8640	-17.3627	-7.5403	-20.4433	-14.0817	-7.3403	-6.9492	-6.6830	-7.6848	-5.2338	-11.3813	-10.9591	-10.5219
1120.0063	-6.9389	-8.9314	6.3321	-10.2693	-7.8759	-9.0882	-9.1287	-10.9420	-11.3677	-8.6626	-3.5658	-9.6286	-8.2235	-17.2800	-4.4322	-14.0617
1128.0064	-13.4850	-11.0172	-3.4915	-12.3714	-11.5672	-11.1060	-16.7726	-14.9119	-16.4728	-11.5108	-5.8265	-11.4102	-5.4784	-19.8167	-3.3342	-14.4917
1136.0064	-10.8566	-12.4107	-8.6302	-11.0551	-1.6388	-8.5436	-8.6846	-11.5848	-18.5685	-8.5988	-18.5854	-13.7689	3.0489	-22.0418	-10.8392	-19.5859
1144.0065	-2.0543	-4.7554	0.0683	-6.2581	6.8343	-5.0279	-8.0745	-8.1826	-8.4253	-6.5245	-13.1519	-9.6306	-4.5744	-10.5026	-6.5155	-16.1278
1152.0065	2.3077	1.6664	9.8760	-0.4212	-3.9371	-1.7145	-11.5941	-5.4445	1.3444	-3.2221	1.5116	-1.1635	-11.2863	5.0194	-0.2277	-3.4786
1160.0065	3.4515	2.9299	14.4567	2.8271	-10.7889	0.3466	-9.2427	-2.5542	2.0649	-0.4943	5.5163	3.1687	-2.5182	11.2460	0.9038	2.9972
1168.0066	9.1590	5.8258	17.3977	6.1975	-13.2312	3.2548	-13.8047	-2.7478	-0.5008	4.2352	3.9658	7.4655	1.5154	15.4075	-0.1328	7.4204
1176.0066	13.8878	3.2977	20.3312	5.7265	-10.8313	4.1954	2.1855	2.2924	0.5362	8.0370	-1.6123	6.6032	3.9053	8.6289	-3.4993	4.0240
1184.0067	4.2562	0.1346	19.2479	2.0066	1.6275	0.8916	16.6941	7.1148	5.2598	0.1126	-0.7006	0.6658	3.5138	4.5944	3.1933	-0.3126
1192.0067	-3.3362	2.5521	16.7845	2.3723	5.3182	-0.1793	-0.3228	2.2707	0.4121	-5.1173	2.5621	1.3868	10.6632	10.3271	8.7727	4.4934
1200.0068	-1.4030	-0.3091	17.4654	0.7920	-1.8236	-1.2548	-9.5432	-3.5094	-7.4906	-3.4617	-1.6304	0.4371	19.1754	4.6544	-0.5239	0.3923
1208.0068	-0.9967	0.4649	20.3911	3.8378	1.9878	1.8790	7.2850	5.4733	-2.2462	-1.1958	1.0136	1.1565	7.9734	10.3400	0.2862	3.4574
1216.0069	2.0133	6.9638	26.6116	11.0545	8.7663	7.8270	21.7781	16.8735	0.7136	3.5667	5.6505	8.7751	6.7795	23.1084	12.6850	17.4303
1224.0069	2.2852	4.6532	28.2196	5.8004	4.6563	2.9820	16.1570	10.6276	-4.5822	0.4950	5.1228	6.7597	12.0749	12.4238	16.1004	12.1681
1232.0070	-1.2986	1.9782	24.2965	1.6717	6.7729	-0.2844	9.0447	5.3761	-7.7328	-3.4141	5.0850	2.1141	9.1013	5.5935	11.7306	5.4061
1240.0070	-1.1436	2.3395	26.4888	5.3701	6.0657	3.3820	6.4345	6.8996	-10.3754	0.3052	2.1825	3.8208	5.5512	11.3244	4.8880	9.6916
1248.0070	0.2073	2.4211	29.6572	5.8793	-4.1349	3.4941	0.3966	4.5037	-7.4443	1.7682	4.0439	5.5512	-4.4415	13.5090	3.7064	12.2872
1256.0071	0.6712	3.4023	26.9423	5.3380	-1.1775	2.8678	-6.6847	1.5743	-4.7976	0.7211	5.4762	5.5219	3.4614	12.8193	1.9407	10.9472
1264.0071	-4.7574	-2.3630	22.4746	0.6097	3.6101	-1.0021	-18.9760	-6.7889	-12.9943	-4.8287	-5.8287	-2.4780	18.9424	4.1756	-10.5882	-1.9095
1272.0072	-0.7293	-1.2222	28.1674	0.4175	8.9337	-0.7887	-12.9960	-4.7300	-10.0084	-4.2979	-5.4766	-2.8464	11.1374	2.9207	-8.9616	-3.7260
1280.0072	14.7895	9.9605	41.4233	8.0577	14.7205	5.9692	4.0829	7.4672	8.3680	5.2219	10.4656	9.4471	-0.8466	13.9745	5.2639	11.8544
1288.0073	15.9350	11.1021	39.0289	7.6264	11.5834	5.1042	0.8522	5.8162	15.2384	4.3434	15.0410	9.9233	-1.8125	15.3626	5.8908	11.1112
1296.0073	18.8954	15.7267	32.5672	9.2305	23.0170	6.7044	2.3203	7.9535	14.6771	5.2786	17.5079	12.1743	6.5497	17.0098	11.5971	12.9677
1304.0074	19.6939	16.8225	23.2506	8.1420	14.8906	5.8538	-4.3850	4.6350	15.2289	7.1660	20.3211	15.5294	6.9458	13.2390	17.3540	17.4440
1312.0074	2.6570	0.4418	-5.5919	-3.5205	-11.8561	-3.6105	-11.6312	-7.3397	5.7501	-0.3442	6.4037	2.3414	5.0503	-6.7410	4.0911	0.1489
1320.0075	3.9759	3.6385	-18.6671	1.6819	5.7814	2.7143	14.5469	7.0459	2.7019	5.4412	2.1206	4.7636	10.2666	-2.9369	10.0202	5.4717
1328.0075	9.1651	13.0409	-27.5313	6.7370	9.3114	6.8683	15.0109	11.6573	13.6922	9.7682	12.0799	13.4892	2.8616	7.0014	25.1246	18.6545
1336.0075	-0.1384	3.5948	-58.3337	-2.6404	-11.2237	-1.1363	-0.4466	-2.0882	11.9114	3.3018	6.8507	3.4303	1.9875	-6.5460	12.8259	1.4330
1344.0076	1.4985	4.2827	-67.6173	-0.0988	3.9847	2.7303	5.6186	1.8370	1.8088	6.4712	0.0989	1.0634	6.5933	-5.6939	3.4394	-3.0737
1352.0076	1.3281	4.6348	-66.8802	-0.7128	6.5292	2.4979	-4.0039	-1.8881	6.7576	5.4061	0.1168	-0.4478	-4.9255	-5.4622	-1.4284	-4.6895
1360.0077	7.9067	8.1728	-67.6426	3.4162	2.6878	6.0502	-1.5719	1.3314	24.0247	9.8640	3.7295	3.3172	-12.4052	3.2885	-4.3240	-1.3105
1368.0077	16.2100	18.3622	-54.8681	15.1744	9.9678	15.5902	3.4274	11.5986	28.5819	17.9928	6.2695	14.1751	-13.9141	25.1971	3.0754	16.0228
1376.0078	-7.1110	-8.7190	-68.2954	-9.9328	-12.7693	-5.5261	-22.7097	-17.1828	5.3293	-1.9196	-18.1547	-12.7619	-10.9493	-19.6246	-21.0127	-23.2193
1384.0078	-13.8089	-20.0757	-72.2277	-19.1453	-13.5220	-12.5995	-17.4839	-22.4797	-6.4391	-8.6129	-28.5243	-25.3291	-3.7040	-38.2066	-34.0415	-43.5099
1392.0079	3.8561	10.9366	-37.6583	11.1813	8.4922	10.4433	10.1340	11.8367	11.1517	8.4478	4.3537	7.0920	-3.6884	22.7799	3.8320	9.9645
1400.0079	-4.5389	2.8812	-37.9439	1.6677	-6.0008	1.9315	7.8036	4.8729	9.4255	1.9830	9.5222	2.3048	-6.2876	5.5031	6.8095	4.6642
1408.0079	-13.1667	-14.2890	-50.8503	-13.8863	-15.2144	-9.0197	2.9875	-8.9412	-5.1671	-4.4357	-9.9280	-13.7155	-9.8035	-29.8787	-10.3064	-20.3325
1416.0080	-7.7180	0.9505	-35.8781	2.8447	-4.1342	3.8277	9.8093	6.7729	-1.2196	4.2208	-1.9665	2.7594	-9.0186	3.7185	8.6007	9.5349
1424.0080	-6.4131	2.6173	-32.7439	3.1401	0.4810	4.1055	12.6692	8.5504	-4.0365	4.8204	3.3869	4.6546	-2.6369	2.6182	11.9307	12.0043
1432.0081	-3.8652	-0.5203	-25.0491	0.0111	8.4614	2.5878	14.8954	6.9769	-6.2898	4.3369	-2.2645	0.3123	-4.1782	-7.0639	4.2455	3.8656
1440.0081	-5.0085	2.6008	-8.5830	2.6246	8.3334	3.1300	12.6243	8.7151	3.8244	1.3657	2.9791	2.7633	-13.3973	3.9965	11.4827	10.4309
1448.0082	-4.3157	-1.8720	-16.4029	-4.1095	-2.2124	-2.6662	0.4018	-2.1677	-3.1289	-1.6251	-0.2942	-2.5045	-12.2939	-8.4277	5.2603	-2.1241
1456.0082	-1.9493	-3.6092	-16.6980	-3.8525	0.1947	-1.7438	1.6989	-2.2999	-6.0358	0.4655	-9.4480	-3.6206	-2.7159	-11.5192	-0.8333	-5.5611
1464.0083	-9.2413	-4.6627	-2.1384	-3.4037	5.2739	-2.4256	10.6240	3.2987	7.2622	-4.7586	-5.9784	-4.1268	-4.7603	-6.4157	5.8297	-0.3444
1472.0083	-7.8144	-4.0929	-2.4528	-3.0324	-2.4880	-2.7544	2.1947	-0.5793	2.3271	-4.3425	-7.0141	-3.2936	-5.1084	-4.1050	5.2110	-0.6378
1480.0084	-4.0193	-2.0051	0.5385	1.7513	-8.2508	1.0222	-1.1543	0.4255	0.9770	0.0059	-10.1030	0.0818	-4.7818	5.2483	1.1337	3.4267
1488.0084	-11.4619	-6.7646	4.2947	-3.9052	-6.0848	-3.9583	-2.6313	-2.6710	9.8757	-7.1812	-4.0690	-5.8833	-10.2583	-2.2611	-3.0194	-2.8754
1496.0084	-8.4463	-10.2773	-8.2949	-8.9906	-11.7889	-7.5077	-14.4813	-12.3667	-2.8502	-6.6016	-7.7519	-9.5672	2.7495	-15.7427	-13.7557	-14.4772
1504.0085	-1.0705	-7.5614	-4.7262	-4.5886	-15.4063	-3.5976	-9.1153	-8.3984	-3.3957	-0.3820	-7.3558	-5.0583	5.9667	-9.9107	-15.5775	-10.6084
1512.0085	-0.7698	-0.4473	14.7438	0.9736	1.5811	0.6220	8.3951	4.9773	14.5827	-0.6715	8.9814	0.6829	-7.1645	3.3517	-2.0927	3.3943
1520.0086	3.1944	3.7855	16.1413	3.9335	11.1679	3.6268	17.5560	11.0420	11.3550	2.8911	11.5246	5.1189	-0.6694	5.1036	5.8380	9.7991
1528.0086	1.0546	-0.9425	6.4792	0.0393	-1.3691	0.1686	5.0702	2.2311	3.8841	1.6728	3.5044	2.0789	8.9280	-2.7716	-0.4734	3.0576
1536.0087	-6.6222	-6.4330	1.1748	-5.0573	-4.1430	-4.4943	-11.5800	-7.5794	0.7515	-4.7626	0.0358	-4.9459	13.5986	-9.1054	-11.9024	-6.7918
1544.0087	-1.8209	-4.8880	6.2727	-3.1560	0.0063	-2.1970	0.6389	-1.7657	-1.5633	-1.0357	2.8165	-3.0327	11.1741	-8.6790	-10.8899	-5.1106
1552.0088	4.4530	-0.8510	11.7323	-1.1888	-5.6455	-0.8924	2.9250	0.1820	4.3295	2.3327	10.0826	2.2364	1.8655	-5.0172	-3.3151	1.1990
1560.0088	-2.8939	-5.7804	0.1873	-6.0975	-4.9353	-4.8212	-13.4939	-9.5005	-4.0152	-3.1912	3.2849	-5.3374	4.5042	-12.2934	-14.4101	-9.6036
1568.0088	-8.9975	-9.8797	-6.4885	-7.0313	-4.0640	-5.3191	-12.8362	-10.1051	-14.9117	-5.1663	-5.3380	-9.9425	9.6045	-13.7784	-20.5038	-14.7136
1576.0089	-3.8362	-5.6145	1.9322	-3.0035	-4.7089	-2.5925	-7.4849	-5.5565	-12.1799	-2.0141	-3.0673	-4.2959	13.8289	-6.5008	-12.4209	-7.1981
1584.0089	-1.9151	-5.6560	8.7418	-5.3178	9.0665	-3.6876	2.5448	-2.4615	-8.2402	-3.5567	-0.0102	-6.7354	9.2451	-13.1269	-11.3008	-11.2061
1592.0090	-5.3811	-3.1110	14.1662	-3.9427	11.4525	-3.0808	1.9482	-0.0611	3.3858	-5.5812	7.3816	-4.5354	-4.4310	-6.8813	-4.0058	-3.4117
1600.0090	-2.2483	-0.7183	13.7071	-0.0614	2.5959	-0.1815	-10.0632	-2.8432	2.2975	-1.3710	4.2650	-0.0031	-2.1207	0.4258	-6.4951	2.5521
1608.0091	1.4290	-2.7978	11.8375	-0.8945	5.7538	0.3787	3.5841	1.0800	-2.6690	1.6039	2.9581	-1.8377	0.9291	-5.8585	-11.8453	-2.9138
1616.0091	-6.9099	-3.8547	7.2222	-1.3398	-4.7823	-1.4221	4.6230	2.1037	4.7846	-2.0523	6.6990	-0.2809	2.1824	-1.9878	-1.2473	3.8568
1624.0092	-16.3702	-17.0703	-8.5346	-11.2069	-17.4623	-9.3317	-12.7178	-13.3952	-13.2515	-8.7165	-18.4052	-13.4091	11.7045	-21.0445	-17.6720	-17.0040
1632.0092	-9.0653	-15.0939	-4.4683	-11.9354	-2.7253	-8.9233	-5.0605	-11.3624	-13.0322	-8.3141	-18.5017	-16.4099	3.0540	-24.1471	-20.8798	-25.4221
1640.0093	2.2342	6.0937	12.6760	4.2315	9.5627	2.9341	3.6648	5.6352	11.9130	-0.1943	7.7419	4.0136	-12.1958	11.2989	8.5214	8.3739
1648.0093	1.6240	0.4637	10.4755	0.4663	8.1219	0.6338	3.6470	1.7071	-2.3906	-0.7530	-6.5534	-1.6892	-10.7663	0.8698	1.7970	-1.6211
1656.0093	-1.1726	-5.3443	6.7025	-6.0552	5.5419	-4.7194	4.5550	-3.0726	-4.2990	-5.7104	-10.4338	-9.1525	-13.3854	-10.5153	-3.0120	-14.5000
1664.0094	0.0506	4.7051	8.7910	3.4059	4.2246	2.0492	6.8632	5.9201	8.0307	-1.1826	5.8751	2.4658	-20.1390	11.4825	10.9383	6.8228
1672.0094	2.5786	3.2422	12.5955	2.7383	3.3679	1.8962	8.8332	5.3314	-2.0466	0.0817	4.2333	0.7187	-22.2026	8.5734	5.6912	2.2609
1680.0095	-1.5798	-0.3285	9.4463	-2.7745	-7.8281	-3.6988	-2.3898	-2.9148	4.4335	-5.7501	8.9524	-3.6722	-30.4700	3.4012	2.6263	-4.8756
1688.0095	-10.0755	-5.1396	-4.5380	-4.2849	-12.8749	-4.3233	-3.6214	-3.8760	-0.2560	-6.1902	6.0978	-5.8796	-23.2393	-0.8717	-3.2303	-4.8599
1696.0096	-5.2253	-5.2490	1.6035	-5.6796	3.6382	-4.1442	6.8923	-1.0182	-15.4262	-4.6008	-0.2385	-7.4881	-12.9008	-10.7474	-1.9914	-9.6678
1704.0096	5.4660	6.6464	15.8512	-2.2939	22.6245	-1.5315	10.2670	4.0684	-0.9797	-3.6535	12.2157	-0.8498	-35.1699	-2.9580	17.3306	-0.6674
1712.0097	9.8503	13.1508	13.4520	1.9810	25.5866	2.0826	12.1628	8.6869	14.2508	0.0366	23.3034	5.7954	-39.2985	5.3488	23.6124	9.2864
1720.0097	9.7532	10.7094	6.5266	1.1617	4.3781	0.0463	-1.4860	1.2834	13.8416	0.8900	23.0897	8.0466	-15.2661	4.6462	18.6860	9.0488
1728.0098	5.8374	1.0476	-2.2665	-3.8077	-5.9748	-3.2003	-0.7517	-3.7506	-4.2703	0.6205	6.2846	0.8208	-5.7068	-8.8072	6.5059	-3.2168
1736.0098	6.7151	-0.2232	2.3584	-3.1435	7.0435	-1.2930	17.3639	4.0591	-7.3106	2.3257	1.9804	-0.8454	-4.0276	-12.2202	5.4557	-4.7709
1744.0098	7.7319	9.8090	9.7852	4.1820	1.9053	2.1343	-1.6345	2.8804	11.7789	1.5189	15.7180	8.3710	-8.7647	11.5096	15.5467	11.0387
1752.0099	5.6703	8.5235	1.5332	6.3544	-5.6727	3.8764	-12.4676	-0.8041	0.9591	3.2109	10.1916	7.5735	-3.7136	16.7914	4.8657	9.5064
1760.0099	4.6111	2.7782	3.1971	2.6861	-8.1834	1.7373	-3.7555	-0.3872	-6.5990	3.9076	6.6774	4.7124	3.9223	4.6577	0.0947	4.6810
1768.0100	-2.8277	-1.1326	4.3252	-1.2765	-16.0318	-2.2967	-15.1171	-6.8889	-1.5214	-1.5564	3.0666	1.3704	-7.1286	1.1145	1.1494	3.4437
1776.0100	-4.3765	-3.2073	-0.7571	-0.9602	-2.1982	-0.6114	-6.8008	-3.6059	-11.5799	-1.4790	-9.1243	-3.7044	-6.9484	-0.9867	-5.2680	-3.3991
1784.0101	-0.3041	-0.2839	2.8519	0.0575	2.1816	0.1758	1.8222	0.7876	0.0120	-0.4372	-4.0687	-0.8155	-5.7035	0.1962	1.5072	-0.1828
1792.0101	-0.7219	-0.2860	2.1442	-0.5534	-4.9369	-1.3817	-9.3808	-4.3335	7.1227	-2.5356	-3.6042	-0.8390	-2.2062	2.6108	-0.2731	-1.4034
1800.0102	0.9436	-0.8248	5.3080	-0.2058	4.6241	-0.7435	-3.9931	-2.7446	-11.0736	-2.5243	-6.0970	-3.8782	8.8398	1.5333	-6.4329	-8.4234
1808.0102	-6.8574	-7.3228	3.8729	-6.7597	-10.2673	-6.7476	-8.2663	-8.7916	-15.3049	-7.4743	-4.6622	-8.2241	-2.4980	-8.5093	-5.1859	-12.3656
1816.0102	-9.5526	-11.1753	-5.8891	-8.2790	-21.2392	-7.3633	-13.8292	-12.3951	-11.3128	-6.1392	-11.9245	-9.5082	-9.4262	-12.5319	-10.4790	-13.0449
1824.0103	1.8402	-2.5438	2.5439	0.1775	-1.8504	1.1551	2.8167	0.1693	-10.0005	2.6853	-8.4805	-2.4442	-11.5529	-2.0782	-7.1411	-3.9640
1832.0103	-1.9993	-3.6997	8.8267	-2.0271	-1.0354	-1.0309	5.8184	0.8068	-7.9529	-0.5362	-5.5599	-3.2421	-18.5343	-5.0426	-0.4598	-2.1516
1840.0104	-6.4323	-2.4355	8.0482	-2.2239	-1.8971	-2.4041	-2.3736	-1.5578	0.5183	-4.4556	-4.3439	-2.1217	-14.5635	-1.3834	6.5534	1.9143
1848.0104	-2.7600	3.6556	11.4782	1.4204	1.6487	-0.2088	-10.4031	-1.8503	4.6820	-3.8109	2.9248	2.0110	-14.2783	8.5247	9.7029	6.9989
1856.0105	-3.4466	-4.8014	6.0667	-6.2159	-9.8106	-5.9639	-15.4930	-10.6659	-2.9973	-5.6633	-2.0205	-5.2579	-10.8355	-8.4273	-4.0788	-7.9101
1864.0105	0.8502	-4.4009	5.3029	-5.2124	-10.3143	-4.1851	-5.6102	-6.5224	2.0064	-1.7337	-2.3578	-3.8722	-18.5220	-9.5493	-3.9721	-6.8316
1872.0106	0.5063	0.3764	6.5693	-0.0241	-4.1932	0.1701	-6.2701	-2.4216	1.4409	0.0540	-2.4653	-0.7077	-31.4361	2.2976	0.7395	1.2995
1880.0106	-2.0605	-3.3974	4.5790	-3.6483	-8.5744	-3.0894	-16.6751	-9.5135	-7.2472	-2.6433	-5.9924	-4.4634	-23.5221	-4.3778	-6.0777	-5.6241
1888.0107	0.8278	-1.2398	10.3506	-0.4886	-16.9575	-0.9496	-6.3238	-3.3771	1.1304	0.9516	2.4817	1.1441	-25.3828	1.6999	0.1000	2.9926
1896.0107	-4.9591	-4.9720	6.5955	-1.0947	-17.2370	-1.2778	-1.1357	-1.6965	-2.6726	-0.6398	-4.9062	-1.8443	-22.1409	0.6155	-1.6220	1.1918
1904.0107	-6.9447	-7.3265	2.0509	-5.9609	-5.0070	-5.0171	-15.3008	-10.5074	-11.2353	-5.9374	-12.6470	-8.6267	-10.3353	-9.0983	-9.6259	-11.1026
1912.0108	1.1044	2.6265	6.4560	3.5617	-0.1976	2.3277	-9.1983	-1.3239	-4.7556	1.0716	-2.1729	2.4427	1.9526	8.4132	-1.0666	4.0909
1920.0108	-0.7992	-1.5489	-0.1076	4.8751	-3.9952	3.5538	6.6122	4.8341	-8.6440	4.0568	-10.1164	3.8144	41.7082	5.3722	-2.8409	5.0052
1928.0109	-5.9444	-8.0820	3.7616	-2.0087	2.1791	-2.3568	2.4935	-1.2275	-10.0773	-2.7189	-17.9514	-2.8836	63.8803	-9.3103	-7.4823	-5.5146
1936.0109	4.2016	6.9573	25.7863	9.3897	14.2531	5.8304	8.0743	10.4181	9.4567	2.1773	2.1116	10.4161	51.7479	16.4795	9.0878	15.5742
1944.0110	14.9227	15.3746	27.8129	14.5112	17.7861	10.3831	18.7582	18.0176	19.5244	8.1694	15.6792	17.3195	36.7754	25.9559	16.8485	22.8994
1952.0110	11.3505	7.9164	15.4459	7.4121	13.6191	5.7266	11.0322	9.0453	3.5725	5.4830	5.6651	7.8868	26.0064	10.9358	4.2151	7.3363
1960.0111	5.2665	4.2803	13.1452	8.8577	10.6911	7.2034	13.9914	11.0653	-4.2116	5.6285	-3.6898	5.6607	25.1474	13.9358	-0.6079	7.7133
1968.0111	0.4097	0.2021	9.2404	6.2204	1.8926	4.8364	19.7646	11.4856	-1.1973	3.6932	-5.4891	3.6359	20.7632	9.8954	1.9559	6.6996
1976.0112	-0.3015	0.0394	2.5263	5.5016	-5.2923	3.9190	6.4939	5.2791	-11.6360	3.9810	-6.4998	4.0816	25.8581	8.7338	-0.1398	6.2113
1984.0112	1.5684	3.1418	0.9750	8.0464	3.6178	6.4338	-0.3477	4.8686	-14.6347	6.1310	-5.9380	6.6785	39.0349	11.0952	-2.8421	9.4939
1992.0112	0.8943	0.2917	2.0400	5.1770	8.6601	4.4986	7.3613	6.0105	-12.3471	4.5849	-9.3646	4.1005	47.1128	3.0129	-2.7387	5.1890
2000.0113	7.3753	6.5483	11.1463	12.7192	4.0078	9.3020	11.8860	12.1831	-9.2013	9.5125	-5.4056	13.2525	66.2100	18.0020	5.3198	16.7896
2008.0113	4.3053	6.1845	17.8295	10.5696	1.4606	6.3207	-0.9797	6.6017	2.3662	4.6473	1.9972	12.4103	66.4182	18.5560	3.3352	16.3748
2016.0114	-7.5236	-5.8927	17.1104	-1.6962	-0.5042	-3.7594	-17.8650	-8.1554	-3.9851	-7.1213	-7.5209	-2.6629	56.1488	-1.4442	-11.9783	-4.3004
2024.0114	-9.0248	-7.4173	17.0874	-1.0179	-8.4558	-3.9216	-18.1123	-8.5456	-5.7074	-7.4550	-11.6409	-2.7339	61.5611	1.5508	-12.3658	-4.4414
2032.0115	-16.8336	-15.9585	5.0581	-7.5084	-19.9696	-9.0784	-11.2522	-10.6287	-3.5350	-11.3388	-14.8024	-9.1546	61.1712	-10.4844	-16.1227	-12.9552
2040.0115	-13.0432	-17.0109	1.2870	-6.7921	-8.8560	-6.5112	0.2605	-6.6164	-21.6064	-7.3344	-24.2418	-12.2907	58.7680	-15.0617	-22.7415	-19.4956
2048.0116	0.6256	-2.5883	18.4247	3.3341	6.7487	1.6738	5.4722	3.2565	-10.7378	-0.1866	-11.3833	-0.0903	49.4171	3.7727	-8.2351	-2.4872
2056.0116	-6.0706	-5.1011	18.5553	-2.2050	-5.9491	-5.1740	-6.4619	-4.3454	4.9199	-8.1934	-0.7588	-0.9792	59.3167	-0.3375	-2.9491	-3.2682
2064.0116	-3.0185	-3.9896	11.5673	-0.1746	-5.3391	-3.5833	-5.8620	-3.9139	-8.2898	-5.4789	-2.6213	0.4259	84.2910	1.1241	-6.2710	-5.2395
2072.0117	4.2803	2.2616	18.5961	3.0520	5.8218	0.5988	-0.9411	1.1719	-4.8144	-0.4399	4.5510	4.3016	53.0119	4.7105	-1.6098	1.6264
2080.0117	0.1992	-0.9707	22.2737	-1.1967	-4.5511	-2.5642	-11.0722	-4.9273	0.5088	-2.7304	6.6917	1.4933	14.6998	-0.8256	-2.6397	1.6123
2088.0118	5.3332	1.5330	22.8874	1.1852	2.9491	0.2404	-3.0676	-0.5904	-4.7836	0.8491	5.6829	2.7656	13.8065	0.7315	-2.4716	1.7488
2096.0118	6.7213	2.2188	26.0586	-0.5334	16.2319	-0.3528	12.3170	5.0864	0.1487	-0.5276	10.9730	0.6043	4.0015	-3.7808	1.6550	-1.3056
2104.0119	8.9036	5.3660	27.2516	1.8286	0.1592	0.2401	-2.9737	0.1681	3.6880	0.9772	17.2190	5.3346	-3.4634	5.1310	3.2492	4.8973
2112.0119	12.6779	4.0970	21.9438	-0.3274	-5.7527	-1.0778	-14.9080	-7.1643	-1.2146	2.4550	13.8454	3.6855	-5.3738	-0.5237	-5.1885	-1.3792
2120.0120	8.8427	-2.8271	22.5024	-4.9975	6.0466	-2.9140	7.2312	-1.4350	-4.6152	0.2058	6.2296	-5.3685	-21.5770	-12.9307	-11.0008	-12.6110
2128.0120	13.9593	10.2580	37.2912	10.3517	6.2224	8.4938	20.2548	15.2414	7.3077	8.4464	17.4190	10.1134	-33.3272	20.3196	8.1124	15.6508
2136.0121	10.7987	10.7825	35.3096	8.8996	-1.8074	6.2759	1.3826	7.4709	10.3637	6.1846	18.8566	12.1642	-30.4287	19.8390	11.8530	20.0701
2144.0121	4.7768	-0.5283	21.6606	-1.5194	-0.7684	-0.9090	-7.7362	-4.2276	-3.1904	0.6127	2.1661	-1.0287	-23.7495	-3.5310	-5.8280	-1.8426
2152.0121	17.8881	14.4574	29.3868	11.6415	19.2381	10.2460	9.5016	12.1652	9.2357	9.5536	10.6651	11.1181	-26.9434	20.6384	8.3858	15.2903
2160.0122	22.8222	24.6621	32.3308	14.9606	31.1774	12.4029	18.9352	19.9216	24.9114	9.9775	25.3559	18.8815	-37.8412	28.8325	32.2137	27.9609
2168.0122	15.4469	15.9989	8.0339	5.3915	16.2950	4.5442	7.5519	7.7367	14.8981	4.3478	18.9598	9.7401	-36.7382	11.9816	24.6422	12.0808
2176.0123	9.9662	8.5788	-18.9796	-0.1928	13.9454	0.9968	3.5057	1.1817	6.5513	1.6702	8.3345	0.5178	-24.0949	0.1077	8.9900	-4.5417
2184.0123	4.8511	7.2398	-37.5441	-1.5146	21.0240	0.8333	9.2791	3.1513	4.0340	0.4891	3.7378	-2.2400	-19.8938	-3.8420	10.6639	-6.9749
2192.0124	0.9787	7.2514	-60.1585	1.3963	0.8447	3.1341	2.5638	2.0076	1.6059	5.0929	2.7774	2.4527	-17.9245	2.0758	12.0550	1.7167
2200.0124	3.7843	5.1461	-79.8638	0.4679	-11.1057	3.6783	-3.2575	-2.0912	0.4302	10.7000	0.7654	3.2360	-13.6443	-4.4266	2.2331	-0.5477
2208.0125	13.1884	10.6731	-77.6823	2.9284	7.6585	7.4594	1.1680	1.6329	4.1985	15.0828	1.6387	4.7516	-24.6396	-4.1527	1.0853	-0.8073
2216.0125	13.7694	14.8101	-63.3004	8.7109	18.2419	12.1355	12.8327	11.2914	12.6752	16.3740	3.3211	8.2402	-33.6432	8.3058	7.2557	8.4386
2224.0126	12.7049	14.3080	-52.8993	10.5973	13.6799	13.1227	29.0830	19.0705	13.6675	17.5687	6.1428	11.5073	-29.8379	11.3150	15.9755	15.6257
2232.0126	13.0851	15.5276	-48.9919	7.7059	8.2005	9.8358	12.9824	11.0067	10.3141	15.0645	10.7949	12.4275	-35.5569	7.7683	20.9481	16.4088
2240.0126	1.5799	7.5795	-47.2459	0.0092	1.8705	2.7651	-14.2449	-4.1648	8.0414	5.5667	4.4222	3.2815	-43.5333	-1.7576	8.6606	6.3039
2248.0127	-1.6109	3.9572	-40.1403	1.8675	1.0621	4.4441	0.3622	2.5830	6.4699	6.2871	-0.9209	1.9705	-38.8860	1.0138	5.0344	6.8142
2256.0127	0.2901	5.1334	-34.0695	3.1851	1.3292	4.9773	13.1235	8.1410	4.1655	7.0362	0.3212	4.4188	-30.3319	2.7725	13.8836	9.8678
2264.0128	-2.2009	2.4148	-28.0744	-1.4852	-1.4463	0.3315	3.7471	1.4973	6.4440	2.0016	1.1049	1.3111	-30.1703	-3.9697	13.3770	5.0704
2272.0128	3.9029	5.6255	-16.0497	1.3812	4.7772	3.0423	6.8952	4.9261	15.0894	4.9992	5.6256	4.3581	-33.4651	-0.0242	11.6919	8.5686
2280.0129	0.3625	1.9205	-11.9734	-2.1693	1.8680	-0.2760	7.9216	2.8047	7.4633	1.7629	4.5233	1.2923	-31.3007	-6.4794	12.4253	4.6438
2288.0129	-7.9991	-3.3232	-20.1664	-5.3473	-19.3928	-4.6515	-0.5219	-3.5555	-0.7456	-2.7113	4.3478	-1.4421	-24.2422	-7.0401	11.3204	1.2593
2296.0130	-4.8938	-3.9307	-24.8485	-4.0019	-13.1773	-2.7843	2.3691	-2.0311	7.3280	-0.7997	1.3416	-2.8841	-9.7213	-6.5660	-0.6313	-4.0453
2304.0130	-1.5661	-4.7041	-11.2860	-5.5958	11.3606	-2.5146	12.8261	1.7592	8.5060	-1.6009	-4.2691	-6.7440	-7.1674	-15.1365	-4.7638	-10.1494
2312.0130	-1.5122	2.4712	-0.0866	0.7258	5.3175	1.1288	10.6961	6.3086	9.7171	0.4188	7.1845	2.5166	-17.0334	1.1683	10.9198	7.7796
2320.0131	-9.5542	-2.8664	-11.1395	-2.8106	-0.3580	-1.8825	0.2615	-0.1913	2.4929	-3.1788	0.7435	-2.2240	-9.3505	-4.5261	3.8621	2.2748
2328.0131	-12.8010	-8.0759	-14.0714	-7.4801	6.1893	-5.0736	-3.4665	-5.1593	-7.9089	-6.6039	-10.5124	-8.9851	0.0007	-15.8389	-3.6891	-8.5031
2336.0132	-10.4844	-1.8025	-13.0612	-2.1599	-3.2218	-2.0893	-11.9912	-4.5062	1.0388	-3.7416	-0.0910	-0.3653	3.4266	-2.3707	3.9242	4.6784
2344.0132	-14.0799	-11.3454	-21.6639	-11.0699	3.7922	-7.6325	-9.5362	-10.1983	-5.0083	-7.9206	-13.6920	-12.0083	4.8667	-23.9374	-9.7515	-14.3698
2352.0133	-4.1350	-6.5506	-11.9200	-7.6513	17.8554	-3.8668	14.7605	1.0831	-1.8251	-3.8431	-15.4558	-9.9756	-8.1188	-20.4459	-0.2724	-13.5132
2360.0133	-0.2058	6.4917	-4.1216	4.8553	2.7929	3.4058	17.7309	11.7428	22.1786	1.2995	7.7354	7.3745	-6.6304	11.7271	21.6920	14.7790
2368.0134	-9.4675	-1.1843	-7.8651	-1.3064	2.6694	-1.6439	6.6770	3.5243	10.9916	-4.8677	3.3379	-0.7062	4.5711	0.4544	9.0277	3.9993
2376.0134	-4.9720	-0.5522	-3.5812	-2.6221	13.6576	-1.8492	5.3775	1.6528	0.0077	-4.7450	0.0481	-3.8426	-1.7375	-4.2689	4.6000	-3.2715
2384.0135	-5.5084	-2.5327	-7.4677	-4.5654	-0.0397	-4.3340	-4.0712	-4.1436	8.0188	-6.1783	-0.3871	-4.4212	-0.8795	-5.1004	1.8978	-5.7664
2392.0135	-5.1402	-5.5633	-5.6718	-4.9756	-2.0676	-4.2241	-7.9971	-6.6901	6.3507	-5.4409	-7.2153	-7.0219	0.5773	-7.0090	-8.7838	-10.5443
2400.0135	-1.2571	-0.5451	3.2271	2.5801	1.2003	2.0630	-0.5196	1.4701	6.1367	-0.1764	-4.8630	-1.3571	-3.6409	7.3354	-6.9398	-0.6836
2408.0136	-8.2941	-7.2161	4.3049	-1.0734	-12.4519	-2.0001	-4.5357	-3.2474	3.4597	-4.6201	-10.8634	-5.7227	0.7320	3.4884	-10.8344	-5.8035
2416.0136	-0.2066	-0.0468	16.1072	3.8134	-8.5275	1.4563	-15.1110	-4.1893	6.9462	-1.7975	-7.0442	-0.4965	-5.3921	14.5176	-9.2139	-0.0456
2424.0137	1.3206	1.0616	10.8939	5.0697	-4.1720	3.3939	-14.2477	-2.8083	4.1761	1.0827	-6.1594	0.6970	-2.2844	13.8732	-12.0705	1.2927
2432.0137	-10.4165	-18.3371	-8.3219	-10.8450	-16.1680	-8.0274	-2.3301	-10.3539	-10.0768	-5.4245	-21.6789	-15.1242	10.4275	-23.2395	-25.8513	-23.2960
2440.0138	0.2456	-7.7186	1.5973	-5.8250	-3.7552	-3.8507	0.0640	-5.0790	5.0217	-1.8115	-10.3610	-7.6666	-6.0769	-13.1746	-13.6681	-13.6018
2448.0138	5.9337	5.5720	7.1141	3.7045	14.7388	3.3109	-4.3274	1.3683	12.2492	0.8818	1.1495	1.4012	-5.4129	8.2554	-2.9874	0.8068
2456.0139	1.2514	-0.1294	-0.1301	0.3401	6.3720	0.2970	2.0206	0.8516	2.0408	-0.4451	0.1694	-1.1244	16.1734	-0.0504	-5.6701	-3.9463
2464.0139	0.3710	0.4563	2.8781	0.8308	-1.8214	0.4852	4.3067	2.7248	9.9597	0.7964	7.3448	2.2974	4.9568	1.5058	0.0962	3.5918
2472.0140	-5.1282	-3.0016	0.3769	-2.1166	1.0359	-1.4722	2.1962	0.3670	3.5873	-2.3029	2.2136	-2.3900	-3.2914	-3.8126	-2.3987	-0.7245
2480.0140	-0.1322	-4.1406	-1.6339	-3.6167	1.2106	-2.1735	7.5372	0.0489	-0.4560	-0.9694	-1.7109	-4.6724	-2.4656	-8.8225	-6.0439	-8.3565
2488.0140	2.4632	-2.1254	2.9813	-1.4198	-1.2581	-0.8077	8.0112	1.4893	10.4920	-0.4306	-1.5443	-3.2947	-12.8138	-1.7854	-4.7820	-6.4333
2496.0141	0.1578	1.2985	11.6298	3.0378	2.9780	1.8335	10.8979	6.3763	8.1149	-1.3189	0.4761	-0.4157	-11.5942	10.2110	2.2553	1.0519
2504.0141	6.7947	12.3656	20.4053	11.8264	11.2231	8.7327	17.2342	16.0523	14.5851	4.3543	12.1480	10.5981	-17.9657	27.2458	17.8058	19.1612
2512.0142	-2.3833	4.4056	10.0719	5.1867	5.9432	3.7851	5.2384	6.9869	11.5745	-0.8295	0.4624	2.5409	-25.3373	15.2035	9.5058	9.9240
2520.0142	-7.7524	-7.0267	0.0589	-2.9276	-1.7453	-2.0261	2.7722	-1.4216	-10.8286	-4.1783	-14.0254	-8.7447	-17.5590	-3.0954	-7.3067	-9.4517
2528.0143	3.4942	-1.6998	2.7039	1.5507	-2.2974	2.8635	21.5291	8.3012	-9.7377	5.1801	-5.7217	-1.3661	-27.8866	-0.2208	-0.0545	-1.2770
2536.0143	-0.9182	-3.6207	-3.5064	-2.4934	-12.1747	-0.8946	11.5329	2.2721	-3.6925	2.4325	-3.8537	-1.5058	-35.0021	-6.5143	5.2141	0.4713
2544.0144	-1.2658	-2.4131	-6.9322	-2.6968	-10.6088	-1.9995	-7.5840	-5.6213	-9.6273	-0.1881	-3.3050	-2.5901	-17.3527	-4.2093	-2.0704	-3.9661
2552.0144	7.4839	3.7460	-2.0247	3.5306	3.8695	3.9615	0.1424	1.5673	-6.7674	5.3690	0.1827	1.4548	-11.2876	4.8606	-5.5487	-0.7885
2560.0144	2.8979	1.7901	-0.1875	0.9490	-2.7681	1.3353	-0.1624	0.4302	-3.9927	2.9331	3.3700	1.6323	-17.0171	1.0862	1.0200	2.4238
2568.0145	0.1921	0.3995	-1.2513	-0.6287	-8.3311	-0.6093	-3.3316	-1.8618	-8.8344	1.4528	5.9924	1.8886	-7.5457	-1.4963	2.7679	2.9113
2576.0145	-2.1190	-6.3793	-8.8573	-6.6511	-4.2656	-4.5597	-3.3937	-6.5055	-8.2883	-1.6633	-3.5847	-5.9553	2.0590	-15.8974	-8.7822	-10.9154
2584.0146	-6.5958	-9.5261	-9.8041	-9.4724	-14.8190	-7.8619	-16.1331	-13.6178	-6.2337	-5.4298	-6.6679	-8.2638	1.0309	-17.6943	-10.9449	-13.5140
2592.0146	-0.1924	-3.2675	0.6384	0.2095	-19.9853	-0.8282	-11.7118	-6.2928	-12.9543	1.5513	-2.1143	0.2816	10.6949	1.6237	-9.5473	-2.0678
2600.0147	3.9141	-3.2453	6.3791	-0.7820	-6.9243	-0.7824	-2.5894	-3.3982	-11.9007	1.6307	-1.1948	-2.0619	14.0306	-3.1670	-13.6441	-8.0098
2608.0147	-0.8263	-1.2937	10.2631	-3.4447	9.7047	-3.3723	-3.7892	-3.2930	0.4215	-5.3086	4.3387	-3.9649	9.9375	-5.2238	-4.4725	-7.3609
2616.0148	-10.5060	-4.3265	6.1884	-3.2017	7.5733	-4.2041	-0.9680	-1.5724	-3.5377	-9.3770	-2.5846	-5.5181	25.3072	-1.9424	-0.1657	-5.5001
2624.0148	-18.8435	-17.1574	-8.3767	-12.2723	-15.8882	-11.7313	-14.1009	-15.0224	-21.3108	-13.3243	-17.8518	-14.9793	33.2262	-19.8758	-14.3454	-21.1169
2632.0149	-8.6706	-13.0809	-4.8190	-7.6329	-18.4894	-7.0458	-15.6205	-13.4671	-19.7658	-5.2491	-16.8166	-9.5195	28.6081	-14.8883	-18.9684	-16.3899
2640.0149	4.6251	-0.2528	15.6114	4.0334	-8.0326	2.3496	-0.6830	1.1061	0.6628	3.6289	-5.8425	4.3506	23.8427	6.0053	-3.9609	4.1887
2648.0149	-0.6013	-0.6845	18.9662	1.4804	-16.3951	-1.2270	-13.5981	-4.8913	2.7467	-1.0970	-1.3748	4.8029	19.8833	5.6561	2.8657	7.4207
2656.0150	-4.9720	-3.6526	7.3198	0.7007	-11.2194	-1.3424	-15.3245	-6.2329	-3.1018	-2.7749	-7.6908	0.0793	31.5344	4.0472	-7.2299	0.2305
2664.0150	5.2510	4.7170	11.9575	7.2106	8.2668	4.5881	6.4511	7.1628	16.1740	1.8438	-2.5740	5.9364	37.7193	14.1852	1.5892	6.3632
2672.0151	16.3778	13.7646	23.2256	12.5688	11.1678	8.5497	11.0895	12.7785	23.5504	7.7297	10.1447	16.2194	41.5929	22.3091	14.0023	18.7363
2680.0151	13.9512	6.9522	13.2888	7.3609	6.5141	5.2675	4.8035	5.7158	6.6430	7.2963	5.0102	10.0165	50.9428	8.6410	-0.9717	6.8894
2688.0152	3.9823	-2.8067	-2.7942	-4.8821	-0.5304	-4.6652	-9.1370	-8.1143	0.3458	-1.9357	-0.7121	-1.5412	45.3043	-13.0109	-7.7233	-10.2740
2696.0152	3.3241	-3.6845	-7.9752	-6.4333	-7.9340	-6.1846	-21.8859	-14.6731	-6.0764	-2.2273	-3.7495	-1.9036	45.4327	-15.6254	-9.3337	-11.6354
2704.0153	6.7969	-2.6166	-1.3996	-2.4929	-2.2871	-2.0650	-12.9959	-8.8561	-8.5957	1.8991	-8.4189	-0.7637	41.3772	-10.6705	-12.8516	-9.5777
2712.0153	4.8500	-0.1611	8.3342	-2.0793	3.3003	-2.3334	-1.7020	-2.6077	3.5574	-0.6138	-2.7860	1.6885	31.1959	-7.8291	2.8555	-1.8851
2720.0154	1.3765	-1.8406	4.8923	-3.4726	-6.3900	-4.4391	-9.6658	-6.8792	2.6053	-2.7428	-1.9047	1.4055	37.3498	-7.9398	2.6686	-2.1509
2728.0154	-0.8939	-5.3650	5.3900	-5.9189	-5.0361	-6.1232	-12.5884	-10.0635	-4.8439	-5.1051	-5.5857	-4.1037	31.7184	-11.7184	-6.5986	-10.5784
2736.0154	4.4742	-0.8541	13.6644	-3.5415	5.6833	-3.9089	0.9308	-2.7960	2.1835	-3.7455	-3.3627	-1.7028	20.9433	-7.6760	3.3280	-7.1014
2744.0155	11.4203	2.4213	13.9503	-0.1881	-10.4522	-2.1047	-7.9322	-5.5952	7.5728	0.3347	-0.9824	3.1098	16.6420	1.3021	2.4358	-3.7413
2752.0155	5.5325	-1.5512	19.2913	-3.2965	-16.4572	-5.0831	-20.9381	-12.4473	-0.8139	-3.2135	-0.9948	-0.2486	10.8453	-2.5566	-3.7987	-6.3047
2760.0156	-0.3950	-2.1398	21.2485	-4.5033	5.1891	-4.7798	-5.2573	-4.9080	-3.3993	-5.9475	-2.4426	-2.9861	5.5938	-7.8085	3.5860	-4.7042
2768.0156	-2.4803	0.6060	14.1225	-2.2806	-2.6590	-3.6702	-9.3732	-4.8184	-3.4303	-5.7212	2.1833	-0.3680	-5.6190	0.6172	9.5198	0.9888
2776.0157	-13.4814	-10.6149	5.2847	-10.4838	-15.3211	-10.2695	-24.0279	-16.7196	-22.9798	-10.9268	-7.4248	-9.4173	1.7152	-15.6889	-4.5545	-11.1063
2784.0157	-12.1325	-15.4989	-2.1092	-14.5841	6.8070	-10.3120	-6.3299	-12.2721	-21.4074	-9.8441	-18.5324	-17.3177	-2.6631	-32.2565	-15.5214	-23.6087
2792.0158	3.3284	4.0132	10.7844	-1.0006	16.7543	0.5047	1.5244	1.4858	2.1863	-0.8446	6.4336	-1.6597	-42.6751	-1.5929	4.5240	0.0569
2800.0158	0.0413	1.8632	11.1146	-2.1390	0.0531	-1.1423	-8.3480	-3.4728	-8.5174	-0.5583	10.9114	-0.3851	-46.1272	-2.4823	3.5313	3.1206
2808.0158	-5.0316	-9.0233	-2.9671	-8.1896	-7.9342	-4.9776	-1.7090	-6.4240	-12.6758	-1.7570	-2.0994	-8.8143	-31.7657	-18.0411	-11.7512	-11.2008
2816.0159	0.5231	2.8323	6.3269	1.0431	-2.6791	0.6344	-0.6095	1.0464	0.5783	-0.4926	14.1896	0.0834	-33.7898	7.2654	0.0808	1.7604
2824.0159	-2.0429	-0.1284	1.9466	-2.0622	-1.0323	-2.1417	-7.0729	-4.0514	-10.3243	-3.6288	11.1551	-4.1286	-18.3672	1.3177	-6.3275	-6.4816
2832.0160	1.6633	1.4589	6.0113	1.2959	-0.0926	0.9578	3.5410	2.3901	0.2849	0.3128	12.9291	-0.3297	-13.0132	5.3945	-5.6484	-1.1641
2840.0160	-0.8003	6.4715	21.3064	5.7902	-1.1665	2.9451	-2.5907	4.8162	12.6648	-1.0120	23.3934	6.3177	-14.7885	19.0180	4.2530	13.4284
2848.0161	-15.4133	-15.1204	-4.0913	-11.8758	-10.5980	-9.6147	-16.6729	-14.5088	-15.8925	-9.5141	-7.1524	-13.8345	3.4735	-21.7450	-20.8684	-17.8274
2856.0161	-6.9367	-10.4059	-1.1647	-5.3582	-8.4150	-3.1632	6.0505	-1.8142	-17.0417	-0.3939	-5.8837	-6.7277	-0.0524	-14.7193	-12.9766	-8.1158
2864.0162	-0.2064	5.7973	17.3724	7.8531	-1.5032	5.9138	14.5856	12.7958	7.2067	4.3808	17.1585	9.2692	-14.6269	16.8679	10.9320	19.8490
2872.0162	-3.7153	1.9607	4.9754	4.7047	-2.5108	3.5140	4.7764	6.3494	4.2878	2.1322	6.9804	5.2555	0.2196	9.8905	4.2425	12.7205
2880.0163	4.9302	7.7016	19.0927	11.1020	6.7152	9.0706	19.2268	15.9457	-4.4995	8.4071	10.4046	11.4594	7.3787	18.1722	9.4355	20.1585
2888.0163	2.5925	4.5185	19.7090	6.0232	8.9168	5.1258	15.6606	11.4691	-0.1723	4.1017	9.4246	6.3598	-3.1724	9.4585	6.9608	12.8869
2896.0163	0.5231	3.7545	6.5413	6.5329	-2.2415	5.4385	4.8616	7.2647	5.8628	5.4783	3.3224	7.9495	-0.6801	10.8918	5.9324	15.8591
2904.0164	3.3122	9.9861	18.7656	14.6856	-0.7933	11.6984	11.8181	15.9471	-2.2908	10.8409	9.5263	16.1329	-1.0227	26.2952	13.9565	30.5855
2912.0164	-1.0739	-0.4721	10.7734	2.2230	6.6528	2.9124	7.6852	5.2202	-11.3660	3.0265	-3.6244	1.2504	-6.9830	-0.0510	0.7499	5.9328
2920.0165	8.5694	4.9611	11.7502	4.1126	7.9755	4.5706	8.0570	6.0257	-2.6185	6.5578	0.0488	5.3330	-13.6771	2.7366	5.9644	7.9068
2928.0165	7.3117	7.9463	19.0639	5.9950	1.1453	4.6958	5.5291	6.7715	-0.8346	5.0410	10.4098	8.1907	-25.8107	12.0276	12.9574	14.0307
2936.0166	-5.9918	-5.4792	7.0730	-5.8385	-7.6663	-5.4039	-5.4477	-6.3437	-11.0395	-6.0510	-4.2857	-6.5221	-21.2815	-7.4182	0.6310	-7.2570
2944.0166	-2.1853	-4.0596	15.8500	-4.4281	-3.7479	-4.1834	0.5972	-3.2951	-13.4469	-4.4884	-3.5765	-5.1989	-19.7873	-6.1612	2.0638	-6.4172
2952.0167	-2.6868	-2.6191	22.5945	-4.0164	13.6182	-2.8488	9.5038	2.1284	-6.1029	-5.3458	-0.8173	-6.0718	-28.1677	-6.9252	3.6025	-4.8999
2960.0167	0.3940	4.7450	30.3650	4.6319	25.8392	4.1430	19.3634	13.0241	0.9989	-0.7168	1.8614	2.4006	-14.9857	8.0624	12.8504	10.1025
2968.0168	7.3395	11.5713	41.9340	11.6689	16.4763	8.6548	21.9364	18.3211	-1.9405	5.3518	14.9926	12.6860	-8.1247	22.1705	20.7470	23.8063
2976.0168	2.5157	5.4690	28.1550	5.9166	6.8312	4.0720	11.6872	9.8938	3.2786	1.6745	9.8620	6.4859	-10.7157	12.7867	11.2398	13.7528
2984.0168	7.5077	11.6387	27.1892	14.5871	2.4876	10.5572	7.2641	13.4005	8.0755	7.7432	7.5042	14.4371	0.0557	30.2400	12.6476	24.7320
2992.0169	8.9710	8.1759	29.0602	10.7249	-8.4684	7.1495	-1.9023	5.7127	-11.8236	7.6679	8.7255	11.9800	3.2982	21.6581	5.5032	17.3822
3000.0169	3.5076	0.1284	25.4625	1.3315	1.3946	0.7330	-2.7137	-0.5644	-17.4087	1.4150	1.0309	1.4023	1.9743	0.6159	-3.0081	1.7748
3008.0170	9.3876	9.6474	37.3975	10.9428	12.9112	7.9269	5.9024	10.0629	-5.6302	5.0342	6.0396	9.3635	2.3827	21.4970	6.5311	14.7062
3016.0170	10.3961	8.3464	32.4063	8.6464	0.6934	5.2622	-0.1125	4.8819	-6.0039	3.4752	7.4676	7.2678	-4.5344	20.7681	4.1487	8.6011
3024.0171	8.8045	7.2303	29.5223	5.9869	2.9700	3.4413	-3.2765	2.5903	1.4516	1.8886	8.4594	6.1274	-6.0816	14.8335	4.1341	7.6447
3032.0171	7.2233	10.5611	34.2748	8.5544	13.1687	5.5368	-4.9322	5.3664	4.6259	1.8214	16.0415	9.1306	-0.3476	19.6553	6.0498	14.7294
3040.0172	1.6182	2.7072	19.6670	3.3414	11.7927	2.7711	-3.0760	1.9644	-6.5438	0.5204	5.6194	1.1694	-1.6513	6.4635	-5.6031	3.1827
3048.0172	2.1819	0.3319	13.2784	3.0344	10.3293	3.7180	6.7429	5.2490	-1.7078	3.2575	-0.0069	0.2440	-7.0666	2.5797	-7.8141	2.1089
3056.0172	-0.4583	0.0955	7.0735	1.2567	7.3813	1.7163	-1.4393	1.1871	0.9248	0.7634	3.9657	-0.4133	-3.3225	1.3942	-8.1538	0.9583
3064.0173	-3.7335	-0.3623	-8.0764	1.1546	8.1348	1.9713	-6.1681	-0.7900	-5.8614	0.5393	-1.6713	-1.7201	2.0812	0.9615	-9.2107	-0.5348
3072.0173	1.4937	3.0415	-15.9377	1.4979	8.7227	2.4215	6.2313	4.1849	9.8189	2.3533	3.9298	1.1553	-1.8609	1.1649	0.6134	1.2776
3080.0174	2.1711	0.2297	-33.3305	-6.2873	3.7337	-4.1760	5.1213	-2.2850	21.6174	-2.3609	5.4989	-3.9035	-0.7786	-12.2782	2.6053	-11.2248
3088.0174	-1.2822	-3.4517	-55.5709	-7.6136	-6.0395	-5.0969	-8.1465	-9.9818	8.3144	-2.3324	-8.4302	-7.7475	9.4257	-14.5800	-6.6223	-18.9160
3096.0175	-1.0568	-1.6788	-63.2117	-4.7717	-20.5671	-3.2987	-12.5734	-10.1679	9.6942	0.9763	-1.5022	-3.2693	7.7569	-7.2957	-6.3950	-12.3859
3104.0175	-0.0641	3.1280	-63.0616	-2.0923	-14.7638	-0.6218	-10.2579	-5.7357	21.2448	3.3753	7.6202	2.0899	-1.5018	-3.1820	1.7494	-1.5381
3112.0176	-2.7663	1.8904	-68.8806	-4.1259	0.1716	-1.2708	-17.8699	-9.4841	15.2901	0.9369	-3.7203	-2.4158	2.6508	-9.3358	-2.5265	-7.2810
3120.0176	-6.2429	-3.7400	-73.3698	-9.6686	-6.0606	-6.2714	-15.6096	-13.2380	7.6800	-3.1953	-4.5100	-7.9566	12.0122	-19.2174	-6.1235	-17.6744
3128.0177	-4.9914	-0.8660	-68.8238	-2.9977	-8.4146	-0.4813	4.6240	-0.6801	-1.9487	3.7979	0.6079	-0.6053	16.5019	-10.0239	2.1770	-4.1158
3136.0177	-6.4299	-3.4299	-74.0241	-4.4086	-4.7854	-0.3791	0.5919	-3.3971	-13.4220	4.6123	-7.7858	-4.0574	10.7287	-15.6886	-4.8966	-8.5660
3144.0177	-10.4170	-12.0356	-75.6369	-13.1038	-15.3506	-7.5431	-13.5899	-15.7563	-11.0895	-1.4055	-15.1303	-13.6106	-1.4069	-29.9962	-18.0832	-24.1898
3152.0178	-5.3801	-5.9060	-51.1618	-4.0510	-11.8848	-0.6364	-4.7441	-5.6019	-5.6863	3.9179	-11.0231	-5.1542	-5.6080	-12.4719	-12.0350	-8.6964
3160.0178	1.6686	3.2365	-28.1310	1.9770	7.0924	4.2076	4.3033	3.5295	-0.3306	5.9751	-0.5788	0.9958	-18.6785	-0.4890	-0.5783	2.0673
3168.0179	3.5202	4.4897	-22.5695	2.1634	1.7033	3.6014	7.3435	4.6962	2.7228	6.0927	5.3423	3.4767	-19.3236	1.0259	5.3477	5.0603
3176.0179	4.7422	4.2876	-23.0777	5.6836	-11.5110	5.4657	10.2441	7.1774	3.8248	9.8126	6.1214	8.8987	9.9752	6.5809	5.0414	11.1887
3184.0180	0.4076	-1.0685	-23.9354	-2.0864	-6.1316	-0.9621	1.7609	-0.9073	9.9629	2.4080	4.1302	1.2211	15.8851	-7.4340	-1.8004	-1.2037
3192.0180	-2.6805	-5.0814	-18.1457	-7.0680	-4.1510	-5.0926	-7.6972	-7.9863	0.2429	-2.0744	-0.8733	-4.2016	13.1611	-16.8114	-6.1621	-8.9673
3200.0181	4.7506	0.1353	-7.0731	-1.2225	-5.9041	-0.7310	-6.7370	-4.3428	-2.1993	3.0862	2.8141	1.9997	14.5532	-5.9757	-4.2403	-1.6639
3208.0181	4.1960	1.9764	-7.9673	-1.3433	-6.9485	-1.3144	-10.0098	-4.6889	23.4463	0.8168	8.9642	2.7865	1.5578	-1.8100	-1.7086	0.8084
3216.0182	-2.5620	-0.3130	-18.2050	-1.5688	-13.7435	-1.9393	-12.5107	-5.4756	23.2280	-0.3596	5.5807	3.2024	13.8013	-1.6002	0.3426	4.0556
3224.0182	-3.8239	-3.2848	-22.8651	-2.1619	-12.1791	-1.4471	-7.2607	-4.5502	3.3934	1.4885	-2.0223	0.7921	19.1496	-6.8378	-3.7012	0.3450
3232.0182	-8.8705	-9.4229	-27.4301	-7.5389	-9.4429	-4.6741	-10.0256	-9.0927	1.7824	-2.1698	-8.9910	-7.6811	1.3853	-17.1466	-14.1885	-10.5661
3240.0183	-3.8500	-3.1325	-18.8171	-0.8185	-2.8446	0.6969	-2.9072	-1.4570	0.9663	2.3449	-3.9274	-1.1630	5.3905	-5.0843	-8.4961	-0.6825
3248.0183	7.3742	7.0353	3.0539	6.2174	12.9592	6.2614	10.4076	9.1028	7.6461	6.6071	4.9124	6.7579	-2.5004	7.7462	5.1335	10.1011
3256.0184	2.6589	4.9532	7.2556	2.7279	7.8020	2.1225	4.9053	5.3359	27.6946	0.0785	7.1957	4.0220	-12.1744	7.2525	7.8871	8.0640
3264.0184	-0.7794	4.6344	6.5841	4.9409	-2.4065	2.4736	9.2093	8.2432	29.5808	-0.5410	9.3863	6.6984	3.1425	14.5472	12.4707	12.9546
3272.0185	0.2028	0.8417	6.7391	0.5753	6.4115	-0.1360	14.4590	6.6522	20.6466	-2.3675	-0.7917	0.7666	5.4982	2.5357	9.1515	2.0663
3280.0185	1.4912	1.4630	8.3020	-1.6639	16.0660	-1.6776	8.6997	3.5445	32.9906	-5.0390	-3.4297	-1.3262	1.7988	-1.6341	8.8012	-1.5331
3288.0186	4.3472	9.8314	21.6701	7.0314	14.9087	3.8384	12.2951	11.5671	38.1387	-1.9211	7.5928	8.5459	4.0029	18.9012	21.3493	15.3257
3296.0186	-1.8156	-1.5490	11.6651	-4.6014	2.5542	-5.6021	-0.0254	-2.8690	18.4605	-8.7332	-2.3757	-3.7098	3.3956	-3.2502	8.4048	-5.9491
3304.0186	3.9993	-3.4261	5.4878	-8.7910	2.4675	-7.9125	-5.1137	-8.5033	25.7321	-7.5013	-2.3166	-6.4801	2.6336	-14.8328	-1.4982	-15.2840
3312.0187	11.7730	7.1615	26.5832	3.6943	10.6515	2.0810	12.3994	8.0927	41.6218	0.6858	9.1985	6.4639	-1.8695	8.6706	10.5108	7.1371
3320.0187	-1.4989	-2.1508	17.3748	-2.7990	3.7170	-3.4662	7.1030	1.7128	29.8486	-6.5106	-0.5730	-2.5767	-2.0936	-1.1909	4.5167	-2.3690
3328.0188	-2.0242	-2.3289	2.5219	-2.7274	-1.2745	-3.0495	-1.6547	-1.8806	30.3575	-4.6956	-0.0368	-1.8856	6.1784	-2.0162	-1.4411	-2.7439
3336.0188	0.1218	-3.3964	0.1547	-1.8062	-13.3148	-2.3198	-7.6978	-4.8193	26.3953	-1.3299	-4.3776	-0.1186	8.8646	-1.5865	-5.4482	-1.6998
3344.0189	-6.5213	-11.9816	-8.8092	-9.5818	-19.0789	-8.5545	-12.3312	-12.9894	16.6467	-7.3582	-20.7043	-9.9621	3.9401	-15.6319	-9.9900	-16.2613
3352.0189	2.0168	1.6885	4.2135	1.8289	4.2174	0.7520	3.5641	2.9140	34.0178	-1.8617	-9.2366	1.5186	5.6203	6.0096	6.3581	2.5518
3360.0190	0.0069	2.9761	6.0206	3.0666	6.3551	1.1442	1.6957	3.4781	28.1441	-2.8388	-4.8272	2.8107	16.1079	9.4933	7.7951	5.1551
3368.0190	-9.2751	-7.4185	-10.4914	-4.7455	-4.8877	-5.0777	-7.3846	-6.5053	14.0261	-7.9690	-16.9728	-6.9531	24.3102	-5.3060	-4.6962	-9.7878
3376.0191	-6.5037	-5.7017	-7.6378	-1.0302	-4.2647	-1.3861	-2.3066	-1.7092	23.8265	-3.5990	-15.7374	-3.3009	22.1496	-0.2861	-6.5747	-3.4778
3384.0191	-6.4752	-7.2068	-12.5515	-1.7592	-14.4425	-1.8508	-5.1992	-4.0812	14.5414	-1.8526	-12.0991	-3.5834	17.3891	-1.8314	-11.4317	-5.0451
3392.0191	3.3378	1.0800	-13.9042	4.3316	-7.5055	3.4461	-0.4135	1.7238	17.6519	4.5676	-4.7926	3.9095	23.9713	7.4248	-6.1323	2.5192
3400.0192	10.6310	5.3182	0.2831	3.7017	10.1530	3.3600	0.9054	2.8522	33.9389	4.1435	-3.7474	5.8882	23.2360	3.2668	0.8785	4.0103
3408.0192	3.4675	-2.2658	0.4581	-3.2116	5.0847	-2.3399	3.4198	-1.1897	20.4759	-1.4241	-8.6879	-1.9712	14.5826	-9.0373	-0.9476	-6.0485
3416.0193	3.0043	2.6042	-6.9841	5.7970	-2.1459	4.7417	19.0806	10.9891	16.6838	5.0195	-1.5355	5.6996	15.4589	9.6518	6.1194	7.9225
3424.0193	-3.2905	-0.2884	-13.7595	1.3750	-4.6246	0.7407	5.9212	3.4574	19.5964	-0.2827	-4.8598	1.6843	10.5847	4.0845	5.5377	3.8837
3432.0194	-7.2701	-3.8127	-12.0772	-2.9004	2.3448	-2.6070	-0.6377	-1.6108	13.8681	-4.9697	-9.5074	-3.8805	13.8141	-4.1487	0.4695	-3.8461
3440.0194	-1.8023	2.3948	-8.4623	5.1247	10.5474	4.5058	13.8346	9.9643	19.1970	1.9300	-4.3536	3.8259	22.7241	8.0941	4.8273	7.9751
3448.0195	-7.8348	-5.7522	-13.2811	-4.2252	0.6486	-3.5418	-0.2008	-2.6215	11.2725	-5.0080	-12.0519	-4.8610	19.0451	-8.1318	-1.1740	-5.7916
3456.0195	-8.6043	-10.4852	-11.9277	-8.5934	-4.8229	-7.3057	-5.4137	-8.7506	-0.8973	-7.5009	-12.8671	-10.1755	22.6872	-16.1735	-11.1021	-16.6112
3464.0196	-7.8458	-6.6098	-12.5289	-3.0031	-3.3229	-2.2536	2.9267	-0.9715	-0.4750	-2.7841	-4.9190	-5.1389	17.0845	-6.0607	-9.1674	-6.7795
3472.0196	-12.9410	-6.5128	-8.0331	-1.9869	-3.4870	-1.4745	0.0622	-0.2382	-3.5616	-3.7195	-3.5037	-4.5472	3.1593	-2.3869	-6.3187	-0.7770
3480.0196	-7.0972	-3.5094	1.8049	1.5645	4.1799	2.3218	14.0968	7.9154	2.7820	0.6058	0.7676	-1.5402	-5.3628	1.7005	-5.3181	3.5969
3488.0197	-8.2536	-3.5218	-3.5587	-1.6048	7.2392	-0.3509	13.0707	5.6255	5.4735	-2.5011	-3.3951	-3.3435	-10.8179	-3.7553	3.1668	1.2173
3496.0197	-10.2418	-2.1637	1.8374	-1.3864	4.1252	-1.9708	-4.1957	-1.4323	-10.8133	-5.8150	-8.3541	-2.4256	4.1970	-0.1704	8.1841	2.2580
3504.0198	-2.8250	-0.2754	10.6460	3.3152	5.2545	2.9410	11.4816	7.0551	-17.6158	1.5402	-2.9078	0.8931	0.6101	4.6487	2.7790	5.1563
3512.0198	-9.5824	-6.7165	4.3126	-5.6270	1.3447	-4.1297	7.5407	0.0830	-13.2155	-5.0019	-2.7482	-6.3947	-14.4443	-11.1880	2.0472	-4.0589
3520.0199	-16.3131	-11.5630	4.8148	-12.1390	-9.8438	-11.4029	-23.9305	-16.9490	-15.4966	-13.6096	-8.3782	-11.6973	-3.9300	-17.9731	-4.2329	-12.5998
3528.0199	-9.1255	-11.7217	5.4603	-7.8021	-7.9886	-6.1481	-6.7264	-8.9843	-23.7316	-6.0282	-15.0754	-11.7603	-11.0313	-14.3802	-13.4287	-15.3040
3536.0200	-4.1563	-7.3258	7.9882	-5.6891	4.1323	-3.8269	12.7415	0.3972	-24.2035	-3.8495	-8.9031	-9.4353	-15.8950	-12.3670	-3.3451	-12.6988
3544.0200	-6.2770	-6.3135	10.1221	-9.5561	-4.9912	-9.1823	-12.3383	-11.6754	-19.6493	-9.9630	-0.8841	-8.8708	-8.6450	-13.9449	0.3219	-13.2800
3552.0200	-0.0683	-4.6986	7.0924	-4.9594	-13.5680	-4.4770	-9.8594	-8.9530	-18.6409	-2.4543	-7.5012	-5.3771	-22.4239	-7.4647	-3.0045	-9.1933
3560.0201	17.6868	11.2993	20.0287	9.9353	1.9422	8.4226	12.2620	10.0800	-3.7257	10.4812	5.1224	9.7166	-30.0676	18.0968	10.1597	11.0672
3568.0201	13.9285	13.1662	21.7260	8.6337	4.4172	6.1240	0.6781	6.0195	1.3245	5.5583	16.9327	9.9020	-24.9480	20.2560	11.6493	12.2489
3576.0202	1.5838	1.5964	10.9844	1.0511	-1.8650	0.0772	-5.6447	-2.4121	-23.5669	-0.8017	2.1587	-1.1978	-13.0495	5.4373	-0.7681	-2.6630
3584.0202	13.1112	5.0799	21.1258	2.6821	2.3621	1.4592	-0.2620	-0.7225	-21.8287	2.2577	1.8673	0.2304	-13.0824	7.0630	-1.1841	-6.6330
3592.0203	18.5691	6.4911	26.7647	-2.7261	4.2733	-3.2636	-12.4276	-8.7656	2.0834	-1.7313	6.8570	-1.4868	-30.4679	-0.9842	1.0031	-12.2967
3600.0203	17.2830	4.5941	19.2927	-5.3775	9.7883	-4.2393	-13.3728	-10.3476	2.9503	-1.7827	6.6519	-3.8848	-30.9308	-9.1912	-3.9172	-15.6980
3608.0204	22.1535	4.7129	9.7910	-3.8173	6.5248	-1.8096	0.7188	-4.6628	1.0772	4.1354	14.3144	-2.2176	-26.0665	-10.2931	-10.0935	-16.8368
3616.0204	14.4509	-1.7971	6.6134	-7.7668	-5.4332	-5.5876	-0.3349	-7.8299	-3.0750	1.1879	12.0331	-4.8441	-15.2800	-17.7376	-11.9685	-18.7802
3624.0205	5.8962	-2.3969	16.5498	-5.3462	2.4581	-4.0893	-2.3605	-5.3571	-14.0603	-1.1857	8.8773	-4.0655	-3.3999	-12.7250	-9.4187	-11.1558
3632.0205	1.0557	-0.5435	11.3873	-1.6898	8.3701	-0.6658	6.1295	1.8473	-8.9380	-0.3530	7.6805	-1.9241	-9.6075	-5.2115	-2.7208	-2.5353
3640.0205	-4.7069	-0.8549	3.4685	0.7106	-2.0118	0.7778	6.5004	4.0984	-4.7384	0.8233	3.0976	2.1648	-4.9398	0.0083	6.0680	8.0278
3648.0206	-5.0090	0.7634	10.0178	3.3385	-3.8138	2.4126	5.3145	5.5795	-8.9387	1.8660	4.1800	5.0686	-3.2067	5.6871	9.1268	13.8379
3656.0206	-6.6765	-0.4702	9.2423	0.3965	7.2160	0.5793	8.1309	5.2902	-4.5489	-1.6152	-1.9939	0.7995	-10.6884	-0.1511	11.2328	8.5986
3664.0207	-4.0253	2.9007	19.6148	2.2984	13.3686	1.6411	3.6979	5.1490	-6.2872	-1.6642	-1.9614	3.3053	-7.4244	3.7054	15.6730	12.2832
3672.0207	-1.1454	4.7274	30.4139	5.1530	5.1067	3.2566	9.2275	8.6464	-14.5173	0.9157	7.9052	6.6766	-12.9330	10.6942	17.0831	16.6316
3680.0208	-3.3784	3.4153	19.4053	5.0964	10.4941	4.1072	22.9300	14.3351	-7.7095	1.3843	4.2696	5.4419	-9.2851	8.5363	18.8755	15.9535
3688.0208	2.6703	8.4904	20.2060	8.5464	24.7754	7.1557	15.6667	14.0142	-1.5411	3.3650	1.5462	8.3609	9.8675	12.9800	16.3709	17.2489
3696.0209	6.1241	6.3302	21.4532	6.5234	6.3617	4.7324	-1.2206	3.9619	-13.3630	4.1739	1.8093	7.1375	6.6465	10.9135	6.4394	10.7978
3704.0209	4.9264	3.4266	6.3748	4.8552	-8.9185	4.0780	-10.1105	-1.6754	-20.5177	6.3850	1.2918	4.8917	-11.3827	8.2731	-2.9241	6.7321
3712.0210	7.2494	4.3765	-0.9550	5.0017	-1.1118	5.6465	-12.8953	-2.2434	-17.3011	8.7650	2.5096	4.2056	-15.9281	5.6297	-10.6067	4.7843
3720.0210	8.0936	0.3709	1.0645	1.9422	-5.7931	3.8007	-4.4280	-1.7416	-21.9189	9.9478	-3.4960	2.7569	-17.5426	-4.4318	-9.0088	2.1529
3728.0210	8.6617	3.6523	13.7672	5.2462	-8.0402	5.7400	5.6100	4.6996	-30.4073	11.2285	3.1512	7.0511	-28.8849	3.5688	3.3212	11.1568
3736.0211	1.9025	2.1310	17.6359	1.6532	-6.4238	1.7195	-1.8505	0.2525	-40.0736	4.5688	9.4384	3.4443	-30.0792	1.0524	5.0669	7.8604
3744.0211	4.0492	-0.0109	1.2568	-2.5085	-0.8076	-0.2051	-8.3767	-5.7375	-37.5688	4.6958	-4.5219	-0.6081	-28.1373	-11.4078	1.2196	-1.0541
3752.0212	21.6302	17.1716	14.7664	10.7600	23.3930	10.8778	6.3526	9.9464	-6.4367	13.1794	3.3071	12.6708	-33.8525	13.5765	17.2343	16.3229
3760.0212	15.6655	17.9598	39.5685	10.5243	22.8049	7.6891	9.1466	12.4455	5.5770	4.7739	18.8436	13.6521	-26.9229	21.9693	26.7520	21.1914
3768.0213	2.4653	0.8072	21.4130	-3.3078	4.9301	-3.3694	-6.6613	-4.8005	-14.9167	-3.7673	3.4187	-2.1263	-15.8887	-4.8673	4.7156	-3.6242
3776.0213	6.9624	0.0281	11.7816	-1.9680	4.9193	-1.5302	-3.0441	-4.0359	-9.5982	-1.1806	-4.6782	-4.5497	-13.2232	-3.0076	-5.6711	-11.3435
3784.0214	8.0169	6.2068	35.7251	4.7549	4.6933	1.9807	8.3997	6.1867	7.8790	-1.6598	8.9685	2.5172	-21.7403	16.5425	7.4171	2.8754
3792.0214	13.8135	11.6323	41.5213	10.0316	11.2451	7.1436	11.5088	11.3938	6.9283	4.0699	13.4575	7.7827	-31.0190	24.1210	8.8817	11.1236
3800.0214	14.8180	9.9159	32.0684	9.9289	3.6668	7.0185	7.2110	8.7831	14.3818	5.5628	10.7428	8.0311	-15.2682	23.0457	1.5965	8.6649
3808.0215	-4.3288	-2.6817	27.5356	0.9073	-20.7398	-3.1023	-12.4724	-4.7299	19.0747	-7.0731	6.6521	-0.0736	5.8269	14.0149	-5.4542	0.8762
3816.0215	-8.7563	-2.9431	22.8088	2.3523	-2.8244	-0.6903	-15.2874	-3.8609	8.8634	-7.6199	-6.3118	-2.7400	12.6613	13.8489	-9.0734	0.3262
3824.0216	-2.8519	3.1287	30.5334	8.8303	20.3534	6.1648	-3.4997	6.2378	12.9126	-2.2047	-10.8112	1.9436	15.5407	20.5769	-4.9631	8.7886
3832.0216	-13.7963	-4.8092	35.9510	1.0948	2.7023	-1.7513	-15.6461	-2.8858	18.7959	-10.1433	-2.6673	-2.2132	16.2339	10.3915	-8.0794	5.8513
3840.0217	-21.1986	-11.8932	10.3116	-4.7429	-14.6792	-6.1017	-22.1042	-10.2215	7.1172	-11.2850	-5.9505	-6.7983	19.0287	-1.6600	-14.0583	-1.2635
3848.0217	-13.2292	-7.9318	-13.2992	0.5165	-6.2414	0.8613	-9.3526	-2.6054	4.5669	-1.0196	-14.9156	-3.0903	23.1445	0.0180	-15.6150	1.1549
3856.0218	-5.1433	-0.2014	-6.5237	5.4151	10.4796	5.5046	-3.0973	4.1596	19.3634	2.5110	-8.4026	2.0737	19.7499	7.7967	-10.6976	7.8131
3864.0218	-3.1541	6.5939	-10.3113	8.8049	-0.8070	6.7657	-1.9836	7.4339	31.3232	3.9700	8.6106	10.2481	11.7223	19.1604	5.3840	20.3200
3872.0219	-5.1393	1.3910	-42.8831	2.2131	-13.9177	2.1500	-7.9163	-0.7267	29.9444	3.3096	5.9042	5.0203	15.4542	5.3068	-2.0628	8.0814
3880.0219	-5.0476	-6.0215	-55.3455	-7.3516	2.2234	-3.7806	-11.7742	-9.7897	19.0953	-1.8371	-9.8451	-8.5460	21.9627	-17.5495	-18.4360	-17.4499
3888.0219	-1.4853	1.7624	-46.2138	-0.7151	-5.8572	0.1626	-3.1042	-1.5863	19.2909	1.9057	5.5662	1.3695	13.9343	-1.3572	-0.9876	-1.2458
3896.0220	-5.2832	-0.9222	-65.3211	-2.2088	-22.3624	-0.7155	1.0237	-1.0235	28.5611	3.8003	9.5063	2.5603	7.9444	-4.3896	0.6801	1.7789
3904.0220	-6.6552	-7.2451	-81.6585	-7.5090	-2.4196	-1.9520	6.6601	-2.8643	21.1887	2.9477	-17.2863	-7.9851	4.9633	-22.3066	-9.2544	-14.3501
3912.0221	4.8942	7.8540	-59.3157	6.1115	5.9017	8.0562	13.6305	9.4802	12.2026	11.5668	-4.4940	7.3689	5.9928	4.1277	9.6229	8.6837
3920.0221	3.0150	4.4139	-45.0422	1.4625	-6.2769	2.3962	-1.3441	0.4857	22.9294	5.9550	4.2442	5.6188	11.6704	-0.1001	3.9350	4.7120
3928.0222	-5.4802	-7.1304	-38.8501	-9.9565	-4.4427	-7.0034	-13.7471	-11.8790	34.8849	-5.3646	-9.4670	-8.1457	7.0291	-19.5259	-10.0289	-14.7179
3936.0222	1.7343	4.5865	-21.3377	-0.2843	-1.8503	-0.6073	-6.3535	-1.6797	32.5179	-0.4629	12.2371	3.8716	6.8862	2.0804	4.6388	3.3051
3944.0223	-0.8884	-1.8095	-19.0466	-5.5912	-7.9957	-4.9020	-6.4591	-6.2345	26.9429	-3.9004	6.5786	-2.8224	-0.7198	-7.3957	-2.1932	-7.3627
3952.0223	-13.9659	-15.6943	-23.1246	-16.2209	-10.4431	-12.9393	-9.7206	-14.7711	27.4753	-13.5270	-15.2382	-17.5864	-13.5978	-26.5731	-12.9358	-25.0396
3960.0224	-21.9149	-16.4157	-37.1066	-16.2791	-20.5494	-13.8943	-14.0031	-16.0894	12.6265	-14.8593	-6.8516	-16.3489	-1.6969	-24.2238	-10.2038	-21.1878
3968.0224	-26.1116	-23.4138	-56.0313	-18.5591	-32.3112	-14.8351	-24.2625	-23.7410	-11.9207	-13.3124	-26.9414	-21.9934	4.5392	-31.4606	-23.3081	-30.6870
3976.0224	-15.4900	-16.9098	-37.7683	-11.9168	-14.8140	-8.2019	-13.9321	-14.9213	-6.7562	-6.7054	-29.4296	-16.4437	-0.3037	-23.8057	-20.7484	-23.0078
3984.0225	-5.5582	-5.4876	-20.1894	-6.9133	0.8159	-4.1471	1.8540	-3.2839	6.4657	-2.6132	-2.8236	-5.9350	-7.8841	-15.8454	-2.7914	-7.7084
3992.0225	-6.4635	-2.9464	-15.8222	-2.6051	-5.0914	-1.1981	2.5798	0.0452	7.7524	-0.8760	-4.8645	-2.1220	-20.9275	-4.8718	4.5050	1.4061
4000.0226	-2.1274	5.8603	5.8503	7.1809	4.6205	5.4714	7.2619	9.6208	20.0908	1.3623	5.7013	6.0498	-15.9189	17.9802	9.9774	15.3362
4008.0226	-1.8789	4.8875	2.7868	4.7837	10.6144	3.6929	9.7959	9.0974	22.5761	-0.5684	8.3291	3.5528	-6.7132	12.6775	7.0188	9.5530
4016.0227	-7.7188	-1.2714	-11.2694	2.5177	-4.6422	1.7561	4.1529	3.7935	2.0010	-0.3942	-6.0541	0.7480	5.3966	6.7688	3.7243	5.6161
4024.0227	-10.6200	-3.3554	-6.0381	-0.1702	-9.4147	-1.4678	-2.9192	-0.7146	-6.6747	-3.5268	2.0721	-0.3495	18.5082	3.0816	0.3499	3.1091
4032.0228	-7.8430	-6.0114	-6.5797	-3.5874	-1.1166	-2.8784	-0.6955	-2.2909	4.8179	-4.1771	-5.6742	-5.1716	9.1728	-6.2467	-6.5694	-5.6071
4040.0228	-1.3654	1.3527	4.0633	4.7631	6.3743	4.3126	11.3791	8.4372	5.4911	2.5757	-4.8406	3.0559	3.4196	7.4857	3.8682	8.3342
4048.0228	-1.0037	5.6128	11.1151	5.4261	2.9945	3.5516	4.3212	6.9578	-2.8903	1.6778	16.9179	7.2274	4.6635	11.9835	8.1679	14.0310
4056.0229	-2.2683	0.0748	-5.5819	1.4909	-8.7403	0.9801	-6.7091	-1.3181	1.2615	1.6796	7.1209	2.5852	5.0976	3.6347	-4.5665	4.6165
4064.0229	-6.0224	-7.3394	-9.2812	-2.3009	-8.8687	-1.1174	0.4403	-2.2335	-16.6330	0.7487	-7.6462	-4.3115	9.4887	-7.4039	-11.9089	-5.6096
4072.0230	-3.3309	-4.6802	2.7548	-1.4652	4.6683	-0.1913	12.8408	3.4763	-31.5561	0.5413	-3.0730	-4.6087	3.8279	-6.9299	-5.7820	-6.0812
4080.0230	7.5959	10.8864	13.1241	13.5338	3.9105	10.6953	22.5231	18.4752	2.8270	9.9601	9.6854	14.3417	5.0759	24.3684	16.4508	23.5308
4088.0231	-4.0719	2.0750	5.1993	5.0683	-12.8509	2.5530	4.9360	5.8189	-4.7347	2.1994	7.0599	7.9928	13.9173	11.3511	11.8300	15.7681
4096.0231	-8.8802	-9.3845	-6.3797	-8.1514	-3.9869	-6.5249	-8.8159	-10.0261	-38.8513	-5.6393	-9.1161	-10.2148	9.1135	-16.9513	-10.0108	-15.5553
4104.0232	6.1199	6.6166	8.8622	5.6084	10.8902	4.6339	7.2385	6.5663	-12.4696	3.7225	3.9900	4.5067	0.0548	9.7109	6.2482	5.7146
4112.0232	-0.2987	4.5961	15.1565	3.8115	3.0059	2.1327	3.6811	4.8974	-14.5415	0.4979	11.5442	4.9210	-1.4057	8.9679	9.8938	9.9108
4120.0233	-2.0752	-5.9271	-2.5938	-4.9542	2.5350	-2.9763	-0.2843	-4.6318	-34.8252	-1.0329	-5.2510	-7.5310	2.9292	-13.4653	-11.2903	-13.3034
4128.0233	4.4505	-3.5054	-10.9531	-2.2116	-6.7411	-1.0152	-1.1540	-3.9561	-0.5130	2.2841	-7.0091	-3.5276	5.7666	-6.7619	-12.5283	-10.8903
4136.0233	-0.1085	-4.1679	3.9300	-2.0975	-13.9471	-2.9881	-14.1121	-8.6741	-7.2226	-1.9680	-2.2431	-2.8972	15.2752	-1.4487	-12.8431	-8.2661
4144.0234	2.8808	-1.9089	19.4367	-1.4844	1.7418	-2.2260	0.6098	-2.3781	-36.6307	-1.7141	7.4630	-3.4280	19.6694	-3.0583	-9.6635	-10.3518
4152.0234	-1.6996	-4.7643	7.1387	-6.7654	-6.5232	-6.7410	2.3227	-4.4884	-8.2153	-6.2195	8.4497	-5.9277	2.3849	-9.7113	-2.4668	-12.0309
4160.0235	-4.0086	-3.2720	4.4764	-3.4035	-4.7294	-3.6746	-5.4606	-4.7592	-5.4405	-5.2026	0.1825	-5.1101	-8.8514	-1.8184	-3.4452	-7.2268
4168.0235	3.2219	2.3060	11.0720	0.7986	14.1448	0.8162	10.8698	4.3415	-25.8941	-0.9204	5.8183	-3.1951	-7.9069	2.2222	-0.6291	-6.7278
4176.0236	-5.8110	-7.9084	-6.7771	-11.1738	-5.1209	-10.3237	-2.4663	-9.5647	0.7526	-11.6737	-2.2986	-12.6709	-5.2525	-14.8291	-3.6070	-22.1263
4184.0236	-4.0082	-3.1206	-6.2721	-3.1444	-9.2400	-3.8106	-3.6484	-4.3852	5.9360	-5.6286	-3.1129	-5.1811	-6.1484	0.7041	-1.4048	-8.5027
4192.0237	7.6398	7.3996	2.4175	5.8667	15.6279	6.1832	22.5217	13.0026	-16.8794	6.6384	11.9767	4.3782	-11.7711	7.5468	6.7029	5.4618
4200.0237	3.3934	0.3669	4.8658	-3.8979	22.3436	-1.9229	14.5805	3.7523	0.1816	-2.4848	-0.4959	-4.2717	-4.6190	-11.3161	4.7879	-7.8109
4208.0237	-1.4273	0.0280	17.2974	-1.3561	14.1050	-1.9284	5.1012	1.7984	6.8502	-5.9088	-10.4629	-2.4020	1.4954	-0.9023	10.9293	-1.2176
4216.0238	-4.1465	-1.3136	5.6399	-1.7894	0.1211	-2.3981	0.5748	-1.0446	-13.5280	-4.0016	-5.9899	-1.8030	0.5251	-1.6309	9.3680	-0.6182
4224.0238	-4.2175	-5.1471	4.0090	-7.1742	0.9607	-6.4501	-3.2246	-6.2583	-7.2397	-7.1192	-2.2052	-7.0623	1.1633	-12.0926	-0.8714	-11.1676
4232.0239	-1.1137	-3.2123	13.4743	-5.3570	5.8427	-4.5334	6.6496	-0.5555	2.6524	-5.0726	1.1085	-4.4739	-6.9046	-10.1458	3.2575	-6.1847
4240.0239	2.9855	-2.6744	1.4390	-5.9894	0.0620	-4.4274	0.7304	-4.4369	-2.2038	-1.7471	-4.2083	-3.5134	-7.5531	-14.1537	3.0014	-7.8581
4248.0240	5.3100	1.6112	14.7129	-3.2231	2.3720	-3.6679	-4.7739	-4.5372	-3.9914	-3.2188	5.6893	-0.8221	-1.3724	-4.6489	4.4801	-5.0930
4256.0240	-3.0260	-1.1067	9.1043	-3.5744	-1.0836	-4.4341	-0.5433	-2.0681	2.0272	-5.7955	8.6925	-1.2509	7.9697	-3.4452	5.4168	-1.8846
4264.0241	-2.1455	-7.9053	-11.5415	-6.4263	-6.2840	-5.1833	0.9372	-5.3196	4.4775	-2.8103	-10.8182	-5.6870	28.1155	-15.3744	-7.9095	-12.5032
4272.0241	4.6567	-7.2199	15.6916	-7.4919	-9.5145	-6.8827	1.1116	-7.1756	-16.7607	-2.5542	-3.7824	-5.3929	18.5430	-17.4260	-6.8773	-15.2025
4280.0242	4.2955	-1.6437	12.4093	-7.3692	-6.3161	-6.5195	-2.8211	-6.7333	-13.7987	-2.5979	12.6750	-2.0410	-10.5858	-14.9510	3.6414	-7.1377
4288.0242	13.7562	11.5083	-4.3436	5.5948	21.1482	6.3742	9.7507	8.9952	26.2586	7.4971	14.6666	8.2153	-7.4094	6.0595	5.9531	8.7189
4296.0242	11.5343	7.9317	12.8105	6.2858	12.9181	5.7634	7.4884	7.5838	11.8693	6.6602	5.9263	8.0298	5.5700	7.6643	4.3780	9.4823
4304.0243	2.7487	-3.9234	2.4334	-4.5800	-15.4811	-4.1213	-13.1829	-10.3352	-27.8282	1.3363	-5.5482	-0.4535	12.2865	-13.0009	-1.9263	-5.0477
4312.0243	10.8860	3.5611	-7.8421	1.4711	0.2730	2.2716	-1.6425	-0.9081	-4.2541	7.2477	2.7674	4.4405	13.7885	-3.7787	-3.5142	-0.2131
4320.0244	6.1952	1.6407	-5.4115	1.7902	2.8991	2.8062	-2.8291	-0.2484	14.5152	4.7237	-8.2405	1.8147	-4.6924	-0.4049	-4.1014	0.9700
4328.0244	3.9106	-0.3151	-7.9082	0.5559	-3.7979	1.6426	-12.8835	-6.4006	-15.1479	3.9370	-20.7999	-1.5161	-17.0679	-1.7529	-3.4135	-3.4265
4336.0245	12.7129	9.7081	7.1558	6.0101	1.6260	4.8724	4.0194	4.6019	-17.7011	7.0719	15.0496	7.1737	-13.2393	11.1346	6.2566	5.7840
4344.0245	6.3474	3.9551	2.9395	-0.7239	-6.5569	-1.6820	7.6204	1.9434	2.2449	0.1246	21.0166	2.8558	-5.3708	1.6901	6.9215	-0.5623
4352.0246	8.2483	1.2883	-7.8610	-3.0603	4.9782	-2.2759	7.3286	-0.6937	2.7385	-0.1230	-1.8139	-1.9151	7.6439	-7.7986	3.4162	-10.1755
4360.0246	7.3380	1.7205	5.2020	-2.8757	-4.6072	-3.8141	0.3998	-3.1327	0.1561	-1.6733	10.1576	0.9897	16.6046	-4.3565	4.2009	-6.0117
4368.0247	-4.5828	-7.4257	-0.8003	-5.8942	-32.3581	-7.7450	-13.0368	-11.5251	-12.3805	-5.2804	4.1909	-3.1667	22.7534	-5.4085	-5.8631	-9.3472
4376.0247	7.3620	0.3347	-7.6183	2.1490	-2.0269	2.3864	-3.7906	-2.3825	-8.6139	4.5406	-11.3756	-0.8797	8.5939	1.6956	-10.6021	-7.2462
4384.0247	17.6037	14.0412	14.9109	7.5180	15.4313	6.1920	-1.7947	4.6126	8.0172	6.8612	16.7234	10.1221	-5.4568	13.2127	6.8588	9.2884
4392.0248	12.0532	13.3067	22.2296	6.1382	5.9292	3.1072	2.3368	5.1746	-25.3139	4.0266	29.9737	12.0049	11.7724	12.3933	17.9625	12.9028
4400.0248	9.9670	6.9854	-4.2295	2.7413	18.2120	3.7297	11.3409	5.5294	-34.1360	6.0754	4.1085	2.8312	4.6080	-1.7774	6.8997	-0.7943
4408.0249	8.2482	5.8806	-12.4744	1.7047	14.0005	2.7861	8.0410	3.7609	-15.0884	4.5954	3.1400	1.7395	1.0632	-1.4110	4.5065	-2.1338
4416.0249	13.3485	14.3987	6.9402	10.3363	10.5229	7.4676	17.4025	12.7249	-38.9694	8.4551	19.5627	12.3704	22.0787	17.4478	19.2797	12.2645
4424.0250	13.1176	15.3965	0.8959	10.2555	13.6907	7.7953	10.4202	10.9603	-7.6755	7.6752	10.2259	13.3791	14.6510	17.6934	22.9852	15.9861
4432.0250	1.3732	5.9007	-12.4273	3.5610	7.0447	2.4799	0.4014	3.4912	17.8908	1.0854	-0.3310	6.1935	21.4865	6.4167	12.3654	9.0009
4440.0251	-0.8179	4.3460	-3.7674	7.3648	11.0645	6.5483	13.4014	10.2141	-37.4037	5.6970	-1.0420	4.9993	22.6451	9.2917	6.4775	9.0549
4448.0251	3.5125	10.1528	-2.9423	10.4667	9.3335	8.6401	6.6205	10.1636	-19.7817	7.4653	2.6748	10.3806	9.7720	17.6827	14.3922	17.3334
4456.0251	5.0380	11.9556	-12.7139	8.8613	14.5340	7.1243	10.1246	11.4922	11.3916	5.8623	9.8278	12.5226	28.8546	14.1672	19.0450	18.3144
4464.0252	1.1794	8.0393	-21.6221	10.0287	20.8056	9.9815	23.0419	16.4616	-22.4965	9.1354	-5.8390	8.1431	26.2259	10.9818	14.2766	14.1522
4472.0252	1.4591	9.6378	-19.8113	12.5318	0.9691	10.0303	6.4893	10.2571	-21.8260	8.6175	-12.3561	10.6906	15.8614	22.7934	18.6086	17.9015
4480.0253	3.9390	9.0228	-17.2735	6.6577	-4.2181	4.3995	-2.5573	2.5607	-16.1542	4.1129	4.6029	7.2794	7.0205	15.6600	13.2274	8.2188
4488.0253	-4.3165	-0.9827	-23.6791	-3.5851	3.5751	-2.8929	-4.1235	-4.2699	0.7284	-5.2036	-5.2564	-6.5709	-6.1079	-2.5352	-0.3009	-10.9019
4496.0254	-5.1879	-1.6089	-15.6037	-5.3271	2.5650	-6.0927	-8.1386	-6.6519	36.9867	-11.5256	-11.6305	-7.2890	1.9945	-0.4052	5.5754	-11.8839
4504.0254	-6.7061	-2.8564	-15.7148	-7.5989	-0.1588	-7.0437	-2.3497	-5.5720	11.6446	-9.6464	2.9705	-7.7963	-11.3261	-7.6197	4.4265	-11.7917
4512.0255	-10.5500	-5.8017	-22.0100	-7.6585	-4.5520	-6.1619	3.5478	-3.6075	-15.9638	-6.5530	2.9592	-8.2065	-9.2553	-11.9082	2.0627	-10.6555
4520.0255	2.7539	3.7339	-17.5427	-0.2569	-2.0387	-0.5158	4.7390	0.8333	-5.2500	0.4903	-1.3349	1.7331	-1.2723	0.2350	14.7993	-0.1236
4528.0256	3.2553	3.6755	-34.0446	-0.9605	-3.4551	0.5442	-3.5179	-2.6871	-0.3711	3.7770	-8.1031	1.8236	-16.0898	-4.3509	12.2543	0.8609
4536.0256	1.4515	3.3822	-29.9515	-0.2655	1.7856	1.3027	-1.3837	-0.7189	-1.1917	3.2972	-4.9521	1.2316	-14.1149	-3.1072	8.6972	1.3695
4544.0256	14.2561	16.1206	-6.6586	8.2675	17.2696	7.8776	10.6846	10.7422	16.1582	7.3727	13.3352	9.6226	-37.3051	16.5225	19.6628	12.6919
4552.0257	9.6174	18.1999	-12.1108	10.5994	13.8180	8.6596	6.1358	12.0513	50.6150	4.9870	12.1952	13.5333	-33.8319	25.7531	28.2196	22.6301
4560.0257	0.3053	-6.3275	100.0324	-5.4824	-0.4053	-9.9113	-6.2202	-6.8624	-33.7450	-13.8783	7.7186	-3.6960	26.6581	-4.3434	2.0469	-5.9168
4568.0258	8.9233	7.4635	112.7702	6.5968	15.1155	-0.3369	2.7732	6.4632	-24.4791	-6.8412	24.0089	9.3505	29.6976	18.8767	14.8217	14.6276
4576.0258	3.6657	7.4343	99.8822	7.6219	9.0174	0.4012	-9.0762	3.6996	9.8256	-8.6165	18.0242	9.6074	13.8163	25.8832	13.8439	19.4367
4584.0259	1.7580	-3.8524	89.6740	0.0448	-2.8663	-4.7879	-16.7354	-6.8490	-3.7544	-9.6240	0.3445	0.0947	24.8477	7.0075	-6.0738	1.0352
4592.0259	8.3791	-2.1708	105.0102	-1.1066	14.6129	-4.5614	-6.4882	-3.0045	-2.0704	-8.9119	7.2033	-1.0436	17.6567	0.8752	-8.0842	-2.6154
4600.0260	-2.0067	3.6143	102.6403	5.6421	19.0770	0.2658	-8.7944	3.8287	8.7799	-10.4331	14.8680	4.3089	-2.4032	20.7159	4.5312	16.1603
4608.0260	-11.9021	-4.8012	87.0474	1.2841	7.7781	-3.3435	-10.5492	-0.5129	-4.6361	-13.4106	6.2314	-1.4742	13.3436	12.0319	-3.1384	8.7487
4616.0261	-6.7189	-6.4345	97.9827	-0.7515	9.7991	-4.8815	-4.6589	-0.1977	11.1495	-14.1568	3.8234	-3.6505	10.0630	7.5100	-6.6887	2.6658
4624.0261	-2.4767	1.3531	105.7430	4.9558	4.6261	-1.9228	-6.2171	4.1499	50.0616	-12.8107	9.5503	6.7083	8.6488	22.9056	10.7439	19.8049
4632.0261	-12.7986	-12.1692	79.2045	-10.1118	-16.3550	-14.0615	-19.3181	-13.0086	23.7073	-21.0826	6.3955	-8.0798	0.0025	-4.2006	-2.6979	-5.3846
4640.0262	-13.0062	-17.4967	56.6806	-9.8622	-10.3396	-10.7477	-15.8444	-14.1115	-19.4315	-16.1234	-19.4274	-17.9283	-14.1962	-9.4805	-22.3517	-21.8946
4648.0262	6.5106	2.9366	82.2754	8.8508	15.0585	4.4935	5.4339	8.2151	7.8144	-3.2762	-10.4549	2.4698	-6.7442	23.0163	0.9401	8.0313
4656.0263	4.0404	3.5060	103.6947	-3.9288	8.6769	-9.3128	-9.5799	-4.1410	19.8464	-17.6901	32.5912	0.0449	-17.8276	8.6960	12.4970	1.8866
4664.0263	-8.1191	-6.9672	76.8366	-13.4489	-1.0375	-15.9692	-24.2991	-16.9772	-6.7164	-22.7929	20.2149	-11.5439	-27.4381	-10.0951	0.7366	-13.6960
4672.0264	-5.5015	-3.7445	45.2161	-3.8012	8.6146	-4.6926	1.5217	-0.5569	-0.8844	-9.6719	-1.9774	-5.1690	-20.3368	-2.2316	6.1404	-1.3540
4680.0264	-9.4891	-3.8840	14.8253	-6.6410	3.2171	-7.1872	-6.4419	-5.1318	18.2355	-11.9992	0.1062	-5.5292	-8.2912	-5.7171	7.9745	-3.1918
4688.0265	-7.2178	-1.3528	-2.5571	-6.1780	-4.7422	-7.0972	-26.1019	-13.6487	5.6387	-10.0389	-2.0485	-3.7650	-0.0847	-4.4864	5.9650	-4.3329
4696.0265	5.0877	9.9651	-8.2600	0.7785	-5.6208	-0.7046	-5.7060	-1.6478	-20.7959	0.8355	25.2750	6.6689	-15.3406	5.7400	19.6963	6.7638
4704.0265	1.8987	10.2047	-60.1402	-2.9172	-14.8542	-2.1967	-11.4518	-6.3486	-10.1113	1.9585	30.5073	4.3963	-31.7450	-0.3060	18.4779	1.5612
4712.0266	-4.8791	4.9525	-105.2352	-5.7728	-16.1767	-2.3355	-26.1486	-14.7252	-6.4028	2.2195	3.6096	-2.8826	-33.4719	-8.0110	6.3660	-8.6477
4720.0266	-0.7235	9.6498	-111.2639	-0.1811	-12.0226	2.6015	-9.6726	-5.3294	-28.0694	7.7233	9.6585	0.8793	-26.4363	0.7708	10.5745	-5.1873
4728.0267	-2.7199	7.5683	-135.9778	-3.6682	-20.5675	0.4216	-15.2291	-10.0082	-16.6320	7.4484	11.7622	-1.5120	-32.9446	-5.2313	5.6944	-10.2283
4736.0267	-9.5478	0.2018	-154.5281	-12.9981	-27.0602	-5.8461	-22.5495	-18.7736	-16.3590	3.4900	11.7518	-9.7573	-54.8316	-23.7702	-1.9304	-21.3158
4744.0268	3.1939	9.0873	-163.7868	-6.9867	-8.2437	1.5535	0.7263	-5.6791	-16.5303	13.4410	12.8759	-3.3705	-63.9424	-20.3321	8.8436	-14.7601
4752.0268	20.0832	18.1677	-161.1923	0.4062	20.8579	10.7742	20.4029	7.3706	3.8470	24.7178	2.9276	3.9066	-66.0479	-17.7145	14.7157	-6.8125
4760.0269	19.6827	20.4454	-129.2379	1.7992	15.8623	9.9815	24.7156	11.2655	-9.1009	24.2924	28.8241	10.9001	-54.4475	-14.2601	23.0501	5.5225
4768.0269	16.9658	24.8259	-137.0157	7.2079	-4.5831	12.2628	14.8350	11.4200	1.1391	26.5911	40.5408	20.7956	-38.1074	0.8537	31.7181	21.7722
4776.0270	14.2161	22.9305	-149.8749	8.3216	4.7421	14.6467	14.3734	12.8090	31.3938	26.6821	21.8997	18.2056	-40.3885	1.6668	25.5049	20.9775
4784.0270	12.7900	21.1101	-121.2589	7.7705	9.3089	13.2726	23.9922	16.9406	33.2762	23.2674	26.2142	17.5060	-39.9816	1.8328	27.9723	22.4789
4792.0270	16.4363	17.9488	-117.3286	3.9995	-2.5458	9.4125	11.9111	7.7782	32.4292	21.7720	19.0037	14.8066	-37.3852	-4.4924	22.6003	13.8433
4800.0271	13.4349	13.4148	-115.4325	-0.1347	4.9374	6.6029	8.2529	3.3292	18.8774	17.7081	16.2974	6.5257	-40.9415	-11.9612	9.3827	0.7242
4808.0271	9.7473	19.7846	-104.1628	8.8705	10.1990	13.2897	18.2512	15.3664	18.7128	20.3372	27.7876	14.5103	-44.8663	8.1338	19.6976	19.6606
4816.0272	9.0968	19.0978	-105.4347	11.4947	5.0346	15.6270	14.4881	15.3055	26.8501	22.7606	10.3605	16.6432	-46.4719	11.8924	22.7002	25.5212
4824.0272	5.7237	13.8471	-94.5828	6.2975	10.3987	11.2430	8.7111	9.4191	16.7645	17.3782	2.0479	10.0479	-42.0799	1.4859	17.2422	15.9235
4832.0273	5.5416	16.9720	-102.0347	5.4621	8.6987	9.8761	-0.9006	5.7540	21.0606	15.9363	11.7628	12.3616	-39.3424	2.0952	22.1902	18.4818
4840.0273	6.6266	12.6808	-104.8964	0.6778	0.4751	5.9953	4.7196	3.4766	16.4468	14.8460	13.9125	8.5672	-39.2169	-7.8385	18.6084	9.2961
4848.0274	3.6253	8.3825	-78.8770	1.7987	4.8491	6.8592	27.4698	13.3511	10.2147	13.8501	13.1905	6.1632	-42.1192	-6.2627	16.8119	9.5535
4856.0274	1.7004	9.0990	-81.9092	4.0772	10.5635	9.5125	26.7879	15.5294	21.7294	14.9404	4.3878	6.9424	-49.8745	-2.6869	17.8515	14.4580
4864.0275	5.9946	7.8788	-83.5476	-0.0260	5.5401	6.4868	20.3221	9.3032	23.1244	14.4890	5.5069	4.0932	-64.5586	-10.5232	13.7155	6.5682
4872.0275	5.2788	9.3328	-64.5465	2.6799	2.5634	7.5877	18.5430	10.9808	24.4890	13.7546	12.0603	6.5916	-71.5647	-1.7790	14.9836	12.8707
4880.0275	-3.7529	8.9346	-64.7922	4.6638	10.6705	8.3043	10.4896	10.6691	30.3530	9.0306	4.8928	5.8260	-53.3240	5.4021	14.9893	16.6638
4888.0276	-0.9847	11.0022	-70.0334	6.1856	12.1420	9.1869	8.9588	10.5662	34.3591	9.5073	4.7469	6.7570	-41.2412	9.1530	13.7507	15.1194
4896.0276	6.8165	11.9728	-63.5751	8.6151	5.5669	11.1975	5.7488	9.1059	22.0385	14.8549	2.0235	9.6705	-31.1667	10.5031	8.1222	14.7798
4904.0277	3.8269	3.7865	-43.7982	1.3667	1.9342	3.8909	2.7247	2.1954	20.7752	7.1285	-3.1762	2.3680	-14.3612	-1.9436	0.8692	1.9081
4912.0277	-2.1916	-0.4775	-40.8046	-6.7070	-6.8828	-4.4746	-4.5877	-5.5458	35.8171	-2.8492	7.6739	-3.5454	-23.7950	-9.6154	1.7871	-6.9026
4920.0278	-9.1423	-5.0661	-50.0556	-11.0170	-9.4418	-7.6806	-15.4989	-13.0166	7.1429	-5.9413	4.6946	-9.7051	-26.7758	-17.6387	-5.5993	-15.1246
4928.0278	-10.5855	-6.5576	-25.9670	-8.8869	-1.3874	-6.7288	-1.5712	-5.7834	14.7875	-8.6246	-1.5221	-10.6925	-20.9240	-12.0590	-3.3944	-13.7469
4936.0279	-6.4904	0.7559	-26.4234	-2.4392	1.3412	-1.7933	8.3718	3.8461	57.9069	-5.6978	2.6039	-2.3730	-29.2152	2.9029	10.2435	0.9920
4944.0279	-4.9941	-2.4128	-49.8840	-3.0308	7.8464	0.1497	5.2083	0.7280	34.6264	-0.1357	-19.7532	-4.8730	-5.7246	-8.6005	0.7786	-5.7841
4952.0279	-2.1328	-6.1490	-21.0638	-3.8689	8.2561	-1.9681	9.6257	0.4731	20.7022	-1.9479	-24.6229	-5.8657	28.6441	-12.3710	-3.4897	-10.7695
4960.0280	-7.9267	-8.6165	-4.1151	-8.5416	-9.5935	-8.7152	-6.3837	-8.5732	17.4704	-9.9102	-3.0510	-7.4883	24.8257	-11.9232	-5.6338	-12.8965
4968.0280	-12.7048	-16.8637	-20.9313	-14.6237	-10.5376	-11.7142	-11.3368	-15.3720	7.6639	-11.2443	-16.2468	-17.3373	13.1429	-26.4938	-22.2921	-27.6576
4976.0281	1.8197	-4.5075	-10.1610	-4.2954	10.3606	-2.1563	16.2150	3.4000	27.8518	-1.2154	-6.5272	-4.7587	18.0303	-12.9057	-6.3260	-10.4709
4984.0281	7.5334	7.3753	-3.5151	4.3116	14.4527	3.9367	18.3738	11.3552	26.7574	4.0263	14.0759	7.5663	20.0747	4.9304	9.1437	8.5630
4992.0282	-0.4902	-5.4126	-20.5310	-1.0159	-1.1714	0.3476	6.1031	1.1215	43.6827	0.7105	-21.4234	-3.1715	16.8303	-4.6004	-9.5020	-6.0175
5000.0282	-1.3844	-8.5723	-28.6283	-3.8604	-7.7409	-2.3354	6.8593	-1.0228	54.1963	-0.6489	-22.1844	-4.3720	34.3923	-10.4946	-12.0576	-10.2583
5008.0283	1.5005	-2.2617	-18.7634	0.6664	0.0544	0.0380	7.0792	2.2902	23.4651	0.9189	-1.8800	1.3738	68.1370	-2.1726	-10.0807	-5.0260
5016.0283	9.1946	-0.9188	0.9801	6.9560	5.5827	5.0111	13.0943	7.8466	45.2836	4.4257	-18.9600	4.0577	79.9312	8.6480	-14.6170	-2.4213
5024.0284	12.9636	4.3479	12.2903	7.4901	6.4667	5.1121	12.9436	9.1642	46.3536	5.0682	-3.9447	8.4796	57.4835	11.0851	-3.3176	5.1715
5032.0284	6.1371	6.4270	13.8719	6.8169	9.0546	4.3859	1.3118	5.2073	5.1584	2.3492	5.8654	6.6785	30.3341	13.3184	1.2973	7.2211
5040.0284	7.1660	6.8992	9.3523	10.7129	7.5937	8.1938	0.1401	6.9424	20.3631	5.1878	-10.5014	7.3543	18.1481	21.2424	-0.3770	10.2029
5048.0285	11.1007	6.3217	0.4319	8.7672	-3.3469	6.8465	1.1560	5.7553	45.7401	7.1844	-2.2443	9.0615	15.5516	17.0442	-3.3475	9.5824
5056.0285	3.3065	-4.0107	6.5056	1.3617	-13.1342	0.3253	-0.1095	-0.5229	33.2441	0.9578	-5.5504	-0.1865	17.0403	4.4558	-15.2242	-3.7627
5064.0286	-3.8067	-5.0546	17.3470	2.7701	-5.7667	1.2958	9.1965	5.1146	18.7333	-1.5718	-9.8989	-1.5232	9.9033	8.2799	-8.0640	0.5879
5072.0286	-3.3200	4.2086	16.2388	10.4821	8.9166	7.7486	14.1383	15.0895	57.5257	0.2609	-8.0591	6.7978	-2.1798	25.4321	7.9312	19.1394
5080.0287	-11.4719	-1.6517	13.9040	7.6901	6.3329	5.3179	5.2367	9.9729	65.4483	-4.5497	-23.8953	1.2971	-4.1365	22.3633	2.7210	14.8152
5088.0287	-24.9887	-10.5629	7.8932	1.8207	-5.2671	0.3688	-2.1105	2.0616	-12.4594	-7.6616	-22.3906	-6.2575	5.3946	9.2776	-4.8582	5.8056
5096.0288	-21.5017	-9.2918	7.2667	2.3720	-10.4761	0.5839	-8.7218	-0.7971	-17.4842	-5.4997	-17.7644	-4.0591	12.9859	9.4988	-7.9822	6.1121
5104.0288	-12.2221	-12.1982	24.0672	-3.3977	-13.5365	-4.0138	-10.3584	-6.2287	17.4660	-7.6010	-19.9616	-7.8006	-5.3000	-1.2813	-14.4121	-4.4151
5112.0289	-8.8690	-11.0043	30.9168	-3.6093	-11.7962	-3.6485	-3.2295	-3.8111	2.1250	-5.6297	-12.1648	-7.6503	-19.9948	-3.2415	-12.9791	-5.0046
5120.0289	-7.1585	-6.0041	13.1139	0.8263	-15.2897	-0.2202	-15.4949	-5.8903	5.3597	-2.3672	-14.7822	-3.0215	-12.9400	6.5084	-11.2384	0.7205
5128.0289	-15.0428	-16.0266	2.5254	-10.2825	-23.1101	-9.1901	-26.5270	-18.1338	-1.0316	-10.0091	-17.3341	-13.9316	-13.2508	-13.8237	-23.1890	-16.7748
5136.0290	-13.8304	-16.6813	24.0247	-9.3457	-3.9358	-8.0997	-2.9921	-7.6806	-5.6034	-11.3309	-12.8126	-16.1869	-2.8676	-14.3102	-24.7885	-19.8599
5144.0290	1.1536	-0.1067	39.4139	4.1556	14.8312	2.3280	8.3043	6.3478	6.8990	-3.6756	-3.8196	-2.7418	-0.9766	12.3671	-7.6545	-2.0390
5152.0291	-0.5505	-2.9257	20.2632	-2.8135	-3.9902	-3.1734	-10.9737	-6.6679	-4.6136	-4.9628	4.1777	-6.2035	-24.2149	0.8896	-12.2305	-9.5171
5160.0291	-5.2432	-14.0915	16.7758	-12.1302	-18.5781	-10.9195	-25.9821	-20.3803	-7.4627	-10.5073	-3.5034	-16.6381	-20.6657	-15.9584	-32.4178	-28.1442
5168.0292	-0.1379	-8.0504	31.3751	-8.5006	-12.7142	-9.7470	-28.4737	-19.2059	-12.5573	-11.6766	3.2726	-12.8997	-5.9599	-5.4747	-26.0752	-25.5836
5176.0292	0.3605	-4.4245	15.6018	-5.3308	-15.2033	-6.7535	-24.8920	-15.2497	-8.2136	-7.5710	7.2391	-7.6175	-2.3732	-0.9122	-19.1504	-17.1408
5184.0293	3.4485	-10.6035	5.7937	-7.2879	-12.1336	-5.7406	-19.5313	-15.7480	-2.5927	-2.9545	-14.6969	-12.0379	1.8431	-13.4685	-33.1245	-25.7028
5192.0293	5.2528	-11.3982	24.8455	-9.6413	1.1436	-7.2690	-8.4421	-12.8993	-25.0248	-4.6792	-11.1165	-15.2799	-2.5364	-20.6641	-31.4684	-30.9255
5200.0293	-0.2017	-6.1615	25.2878	-3.8215	-8.8747	-4.1798	-4.6091	-5.7060	-15.2870	-3.7702	3.8346	-5.9973	-3.6386	-4.4957	-14.7616	-11.0618
5208.0294	0.1182	-0.9647	17.8171	4.9838	-22.3895	2.1040	-9.9814	-1.9895	-8.8050	2.6069	2.6772	4.2332	8.2518	13.6173	-8.3641	6.2409
5216.0294	-0.5938	-1.7570	23.6717	4.5306	-7.8648	2.1483	1.9434	2.9348	-10.3526	1.0275	-0.0193	2.3134	21.1940	10.1660	-7.1255	3.8149
5224.0295	-7.6188	-8.5754	17.2892	-3.2643	1.3233	-3.1114	6.6988	0.3987	-6.5272	-4.9438	-11.5086	-5.9411	16.2766	-7.2064	-6.1932	-5.6894
5232.0295	-3.1089	-5.7820	16.0532	-3.8548	2.6217	-2.9305	2.4254	-2.7249	-49.2799	-1.5616	-8.2259	-5.2565	6.7685	-12.0638	-2.1937	-7.3505
5240.0296	8.3538	4.4529	31.8751	3.8462	10.4020	2.5273	13.9237	7.2958	-35.9265	3.4017	10.0402	4.4382	13.9683	3.4558	6.1595	3.6262
5248.0296	6.1575	2.6106	30.7983	1.6634	2.8217	-0.0601	9.3359	4.8256	3.3657	-0.1410	11.2686	4.3526	11.9860	3.2622	5.9637	4.5668
5256.0297	2.3567	-1.2961	23.0106	-2.4575	4.6454	-2.4054	5.1322	0.0447	-23.4223	-1.3295	6.5308	-1.1868	5.8287	-7.1607	0.7155	-3.3374
5264.0297	8.3119	1.7389	25.6011	1.6020	10.6762	1.4204	12.9000	5.5005	-9.0114	2.1854	1.1298	1.3241	5.1827	-0.6926	1.2539	-0.8301
5272.0298	6.3954	-1.6477	21.6385	-2.1804	-12.3505	-2.9299	0.4378	-2.7523	0.6064	0.1722	3.6598	1.1273	-0.2132	-4.1365	0.5469	-2.1452
5280.0298	-0.7660	-6.1197	12.6095	-7.5665	-11.8803	-7.0418	-2.4755	-7.2487	-23.0856	-3.7161	8.3576	-4.6005	2.6561	-14.8562	-4.0878	-10.0496
5288.0298	4.2197	-0.8453	11.5132	-2.5127	10.7516	-1.5344	3.1507	-0.7018	-1.8084	-1.1791	-3.2826	-2.9498	0.3699	-7.5166	-2.2581	-6.6988
5296.0299	11.9898	8.6873	22.2303	4.8530	12.0977	4.0224	2.2525	4.2985	-5.2227	4.9628	6.0024	7.4790	-5.2029	6.0744	10.3502	8.9445
5304.0299	9.4024	10.8211	23.4482	3.7564	16.1211	2.7657	6.5982	6.6032	-12.2523	3.0750	21.5936	8.9966	-6.5907	4.8425	18.4036	12.7682
5312.0300	4.3125	1.1677	3.4933	-6.6828	6.5859	-5.1328	-14.4583	-9.6013	9.7188	-3.7807	-0.7990	-2.3007	-19.2236	-13.4974	6.3825	-5.2721
5320.0300	4.4028	-6.1109	0.5049	-9.0079	-15.9047	-6.7732	-28.5467	-19.5361	-13.4444	-1.0904	-13.9534	-6.6444	-23.8766	-19.2643	-10.8494	-14.5531
5328.0301	9.4137	-0.1209	17.2803	-1.2965	-0.5902	0.0841	1.1028	-2.0223	-30.1717	4.9052	3.8059	-0.7469	-18.1815	-7.8339	-6.4512	-5.2627
5336.0301	14.9863	7.6208	15.3241	1.3670	12.6518	2.7211	11.4285	5.5957	-5.5756	7.2494	13.8882	6.1743	-20.5313	-4.6514	9.4081	5.3787
5344.0302	9.2790	1.5803	-1.4790	-1.7333	-10.9940	0.3264	-5.1137	-3.8792	-3.1965	7.6893	3.5071	4.1320	-31.1533	-9.6835	2.4820	4.0134
5352.0302	3.6358	-3.5964	-2.0218	-2.2508	-13.6406	0.0113	-3.7690	-4.3526	-14.3381	5.6902	-3.7394	-1.7590	-33.7456	-8.6547	-8.9521	-3.1975
5360.0303	6.5012	6.0955	10.9295	4.3718	10.6089	4.7576	3.8367	5.1357	-9.2397	5.3327	7.1652	4.2585	-22.5585	5.6255	3.1340	7.3647
5368.0303	-2.9490	3.1764	3.6024	3.3908	13.7947	4.0981	2.3157	5.1076	-8.5566	1.9168	0.0459	1.6253	-21.3603	4.7694	4.4553	8.8271
5376.0303	-2.7684	-3.7706	-2.5569	-2.1676	7.0760	0.1931	4.6043	0.5771	-9.1031	0.7314	-14.5962	-4.5302	-20.3262	-8.5794	-1.3817	-3.0663
5384.0304	15.2668	9.5432	17.8889	5.2783	7.5925	4.8441	3.2698	4.5031	-0.1633	7.5909	5.2518	8.7148	-15.8998	6.0816	11.1833	9.7613
5392.0304	10.8059	11.2677	19.5372	7.1387	4.4600	5.0815	-5.1654	3.1218	-3.8320	4.9201	14.7914	9.3999	-16.1397	15.5068	9.8388	12.6279
5400.0305	0.7526	3.6741	9.5338	3.0799	3.7905	1.7620	-3.3812	1.1757	-1.2837	-0.6667	3.1368	1.9429	-5.7731	9.1818	3.1954	4.0931
5408.0305	-2.1263	2.4254	14.3110	1.1332	-1.9014	-0.6507	-13.1055	-3.3170	7.4295	-3.3944	5.2591	2.3959	-4.5200	7.3781	4.3108	6.2800
5416.0306	-10.4664	-7.4715	9.7058	-7.9082	-7.4419	-7.8443	-22.7048	-13.8778	-16.4560	-9.6248	-0.2180	-8.1544	-1.9873	-10.2401	-8.5792	-9.7399
5424.0306	-3.7875	-6.0758	11.4598	-3.9690	2.2142	-3.3282	1.8160	-2.7854	-27.7796	-3.3344	-8.7674	-6.0326	9.2416	-9.7021	-4.5525	-8.8140
5432.0307	1.3168	2.8216	22.3773	4.2236	-2.1203	2.2418	4.4003	4.6965	-6.5522	1.3782	-1.1442	5.7433	1.0654	8.5306	12.3045	11.4070
5440.0307	-6.8018	-1.3404	18.9308	-0.5535	-13.0257	-3.0092	-14.7874	-5.5327	-2.2709	-5.2475	2.4499	1.9644	3.2546	4.9269	6.6374	7.2027
5448.0307	-4.7847	-1.7062	17.5820	1.9498	-3.2992	0.1002	-4.4208	-0.1045	-3.8314	-2.3789	-3.8828	1.2814	15.4089	5.9038	0.3762	5.1972
5456.0308	-1.2271	-1.3570	30.6778	1.2169	7.5434	-0.1639	0.2643	1.5547	6.6700	-3.7034	-5.0465	-0.5480	9.2604	4.0003	-1.1285	1.8182
5464.0308	0.5026	-0.9123	45.6197	-4.0682	13.4811	-5.3373	-4.5296	-3.3225	10.8682	-10.1441	6.0234	-4.4040	-5.5030	-2.0932	0.8132	-5.6295
5472.0309	3.3395	5.3320	42.3985	1.1513	14.2535	-1.1248	1.4909	3.0080	10.6469	-6.0218	13.1861	2.1026	-10.8954	8.1595	11.1993	5.0363
5480.0309	4.3529	7.0296	41.8060	6.1445	6.0521	2.4228	3.9745	7.0372	14.6293	-1.4732	12.0155	8.6964	8.4910	16.1770	14.2748	15.1888
5488.0310	6.2276	7.2296	58.1922	9.3964	-1.8303	4.0558	1.0171	7.4533	8.3209	0.8871	12.7037	12.8239	22.6419	22.0077	12.4471	21.0372
5496.0310	-0.4833	0.8365	48.8721	2.0030	-3.6144	-1.3133	-16.3220	-4.1883	-4.5938	-3.6163	5.4539	5.4453	18.4610	6.7401	3.5725	11.0005
5504.0311	-6.5129	-4.4368	35.2789	-5.0714	5.5787	-5.5575	-18.1211	-8.5279	2.8781	-8.2602	0.1822	-2.3370	9.2647	-8.7038	-1.7379	1.2890
5512.0311	-1.9720	5.3854	42.4824	9.8722	6.5693	6.7363	8.7753	12.7247	11.8207	2.1194	5.8140	10.5783	-2.6456	20.4545	13.0984	25.5942
5520.0312	-0.8558	7.4447	32.1878	13.3564	-7.1522	8.7094	4.1161	12.0807	6.0786	5.5395	4.4233	15.3482	9.7175	28.0743	16.5554	31.0522
5528.0312	-6.6335	-3.0996	18.5768	-0.6164	-7.5895	-2.4252	-14.4304	-5.4069	0.5941	-4.2988	-4.9158	1.4411	19.2360	0.9975	1.8013	6.0231
5536.0312	-12.6450	-10.0993	15.8992	-4.9340	1.9160	-4.4341	-3.8930	-4.2747	-12.2907	-7.8347	-14.4143	-8.9599	4.8431	-8.3092	-8.7589	-7.3147
5544.0313	-9.0970	-6.3261	11.3464	-3.6425	9.1810	-2.8043	1.9083	-0.9227	-12.6639	-6.2170	-9.5617	-7.8031	-3.7010	-6.3154	-4.6954	-6.6943
5552.0313	-7.3334	2.0069	2.4194	-0.3702	10.2096	-0.8552	-1.8780	1.3670	9.9269	-5.5769	0.5647	-0.1644	-12.0161	3.3578	12.7239	6.2895
5560.0314	-18.2243	-4.1387	-18.8717	-3.8370	-0.0945	-3.9924	-1.2063	-0.6592	12.1858	-9.4236	-7.1326	-4.0924	-1.4813	-1.5195	13.1785	3.2947
5568.0314	-15.6858	-5.8196	-29.7806	-8.9089	-0.7558	-8.0386	-1.3758	-5.2937	-0.9228	-10.7095	-3.0766	-7.3197	12.7846	-13.3868	10.8866	-7.4637
5576.0315	-4.2368	8.7404	-36.8155	0.3336	6.8575	-0.1990	7.5426	5.0835	7.8407	-2.3532	10.1803	5.1944	-2.1199	3.9994	31.5472	9.8746
5584.0315	-6.8562	8.3588	-56.6871	2.5805	-2.2924	1.8141	8.9220	7.0693	29.6716	-0.2983	1.9113	7.3524	0.1024	9.1944	33.6144	14.7013
5592.0316	-9.0614	1.8161	-52.4574	-3.3784	-7.5826	-3.1293	-0.3902	-1.0490	30.4552	-4.1164	2.7648	1.1455	4.6000	-1.9513	18.7431	3.3871
5600.0316	-7.6445	3.6215	-45.4635	-1.9767	3.0842	-0.6606	9.2595	4.1892	8.7549	-1.6657	11.2268	0.1556	-16.4972	-1.3434	16.6094	3.3501
5608.0317	-11.7513	-2.2737	-63.6395	-7.4191	-5.3609	-4.7347	-2.7601	-5.3452	2.0224	-4.3290	-0.2365	-6.4456	-15.6739	-11.6448	7.7879	-8.1660
5616.0317	-12.0699	-8.1436	-68.8539	-14.1904	-16.9990	-11.0127	-29.7873	-21.8491	10.0674	-8.8957	-8.5969	-12.2129	-1.6596	-22.9994	-7.6271	-21.7308
5624.0317	-4.8314	-5.3911	-56.2070	-8.3407	1.2834	-3.8854	5.5730	-3.7359	6.1460	-0.8834	-4.9999	-9.4727	-10.6527	-19.3426	-7.3528	-16.8774
5632.0318	1.3511	0.6357	-45.1711	-1.3592	10.9881	2.9691	37.0831	14.0781	8.1781	6.6772	1.5863	-1.7672	-24.8124	-10.5627	7.9594	-2.6228
5640.0318	1.6701	5.6499	-42.3715	0.6899	6.1515	3.1725	18.3986	9.0069	17.5004	5.7942	7.7935	3.9624	-22.1265	-2.8498	15.2410	6.7745
5648.0319	-0.9036	3.8981	-43.0309	2.0548	7.1631	4.2398	16.0497	8.5708	5.0598	5.8041	3.0790	2.2436	-9.3914	-0.3787	7.4527	4.2967
5656.0319	-0.4715	3.9350	-39.5310	4.8989	-5.0865	5.6383	6.0901	5.4271	-4.4536	7.6775	-0.6920	4.3247	-5.0136	6.9751	3.6903	6.8158
5664.0320	0.8396	4.9599	-39.8855	4.5336	-7.7725	5.4984	-7.0907	0.2458	-3.7561	8.5068	3.4102	5.1846	-11.6104	6.4558	-1.1513	7.5753
5672.0320	-4.0621	-2.2858	-41.1204	-0.7438	-0.1122	2.6054	7.1337	2.0946	-20.7439	5.8766	-1.7813	-3.4724	-15.2520	-7.1347	-8.6970	-4.3657
5680.0321	-3.7334	-0.4529	-37.9240	2.2322	-9.4772	3.6748	1.4634	1.4174	-12.2166	5.7893	-3.9145	-0.4727	-14.7231	2.8724	-5.1260	0.4400
5688.0321	5.4360	9.1586	-27.2299	9.1707	-1.9517	9.0037	0.0164	6.6566	15.5219	10.0558	7.7916	8.6230	-17.7864	17.3759	0.4009	13.0313
5696.0321	2.5076	5.6077	-15.4553	3.0758	7.5685	3.9671	7.6611	5.9387	-1.3598	4.4051	10.0107	2.9181	-18.8290	4.6385	4.3444	4.9620
5704.0322	-2.1263	1.0037	-23.8443	-1.8853	-6.9728	-1.3502	-6.7346	-4.4229	-15.7364	-0.2162	4.3735	-1.5973	-12.2132	-1.4550	2.0685	-3.6392
5712.0322	4.3323	1.4065	-28.7886	1.2017	-10.7638	1.8322	-4.5490	-2.6532	-3.6202	5.3220	2.2044	0.6794	0.2416	1.5693	-8.5362	-4.4412
5720.0323	2.8952	-3.7750	-19.1508	-3.2972	-12.9648	-2.0758	-4.1778	-6.0209	-4.3528	2.0324	-4.0043	-3.5303	3.2080	-7.8444	-11.1944	-11.0899
5728.0323	0.0723	-3.9905	-18.9324	-4.3608	-15.4297	-3.3082	-9.0300	-8.2131	-4.4096	-0.0295	-3.6444	-4.1346	-6.2437	-7.6547	-8.0120	-10.0124
5736.0324	3.1011	1.0235	-11.9525	1.8581	1.6388	2.9127	11.3199	5.1290	-8.1586	5.2538	0.5490	1.2359	-1.1112	-0.7016	-1.0395	0.3206
5744.0324	1.5952	0.6325	-4.5513	-0.2408	10.5849	0.8234	12.5751	4.8034	-7.9039	1.4907	-3.5297	-0.2686	5.4075	-4.9652	5.4284	-0.9491
5752.0325	1.4060	1.9144	-8.4409	-0.4421	2.5010	-0.2067	-0.8633	-0.4019	8.2229	-0.2367	2.8808	0.3242	-1.7104	-0.2570	2.0137	-0.7663
5760.0325	-1.3570	1.5507	-3.6452	2.3483	-3.3224	1.8573	-0.0743	2.0197	-1.1839	1.9622	6.1510	3.0691	1.5968	4.7323	0.7856	5.9218
5768.0326	-8.3630	-7.8736	-5.8376	-4.8207	-2.1142	-3.2316	1.0126	-2.9858	-14.5138	-2.7774	-13.1059	-6.1578	3.9020	-12.0636	-3.8156	-6.1559
5776.0326	-9.8766	-13.4000	-9.2284	-10.7259	-0.3344	-7.6251	1.7241	-7.3530	-11.6149	-7.0346	-21.0465	-13.8832	0.7984	-23.3516	-10.6364	-19.4698
5784.0326	-7.5811	-8.1508	5.1094	-6.2751	0.9296	-5.1778	0.0386	-4.7585	-23.8842	-5.7824	-12.8932	-8.3939	5.1525	-13.1152	-3.0658	-10.7840
5792.0327	0.0961	-0.9382	11.7421	-0.2884	5.5292	-0.2482	-0.2058	-0.6818	-19.7636	-0.5739	-8.4377	-1.3239	3.4128	-2.6839	1.9960	-1.3871
5800.0327	2.3939	-0.2736	6.6324	-2.2106	4.2096	-1.8615	-7.3801	-4.5326	-0.8611	-1.5635	-2.4950	-1.5006	2.5792	-5.1079	-1.9074	-4.0515
5808.0328	-6.1554	-5.3091	3.2764	-5.8588	1.2223	-5.4134	-15.5387	-9.8382	-10.7157	-6.5508	-2.6312	-6.2014	14.1250	-10.1636	-8.7217	-9.3711
5816.0328	-3.7670	-7.2673	3.3253	-3.1870	-3.2007	-2.5942	-2.5507	-4.2102	-14.5746	-2.0733	-7.5211	-5.8908	19.0526	-7.8049	-14.7231	-10.1679
5824.0329	4.6332	-5.6447	0.3893	-3.9815	-12.8516	-3.1850	1.9334	-4.4569	-4.2036	0.9150	-5.7398	-4.1206	5.6383	-9.5578	-10.6356	-12.1769
5832.0329	4.0960	-5.6163	-6.4400	-6.5537	-3.5400	-4.5664	-0.5953	-6.9070	-12.9331	-0.7740	-7.1033	-7.3401	2.8791	-15.7508	-11.1007	-17.6384
5840.0330	4.3609	-3.0706	1.0852	-2.9699	3.6264	-1.9682	0.9775	-3.2493	-15.5258	0.1187	-2.3948	-4.5599	17.4976	-9.1518	-12.0534	-12.9550
5848.0330	8.3511	3.3385	10.4264	1.1265	-8.2907	-0.6725	-6.6238	-3.4392	-6.5060	1.1019	11.8955	3.0530	12.5849	4.5561	-2.6804	-2.4170
5856.0331	9.7379	3.9759	5.4713	2.4699	-4.8417	1.4840	-2.3947	-0.9363	-9.7462	3.8957	10.1679	2.9971	4.8512	5.0305	-4.9681	-2.2894
5864.0331	11.2642	1.6299	5.3167	0.5382	0.4866	0.9594	-3.9643	-2.9793	-8.9331	4.8601	2.7685	1.1692	11.8389	-3.3386	-10.7595	-6.0993
5872.0331	18.9833	8.2678	10.4440	3.8193	3.2785	3.2130	-7.3414	-2.0725	0.4922	7.3051	9.4457	6.3917	7.7178	3.9911	-4.9375	-0.8613
5880.0332	16.1881	9.0604	9.1072	5.8354	8.1164	4.9036	3.1899	3.9698	0.0055	6.6726	12.9435	5.7862	2.9606	9.8587	-3.4102	0.4046
5888.0332	-1.5997	-4.9648	1.6498	-5.5085	-11.3182	-5.5906	-10.6779	-9.2970	-16.3918	-4.3098	6.5918	-5.7380	7.7698	-7.5178	-12.0076	-12.9431
5896.0333	-1.6143	-8.7551	-0.5296	-6.1042	-21.8319	-5.6655	-12.6316	-11.8579	-31.4812	-1.5951	-0.0455	-6.9520	9.7686	-11.2408	-19.1611	-15.8230
5904.0333	5.7505	-5.0325	1.6275	-1.3629	-15.9486	-0.7595	-6.7430	-6.8872	-25.8510	4.0093	-5.9343	-3.9551	1.9463	-4.8774	-19.7946	-12.6125
5912.0334	0.8642	-6.2094	-0.7441	-5.6940	-14.9865	-4.9354	-22.9571	-15.2114	-17.5631	-2.5544	-4.7266	-8.1937	-8.9540	-8.2082	-21.1734	-17.4496
5920.0334	5.4102	2.7914	9.4546	3.5682	7.6463	3.4122	2.3360	2.8352	-10.5304	2.8330	5.5149	-0.2117	-6.8602	6.8929	-9.5605	-2.5525
5928.0335	5.2056	4.9947	12.0220	4.8670	13.8754	4.3103	20.8711	11.7325	-8.5209	3.3238	7.4151	3.5569	1.5539	7.1997	7.0286	4.9504
5936.0335	-4.1223	-7.3972	-3.0312	-6.4671	-6.4038	-5.1588	5.3668	-3.5402	-23.2273	-3.1395	-4.8643	-6.9714	3.2487	-14.0310	-3.3748	-11.7379
5944.0335	3.4838	0.5878	8.5176	4.8286	9.1992	5.4818	23.5638	12.1025	-8.1318	5.6484	-7.2575	0.9348	-9.9351	4.6059	0.7551	3.1675
5952.0336	5.8877	12.5500	16.6870	11.9207	20.2777	10.0726	21.7619	18.6152	9.8840	6.2314	3.8452	11.4466	-17.9815	22.2456	23.8553	23.0083
5960.0336	-8.4662	-2.1985	-1.3604	0.5768	-6.9524	0.0753	-0.9015	0.4670	-20.0601	-0.5995	-4.8595	0.8161	0.0164	1.2427	6.9929	6.7800
5968.0337	-12.2472	-12.6814	-6.6002	-2.9692	-16.5768	-1.3883	5.5545	-1.0498	-30.4160	0.8299	-19.5982	-6.4927	2.5983	-10.0224	-11.0111	-4.3814
5976.0337	-2.9858	-3.3453	-7.4925	-1.3184	-0.8082	0.5511	3.1965	0.2314	-17.2163	2.5979	-9.0957	-2.1185	-12.5635	-7.2529	-1.1740	-0.3797
5984.0338	0.1225	-1.7098	-5.6993	-0.0131	7.1654	2.3301	-1.8835	-0.7056	-16.4195	4.3631	-11.5173	-1.6868	-10.6794	-6.9583	-6.2218	-0.6576
5992.0338	0.0087	-4.4660	4.0954	1.8479	4.3106	3.5285	5.2816	2.6012	-7.2647	4.3775	-21.4686	-2.9821	-8.1491	-2.3493	-10.5632	-1.8820
6000.0339	6.0799	4.3691	8.7097	4.3471	4.2253	3.9708	12.1936	7.5991	-1.3304	4.6776	2.8437	4.5497	-8.8473	6.3474	6.7329	6.6544
6008.0339	-2.8053	1.6042	5.7511	1.1832	-2.5665	0.4106	3.2127	3.0777	-3.1019	0.1482	5.9930	4.0835	-2.0790	2.4845	11.1101	9.7290
6016.0340	-9.8483	-7.8116	-6.6232	-5.7982	-9.3899	-4.7160	-15.9369	-10.1756	-11.0593	-4.2476	-15.1865	-5.4204	1.1055	-11.7323	-3.6687	-4.3864
6024.0340	10.3216	5.0050	5.7202	2.1681	9.9410	3.2712	4.6818	3.1644	-4.6090	6.1497	4.5661	3.6426	-10.7783	-1.4606	1.1273	2.4809
6032.0340	10.8289	10.7897	25.2087	7.5516	17.1591	6.7385	21.0967	15.3116	20.2358	5.9890	17.2886	10.2308	-21.4756	12.4639	15.9075	17.2248
6040.0341	-4.1668	-1.2201	4.4822	-0.6613	-0.4301	-0.8241	3.4498	1.6203	2.8259	-2.1705	-2.0617	-0.4364	-7.5518	0.0381	6.1420	3.0449
6048.0341	1.2039	-1.3219	0.0823	-0.1791	-2.7961	0.0518	7.7820	2.2033	-10.3049	1.9393	0.4014	0.3631	8.2011	-3.0470	-0.0845	-0.9147
6056.0342	0.0994	1.4585	16.7034	2.2482	-6.3776	0.5032	-0.7128	1.7676	6.6289	0.1459	7.2436	5.0146	5.9348	5.9639	5.3152	9.1556
6064.0342	-4.5075	-0.2293	12.2689	1.3951	-5.0630	0.2276	-14.6218	-4.2471	-13.1799	-1.2215	0.0525	1.2965	-2.8812	5.0189	-1.1435	5.7318
6072.0343	1.1520	0.8585	12.8286	2.2970	12.5383	3.1051	3.8359	3.6160	-17.5783	2.6433	-0.7030	-0.2045	-8.2099	0.6155	-4.2882	1.8588
6080.0343	7.0236	4.9704	16.4334	5.0994	11.2153	5.0720	4.9021	5.9888	0.7751	5.3859	3.2540	5.0770	-6.6787	5.9542	0.6180	8.1322
6088.0344	11.2297	11.9077	22.6357	11.7567	12.8486	10.0965	8.1730	12.0361	-6.5402	10.1795	11.0867	12.8381	-5.1976	18.5448	9.1601	20.2102
6096.0344	5.8347	9.2228	23.8517	8.8073	24.6480	8.0656	19.8152	15.7209	-6.3913	5.8924	9.0131	8.7167	-3.5099	12.1831	13.2022	16.9804
6104.0345	5.0351	6.5519	4.3397	6.0004	19.6510	6.4803	6.0940	7.3761	-10.1384	5.8515	-3.4604	4.8823	-3.9235	5.8930	5.9738	9.1411
6112.0345	8.3960	10.7102	8.5885	10.3820	14.0304	9.3723	5.9875	9.8753	-17.3823	9.2243	4.0892	9.9713	-4.2248	15.6434	9.2005	15.8821
6120.0345	0.4205	4.3814	14.3065	4.1355	4.4704	2.7876	12.9847	8.8030	-11.7978	1.7375	12.4907	5.4625	-0.0263	7.9396	11.5283	10.7158
6128.0346	0.4088	2.2120	-3.6461	3.1708	-0.5761	3.2333	3.6848	3.5123	-19.5544	4.5059	1.7691	3.2519	-3.6101	3.3741	3.3313	6.1295
6136.0346	2.0162	7.2217	7.9547	8.1375	11.8967	7.5973	2.9576	7.7904	-23.9749	6.7344	4.8132	7.0898	-7.8366	12.1179	5.7423	14.5776
6144.0347	-1.7594	6.3456	23.1027	6.0935	12.9454	5.1741	13.0305	11.8825	-14.1374	2.5771	18.5272	6.7212	-19.2424	11.3092	12.0057	17.5261
6152.0347	-1.2541	7.8165	8.5852	7.7807	9.3273	7.5449	16.4731	14.3949	-9.7121	6.4642	14.7686	9.1304	-32.0031	12.7843	17.0072	22.5305
6160.0348	-6.0996	3.5996	-5.4370	4.2102	6.3207	4.5943	5.1384	7.0631	-13.6329	3.5509	2.9239	5.0689	-16.9332	5.4855	12.4125	15.9187
6168.0348	-4.3990	-2.0472	-9.5001	-1.0751	-5.3754	0.0921	-0.7847	-0.5262	-10.8606	2.0973	-0.4078	0.5250	-7.9104	-5.1400	1.3065	4.0422
6176.0349	0.9833	1.5184	-3.4780	0.6141	-10.9666	0.8339	-4.4494	-1.3406	-12.4744	4.1112	9.1680	3.9550	-13.5322	-0.3050	2.6226	6.5525
6184.0349	-5.5730	-1.6390	-0.8241	-2.5864	-13.1410	-2.7972	-15.3253	-7.7790	-31.3837	-1.7734	13.6347	-1.6469	-13.1296	-1.6333	-4.8349	-1.2571
6192.0349	-8.7323	-7.8151	-4.8241	-4.8622	-5.3844	-3.2762	-5.2539	-5.5853	-17.9181	-3.7734	-4.3264	-9.1982	-18.4365	-7.5162	-14.0697	-10.9462
6200.0350	-4.2615	-2.6179	4.5603	-1.2414	9.1073	-0.4172	6.3398	2.2143	-0.7337	-3.2268	-7.6867	-5.3183	-16.0910	-1.1796	-1.3491	-4.3389
6208.0350	0.8757	7.0347	14.5298	4.6484	8.5096	2.6824	3.5940	5.2641	-16.9913	-0.9792	9.9174	3.2360	-15.0672	13.7177	12.4162	7.1482
6216.0351	-3.9988	2.0245	9.3042	2.5257	1.0288	1.1288	-1.4848	1.6753	-4.1289	-2.7638	-5.8242	0.1939	-20.8322	10.1818	10.2189	5.4821
6224.0351	-7.0757	-5.7366	6.9159	-2.9483	-5.9672	-3.2753	-8.1216	-5.4988	5.2872	-6.1110	-19.8531	-5.8348	-11.9112	-1.1992	0.3929	-4.5566
6232.0352	7.7605	8.9641	18.2977	8.1170	2.0685	5.3116	11.1924	9.5730	-3.5332	3.6934	10.1872	7.9685	-7.2905	18.9610	13.1996	11.2115
6240.0352	7.4700	10.3909	21.4810	7.6491	13.3542	5.0760	21.8436	14.5283	4.1481	2.2034	11.4661	8.8060	-2.6844	16.5806	22.7012	13.8466
6248.0353	-3.1135	-8.0407	16.7723	-9.1234	-3.5845	-9.0103	-3.2813	-8.6130	-10.4349	-9.1373	-7.1623	-8.4595	13.3388	-15.7731	-1.3966	-15.1949
6256.0353	1.1015	-2.5191	22.7427	-5.5777	-10.4786	-7.2056	-8.5445	-8.2529	-15.6656	-6.4253	11.3282	-2.1289	14.6627	-6.5882	0.8972	-7.7425
6264.0354	4.4384	7.1045	24.3533	4.3532	6.9826	1.9133	0.3303	4.0965	5.9782	-0.4057	9.3317	7.2034	5.2148	10.6638	13.9598	11.6010
6272.0354	9.7733	4.9555	28.4072	5.5419	10.8436	4.2902	3.6005	5.5487	26.5378	3.1506	-3.1658	5.9235	4.0780	9.0156	2.0233	8.1542
6280.0354	7.6822	4.7070	34.4250	1.4231	-3.6089	-1.4084	-4.9356	-0.1831	33.6021	-2.0840	18.2864	7.2932	11.0528	7.0201	5.8866	8.3857
6288.0355	1.5339	1.3351	23.6735	-2.1528	-13.0233	-5.0117	-18.8375	-8.5528	10.3616	-4.8502	17.7430	4.7371	23.8549	0.9716	3.2248	4.1897
6296.0355	11.6323	2.8064	28.9032	2.7546	4.1874	1.3233	-1.8336	0.6200	24.0717	2.1473	2.7475	4.9015	23.4486	3.4143	-5.3498	1.9514
6304.0356	7.0485	1.6065	40.9215	-1.4353	11.0853	-2.7173	-1.2355	-0.3846	38.7484	-5.1467	3.3476	1.3572	4.4385	-0.5443	3.3923	0.8195
6312.0356	0.1750	-2.2570	39.6043	-4.3721	-7.7740	-6.7796	-18.6302	-10.1026	11.7312	-8.5954	5.5616	-0.6348	9.6989	-2.0999	0.5376	-1.8004
6320.0357	11.7686	5.3819	48.3301	3.8355	-5.5681	-0.5583	-6.6019	-0.0273	42.1876	-1.9557	16.7783	8.9176	26.4937	13.2003	1.7151	8.1370
6328.0357	6.0784	2.0628	44.8124	-0.7165	-1.3340	-4.0610	-12.6686	-4.8241	43.9396	-7.1659	7.2838	3.5652	16.1191	5.6743	3.5521	3.0148
6336.0358	-0.9369	-4.2285	37.6550	-3.8598	-9.4309	-6.2802	-18.3165	-10.4939	2.7262	-8.2708	-4.0176	-2.4872	13.6449	-1.5548	-2.4344	-4.6356
6344.0358	7.4097	3.7071	40.0222	-0.0483	-1.1501	-3.4096	0.2625	0.6378	37.3455	-5.7104	20.8716	4.5978	16.5081	6.9776	5.3028	2.8759
6352.0359	8.0370	4.6729	25.0570	-2.6962	9.4986	-4.3934	-0.5616	-0.8804	41.8010	-6.5865	20.7546	2.0874	12.3285	0.1019	5.4062	-2.0695
6360.0359	2.6450	1.8015	17.2905	-1.1546	7.6860	-2.5757	-2.3518	-1.4143	11.4422	-4.8070	1.2290	0.6209	18.1182	0.0087	6.4075	-1.1518
6368.0359	-6.7362	-0.2891	2.5031	-1.0984	-0.6771	-3.0627	-2.1040	-0.1657	29.0329	-7.4628	0.8846	0.6712	17.8466	4.1596	9.7631	3.7965
6376.0360	-12.2271	-4.6884	-28.7185	-5.8240	0.7899	-5.8157	-3.8671	-3.9399	36.0957	-9.8685	-1.6068	-5.3722	29.4867	-5.8474	0.0145	-6.8478
6384.0360	-5.4535	0.2402	-30.7731	-5.3557	8.4491	-5.0203	2.8593	-1.2482	27.1201	-7.3701	3.0105	-2.4757	28.4122	-7.8716	10.3867	-5.6613
6392.0361	-3.0760	5.3761	-40.0504	-3.3037	6.9766	-2.4145	3.1928	0.3487	8.1085	-2.9652	6.9106	0.9713	-3.0978	-4.8268	21.8312	1.1394
6400.0361	-6.8690	2.3244	-62.5240	-4.7424	6.6147	-2.7368	6.1799	0.4337	10.9979	-2.7094	4.3374	-1.7191	11.8114	-9.4176	14.6402	-3.8195
6408.0362	-6.0735	2.4916	-58.6708	-5.3148	-6.3932	-5.3947	-0.9109	-2.4552	53.5495	-5.8346	11.2795	2.2106	32.5411	-5.5464	16.5824	0.0173
6416.0362	-8.5678	4.6631	-69.9402	-0.0783	-18.8046	-0.5454	-10.4662	-2.6787	44.0460	-0.1320	7.2533	6.6458	11.0814	5.1201	17.1793	11.0183
6424.0363	-15.0708	0.1440	-90.8506	-0.8865	-2.7578	1.9482	2.8591	2.3709	15.0939	2.6357	-5.8535	0.5340	11.2208	-4.5979	9.2758	5.2625
6432.0363	-9.3546	-3.1010	-74.9008	-5.7961	0.3978	-2.3427	-0.9098	-3.3464	27.5553	-0.6346	-10.8505	-3.8073	17.6695	-14.9245	1.9945	-6.0486
6440.0363	-4.6516	-0.9059	-53.8215	-4.1408	-12.1020	-2.6841	-14.0720	-8.2931	27.8722	-1.1453	-2.8149	-2.0834	-0.2595	-5.4466	-1.5826	-5.2010
6448.0364	-9.9274	-0.3299	-48.1497	-5.2503	-1.1119	-3.5909	-5.2156	-3.3902	34.5796	-5.3586	11.6481	-3.7978	-11.1233	-4.7366	1.0592	-3.7408
6456.0364	-5.5219	3.7867	-39.5337	-2.3006	16.2837	-0.3348	3.5019	3.4147	58.4162	-3.8157	8.9681	-0.7464	-13.5130	-1.6600	6.8795	2.3497
6464.0365	-7.8333	1.2842	-41.0880	-0.3718	-0.6239	0.7834	1.0990	2.2597	44.1831	-1.5348	-2.4607	-0.1678	-20.5349	3.1460	7.5588	4.8742
6472.0365	-11.8238	-7.2247	-48.5826	-6.5932	-25.6683	-5.0603	-7.2051	-7.4292	21.2243	-3.0847	-3.3751	-4.9610	-10.6355	-8.5771	-2.4882	-5.6285
6480.0366	2.4642	3.3902	-51.2006	-0.4749	-6.7069	1.1936	-8.3673	-3.5523	27.7294	5.0091	0.5361	3.5944	5.1501	-3.6126	1.1116	1.5376
6488.0366	0.8457	6.5245	-66.8112	0.9006	5.4070	3.5352	-9.4505	-1.9881	29.6238	5.7027	-5.9035	3.6568	-4.9438	-2.1094	6.6313	4.2383
6496.0367	-1.7871	-1.7122	-53.5353	-5.3785	-4.8236	-2.1176	-9.9346	-7.3506	26.3445	1.5656	-7.7406	-2.5435	-4.4201	-13.7088	-2.7078	-6.0272
6504.0367	12.9466	11.2800	-17.1800	3.2058	14.9766	4.1334	12.8362	8.8905	47.3643	6.6101	13.0590	10.3543	-1.2128	1.0435	17.2576	11.8186
6512.0368	-1.1099	5.9495	-53.7039	-4.2749	2.6253	-2.8882	5.6464	1.2153	55.5348	-3.5408	10.8934	0.8611	-18.5452	-3.2294	20.0026	0.0800
6520.0368	-1.5689	13.4673	-76.4099	0.9250	5.2975	1.8514	11.0774	8.5614	81.3694	-0.3837	17.8915	7.5292	-33.1297	9.0290	33.5417	13.3392
6528.0368	-4.0425	7.6778	-110.5629	-7.5895	-0.5698	-3.5541	0.8216	-2.4852	70.3254	-2.2118	10.1503	-1.1490	-40.1917	-9.4676	24.1335	-3.6157
6536.0369	1.8872	6.1388	-142.0251	-7.6257	-17.9815	-1.5616	0.9672	-4.7241	65.6304	6.8853	8.1281	-0.3889	-46.7395	-14.8898	12.8986	-8.0550
6544.0369	4.6882	15.3247	-145.8637	2.8768	-9.5776	7.9779	5.9779	6.7987	90.9142	15.3562	21.6187	11.6373	-44.1522	2.9408	16.4129	13.9291
6552.0370	-0.3681	10.8522	-155.7142	-1.5063	1.6108	5.9801	-3.9425	0.3183	70.9713	13.1916	12.7914	4.5268	-40.8259	-9.3831	4.6499	4.0914
6560.0370	6.3434	12.2988	-156.8203	0.1581	0.2775	8.2074	7.1400	4.2681	53.8568	18.6410	11.1559	6.0395	-46.1517	-10.2390	6.6851	3.1801
6568.0371	9.7675	20.8632	-155.4997	7.0968	1.1418	13.0984	13.1922	12.7244	77.7306	22.3913	20.5643	16.8340	-44.2238	4.4602	23.7575	21.4825
6576.0371	-0.4623	9.0293	-166.0503	-1.4953	-7.0360	6.5874	1.0937	1.2033	60.9555	16.7414	0.3304	5.8646	-40.0354	-13.3578	11.3121	6.5065
6584.0372	-2.3220	3.7768	-160.2186	-5.1816	-10.4038	3.8787	1.3059	-2.4799	24.9209	15.8639	-0.2105	0.2081	-40.7183	-22.3781	2.1235	-3.3993
6592.0372	0.9320	10.1617	-161.3160	-0.3729	-3.1692	7.9612	-3.6433	-0.0451	39.1475	18.5502	4.8708	5.5799	-43.1475	-12.5461	5.0230	5.4166
6600.0373	1.3798	2.4901	-165.7883	-2.6549	-7.3089	7.5210	-1.5259	-2.3318	52.6224	19.7667	-20.1405	-0.5338	-45.6703	-20.4871	-8.5190	-4.4900
6608.0373	4.1516	1.0545	-144.9019	-6.3557	-13.0102	2.7904	-0.0211	-5.1198	37.3948	16.2394	-4.4798	-1.8499	-35.5295	-25.4737	-9.6885	-10.8711
6616.0373	4.4214	8.4144	-130.2618	-6.6591	-3.1963	0.1982	-12.1384	-8.2120	36.0969	9.9752	19.2341	1.7817	-26.1942	-19.8158	1.5599	-6.1753
6624.0374	6.0888	8.5085	-123.8888	-5.4455	13.5157	2.6499	-1.7641	-2.9448	43.3503	10.2199	5.4312	-1.4575	-44.2346	-19.3888	1.5502	-8.6322
6632.0374	15.1960	15.0005	-108.3936	0.2723	17.9692	7.5524	7.2410	4.5433	48.7355	15.9778	12.6891	5.4086	-55.3040	-10.0308	7.7220	0.8876
6640.0375	15.1815	17.6212	-98.7531	5.0032	10.6473	10.5629	10.8286	9.6559	51.9820	19.1838	19.2870	12.6322	-48.6044	-0.8076	14.5759	14.1573
6648.0375	2.8004	7.2543	-96.8243	1.1708	3.7740	7.4371	18.5805	10.0046	40.5574	14.5058	8.3259	4.7884	-48.1299	-7.2629	7.1032	7.7259
6656.0376	-0.3266	6.0903	-94.7269	-0.0467	-1.1385	5.1128	1.5508	2.1156	29.9172	10.8600	7.3828	3.0512	-35.9303	-6.1128	2.2594	4.2599
6664.0376	-2.2864	3.9819	-94.7380	0.3922	0.9044	5.9884	-5.0972	-0.6969	15.5190	11.4989	-8.1492	1.1741	-33.0678	-7.6104	-1.0428	2.9363
6672.0377	-12.3643	-7.0109	-97.8142	-7.1263	1.9240	1.1819	-2.4245	-4.8734	-5.3747	6.7861	-20.6542	-10.2271	-41.9048	-24.4792	-12.7285	-10.6980
6680.0377	-7.2731	-3.0557	-90.7571	-3.7507	-3.6368	3.1089	-8.4110	-5.3588	-2.8774	9.1154	-10.3217	-6.1795	-42.5094	-15.4621	-15.5161	-7.1734
6688.0377	0.1900	4.4614	-76.3864	6.5810	-0.1829	11.6074	5.5015	7.0529	7.5569	16.2474	-10.0750	1.9830	-57.0258	4.9725	-8.3266	6.8120
6696.0378	-5.5134	-0.9130	-72.0862	1.7459	0.1650	7.3106	3.2668	3.0047	0.8481	11.0759	-15.8224	-3.3173	-51.6071	-3.9494	-10.1609	0.2692
6704.0378	-4.5457	-1.6583	-65.6876	-0.6794	-9.5420	3.8856	-10.7105	-5.1859	-18.4234	9.1974	-10.2372	-3.3924	-38.0184	-7.1228	-12.4340	-3.4827
6712.0379	-8.0737	-0.0534	-61.6009	2.7492	-6.1010	6.2580	-1.5826	1.3424	-26.3435	9.0424	-7.0547	-1.8165	-37.7205	1.2584	-7.1216	2.1772
6720.0379	-13.4619	-3.0005	-64.6956	-1.1520	6.0021	3.0931	1.8908	1.3753	-5.6487	2.8217	-15.0977	-6.1252	-26.6185	-5.9007	-3.9602	-2.1100
6728.0380	0.9873	4.2222	-44.8138	2.4660	9.7214	5.8796	4.6900	3.9866	2.6670	7.1763	-11.0621	-0.9501	-44.3271	0.8055	2.4153	1.1084
6736.0380	11.5374	13.7270	-22.0779	10.0723	9.2307	10.7477	9.6600	10.6658	-6.3400	12.2442	9.0380	8.1933	-47.6048	17.7413	9.3467	11.6894
6744.0381	12.9895	14.4682	-16.6085	9.4575	14.9706	9.8713	12.9965	12.1626	3.3726	11.1475	15.7683	9.5933	-29.3496	15.4438	10.1659	12.2343
6752.0381	14.5149	14.4549	-7.8366	8.8867	15.0007	9.1276	12.6058	11.6097	10.0279	10.0622	14.9729	9.1867	-36.9791	15.4966	11.2604	11.6837
6760.0382	3.2422	5.5422	-15.1506	3.0163	-10.5158	1.9237	-20.1762	-6.4976	0.2528	2.2338	6.8367	2.9565	-15.3369	11.1018	-2.9562	1.9157
6768.0382	-4.2358	-7.6636	-29.2918	-4.6893	-24.2630	-3.1156	-30.7434	-17.5023	-14.6678	0.7141	-12.4150	-7.0307	-6.0819	-8.0669	-24.3215	-13.6149
6776.0382	1.3090	-2.9583	-16.5097	0.7514	3.8206	3.8391	11.6378	4.2076	-21.0024	7.3591	-7.6535	-3.3136	-15.8072	-6.3394	-12.4473	-4.9764
6784.0383	2.9028	6.5889	-5.0527	7.9295	19.0473	8.6135	28.9824	17.8952	-10.0774	7.9778	4.8092	5.6219	-8.2103	9.4142	9.6798	11.7044
6792.0383	5.8630	7.5073	-2.0661	7.8981	10.5246	8.0526	15.8257	12.1515	-3.7921	8.3195	4.6763	6.6247	-17.4180	11.6463	7.0651	11.7162
6800.0384	11.0351	9.8871	4.0425	5.9988	17.7169	5.9056	10.5161	8.7723	1.5299	6.0947	12.5933	6.4173	-5.8867	8.5741	5.7965	6.7497
6808.0384	7.6370	7.7029	-8.5134	4.0937	7.2356	3.3508	1.8064	2.9854	-1.4942	3.3235	3.1977	4.3536	2.0347	7.9370	7.7838	2.6390
6816.0385	1.5401	-2.5459	-22.0077	1.2243	-19.0820	0.7491	-10.5404	-6.7230	-21.8581	3.5177	-16.8760	-1.8679	11.1089	2.8021	-8.9565	-7.9693
6824.0385	-0.2946	-6.0116	-10.4470	-3.8428	-9.2594	-3.7320	-8.6025	-8.6329	-14.8319	-2.7611	-8.6344	-7.6658	20.3700	-5.6148	-17.2102	-18.0605
6832.0386	0.5027	-2.1640	-0.3939	-2.9395	-2.1104	-2.5253	0.7769	-2.6316	-1.9206	-3.1024	0.0960	-5.9213	-17.3789	-1.7854	-5.8008	-10.9215
6840.0386	0.8080	-3.4428	-0.6863	-0.7977	-15.0528	-0.8764	-2.4466	-3.4850	-14.7549	1.4215	-5.6710	-2.2011	-6.9373	-0.7702	-6.1103	-5.2788
6848.0386	0.4583	-5.3609	8.5803	-4.9318	-4.5382	-4.0724	-3.3926	-6.0767	-15.1603	-2.5955	-5.4643	-6.2866	-5.5134	-9.6568	-8.1841	-11.8220
6856.0387	1.8542	0.6316	14.9135	-0.5253	1.4692	-0.6845	1.0576	-0.2913	-10.3051	-1.5118	-0.6410	-2.0225	-24.6961	1.4059	3.2541	-2.2510
6864.0387	0.4027	-2.0123	2.1463	-1.3585	-16.8828	-2.6817	-12.8033	-7.9218	-21.3712	-0.6678	-2.7044	-0.0439	13.5884	-0.8348	-1.7221	-3.5487
6872.0388	-3.2878	-12.9983	-5.1901	-12.8591	-19.4777	-10.3693	-13.5060	-16.9504	-31.8589	-5.3235	-11.5681	-13.1550	-6.7171	-25.6837	-15.7455	-24.6545
6880.0388	0.4735	-6.8288	4.2479	-5.3357	-5.4445	-3.1764	7.7193	-2.3878	-29.4566	0.4378	-7.9673	-7.0548	-18.2571	-14.0631	-6.0681	-11.9150
6888.0389	2.9868	0.6142	4.9859	0.0044	-1.6821	0.5283	3.6960	0.6877	-25.2863	3.1329	0.3567	1.0135	-9.6738	-3.3008	4.0946	0.9258
6896.0389	-2.1131	-7.9853	-2.7281	-10.8971	-8.3976	-7.6915	-7.7364	-11.8106	-33.6918	-3.2960	-7.9429	-10.1189	-34.4269	-23.3858	-3.2744	-15.9760
6904.0390	-3.7693	-10.7877	-4.1519	-9.2034	-13.7455	-6.8418	-2.9438	-9.6542	-37.7295	-1.8748	-13.2064	-8.8734	-0.9099	-22.3225	-7.4414	-15.3852
6912.0390	-3.7213	-6.8482	-4.1600	-4.5586	-8.5049	-2.7078	-3.8728	-6.0839	-37.8466	0.5132	-10.5807	-6.0018	-9.8006	-12.4847	-7.0593	-8.6453
6920.0391	3.8307	-0.4596	4.0206	-1.2223	5.9651	0.4174	3.2811	-0.6712	-32.7944	2.6125	-7.4688	-3.0817	-18.6604	-6.8056	-0.3336	-5.6903
6928.0391	20.3045	11.9873	17.4659	9.3444	6.8090	8.1699	16.5231	11.2815	-9.6223	12.3297	6.3828	12.3549	-2.8062	11.5034	13.8600	12.3069
6936.0391	17.0102	10.7518	15.8865	6.9960	0.8589	6.7484	7.6559	7.0200	-7.3315	11.0575	12.3480	10.0056	-36.6575	9.8841	10.1607	11.9691
6944.0392	0.6168	-0.8413	10.2563	-2.2472	13.2115	-1.7998	1.9028	-0.6877	-16.9461	-2.3884	-0.3616	-2.5937	17.2927	-7.2512	-1.0551	-5.5473
6952.0392	0.0186	0.5685	17.5079	1.1880	12.7971	-0.0436	8.5865	4.4646	-1.9469	-2.9453	-4.2851	0.4336	26.1875	1.6687	5.9790	0.7309
6960.0393	4.8923	7.1912	28.3429	6.6620	0.2559	4.2541	2.6451	6.3742	6.9574	2.3246	8.2532	7.9198	-21.3623	16.3596	12.6857	15.2108
6968.0393	4.4871	6.1288	26.2414	3.6086	8.7739	1.1664	-4.0873	1.8945	4.6301	-0.8781	11.3289	6.9288	22.1966	7.9130	8.1526	9.6152
6976.0394	4.8145	0.4969	16.4789	-2.4403	5.5880	-2.7545	-4.6736	-3.7874	3.4522	-2.7805	-1.2867	-0.7318	7.8419	-4.8933	1.8877	-4.1727
6984.0394	4.0815	-3.1217	18.3229	-4.9644	-9.7699	-5.8290	-6.2188	-7.2393	6.6622	-4.6279	0.4395	-2.6961	6.1381	-6.5422	-1.6813	-8.8800
6992.0395	-0.6593	-3.3711	17.6710	-4.9867	-5.9075	-6.8967	-2.6940	-4.7883	15.4321	-8.2529	9.6460	-2.2682	31.8536	-4.4213	-1.5853	-7.7126
7000.0395	-1.9633	-2.4342	11.2694	-3.4391	4.7748	-4.0146	1.1055	-1.6782	9.8574	-6.7528	1.9267	-4.4491	9.1252	-2.7456	-1.9066	-7.6640
7008.0396	3.3179	0.1405	16.7765	-2.9244	13.3714	-3.9806	2.7117	-0.9119	11.5977	-6.3552	2.1878	-1.9736	34.6541	-4.5576	1.5838	-7.7688
7016.0396	4.0538	0.0603	11.4827	-5.4573	7.9353	-6.2196	3.4624	-2.0542	26.2176	-7.1785	9.5987	-1.2791	31.0447	-8.6611	4.7247	-7.8301
7024.0396	2.5204	-1.0920	0.8830	-2.9958	-8.5009	-4.3869	-4.0618	-4.4290	21.4044	-3.8155	4.9525	0.4807	30.2638	-2.9043	-0.2074	-4.9568
7032.0397	5.4523	0.6798	3.0144	0.4082	-18.3946	-2.6024	-19.1391	-9.0187	14.6618	-0.7505	6.4475	4.9192	51.4973	3.8238	-6.7644	-1.2957
7040.0397	6.1182	-1.5206	-5.8032	-2.2724	-16.6561	-2.6621	-21.3265	-11.5079	14.9117	1.2395	5.9366	0.7714	21.9639	-3.8195	-16.9110	-6.9382
7048.0398	5.7119	-1.2589	-7.3915	-1.3115	4.8490	-0.5744	-4.9507	-3.7323	18.3192	0.5251	-2.6049	-2.4232	24.8348	-4.7015	-15.9339	-10.3710
7056.0398	1.1413	0.4817	4.0116	-1.1118	5.7002	-2.0488	-7.1727	-3.4110	22.3669	-4.9234	-0.0251	-2.1031	14.5746	2.0293	-4.4416	-5.8774
7064.0399	-6.4805	-8.0375	-1.8987	-7.2335	-16.9604	-7.4300	-14.3721	-11.2621	8.8770	-7.3646	-0.6519	-6.6908	8.4265	-8.6694	-10.8097	-11.5138
7072.0399	-5.6168	-9.3604	-3.9996	-6.7026	-2.5216	-5.7769	6.6294	-2.6511	7.1556	-5.8670	-6.5348	-8.1616	25.9166	-13.2120	-10.6023	-14.3355
7080.0400	-5.8684	-1.5854	4.6968	-1.7711	10.9024	-1.9797	7.0290	3.1578	24.0458	-6.8398	-1.0908	-3.8384	-0.6459	0.8115	2.8089	-2.1876
7088.0400	-4.4933	0.3500	7.9613	1.8259	-2.6662	-0.1420	-0.0903	2.3542	22.9957	-3.5970	4.9417	2.2229	11.0809	8.6425	2.9888	6.1991
7096.0400	3.0490	2.2077	8.5656	4.7933	-1.3125	3.3214	19.3122	10.8592	16.2981	3.2080	4.5521	5.9127	14.9436	8.4265	6.9782	8.8680
7104.0401	-4.6197	-1.4959	5.3091	-0.5090	-2.1569	-0.8626	11.9078	5.5082	16.0439	-1.9358	1.4686	1.5230	-2.1594	-0.1633	10.2348	6.7221
7112.0401	-11.1691	-3.3319	11.4107	-1.2175	0.2052	-2.3780	5.0600	3.4473	18.6135	-6.3348	1.8317	0.4810	11.9419	0.7552	8.6616	8.1107
7120.0402	-8.2921	0.3745	12.8823	2.0339	10.6288	1.2083	14.2703	9.8021	18.6412	-3.5756	3.1041	2.1986	-0.6089	5.6511	12.2215	11.8705
7128.0402	-21.2900	-14.9633	-8.2257	-14.4478	-6.6192	-12.2006	-11.8145	-12.4299	4.8461	-14.0027	-8.4848	-12.4968	4.6216	-25.7788	-3.3128	-11.1820
7136.0403	-16.9379	-17.0105	-6.7262	-16.9363	-11.7681	-14.2509	-14.9538	-16.8876	1.1320	-14.0868	-9.6304	-15.6983	2.6891	-30.4184	-11.5185	-20.6141
