Time	Fz	Fpz	C3	C4	T5	T4	O1	O2	F7	F8	F3	F4	T3	T6	P3	P4
0.0000	5.9833	5.8282	19.6836	9.4796	8.0123	10.8102	7.0919	16.6916	0.2920	15.2059	0.8611	13.2812	52.2371	15.3012	11.1665	15.0345
8.0001	2.6093	3.5610	21.0016	6.3725	6.6330	3.7877	10.4477	-4.8010	-1.0315	6.4753	-2.8329	9.0914	8.5059	10.9959	14.0006	12.5893
16.0001	1.5123	0.8399	15.2609	4.7803	-1.1276	3.5652	-1.9140	-12.4188	-1.2423	12.5188	0.3403	12.6692	48.7837	6.6995	9.7643	11.2816
24.0002	11.3359	9.0908	24.8201	9.6749	26.1859	14.0986	27.8839	32.9515	2.2689	17.5309	6.8928	11.8073	11.9979	10.1373	14.7615	17.1357
32.0002	8.0035	17.0936	40.6539	14.1782	40.9737	12.4172	49.2830	57.1717	6.2614	-3.0196	11.0627	9.6103	-3.5611	22.3739	32.8974	30.0737
40.0003	3.6725	16.0088	32.6095	13.1301	14.2561	10.8832	23.8662	33.0461	11.1913	5.9139	22.8808	18.7648	5.4878	26.7100	39.8680	36.8240
48.0003	-3.8420	5.4835	17.1447	4.8502	-1.4782	5.4145	8.4972	18.0503	3.7005	4.0766	13.9371	8.4114	-19.6050	13.0301	22.1328	20.5293
56.0004	0.6370	5.0415	21.4598	4.4737	14.2622	3.3152	15.9578	23.2893	1.3801	-3.2496	4.9344	4.4324	31.2743	7.0925	13.9039	11.6701
64.0004	12.7896	14.5278	26.4422	9.3432	16.9056	9.3182	11.6167	15.9908	14.7862	11.7141	21.4017	16.0168	3.6240	18.0061	25.0827	20.8291
72.0005	0.9729	7.9669	15.3865	4.3663	1.9781	2.6325	-7.1555	-7.9987	13.3001	5.8366	20.0673	11.3674	-7.0635	15.5848	19.0555	14.5947
80.0005	-6.0084	-4.7985	7.4786	-2.6797	-6.9337	-4.2549	-6.4038	-13.4232	0.7560	-1.5324	4.3742	1.0974	38.7770	-2.0284	-1.0109	-2.7001
88.0006	2.4719	-2.8338	14.5793	-3.0847	-2.4840	-3.8798	2.0256	-4.8246	1.3962	-1.7419	4.8090	-0.0262	27.0140	-6.8909	-2.1092	-4.9518
96.0006	9.0284	4.6318	23.9672	-0.7610	12.4886	-2.9151	-11.9555	-14.6734	10.5241	0.6245	12.3054	6.9048	52.1357	-1.2368	5.4825	-1.2092
104.0007	9.8274	4.1860	23.5954	1.4028	7.3901	0.3616	-15.7066	-17.7857	9.7358	7.2997	9.4955	8.0303	35.2289	4.6364	1.1036	-1.1718
112.0007	-0.1355	-0.6890	18.2780	1.7066	-6.1818	-1.1187	-13.9289	-14.7873	1.8668	0.6789	1.0362	3.5717	23.5250	7.7549	-3.2297	0.7191
120.0008	-0.8512	-2.4052	20.2258	-1.1724	6.8812	-2.2677	-12.1316	-13.7765	1.8422	-0.1012	1.7455	1.1856	46.3159	-0.1995	-6.0651	-5.2661
128.0008	11.9469	3.9656	28.2637	4.0300	20.8324	7.9800	20.5505	20.4432	7.5289	11.9152	10.3473	4.1256	17.8398	5.0478	-0.4937	-1.4584
136.0009	11.5175	9.5942	23.0150	10.8676	12.5289	14.7000	21.3246	27.7195	12.5761	22.3388	19.8728	16.0638	36.5829	20.4425	14.5747	15.1400
144.0009	-3.1762	-2.9973	4.4239	-1.6465	-3.8198	0.6940	-11.6716	-11.3857	3.3919	9.4170	7.4318	4.3545	32.4690	0.5002	0.1348	-2.4680
152.0010	-6.1487	-10.8789	2.4181	-9.0570	-4.0528	-8.4950	-2.2541	-8.8882	-8.6858	-10.0893	-11.8113	-12.6312	3.6884	-17.1125	-14.4367	-18.9447
160.0010	2.1549	0.2276	11.3158	0.5573	1.1174	2.0704	5.0908	3.9090	0.3256	5.6451	2.6275	3.1945	5.4498	0.5280	5.5959	2.3101
168.0011	-1.1218	-0.5228	5.8525	0.4732	-10.1960	3.3121	-8.0596	-2.8006	0.7138	11.0343	7.0530	5.7563	-12.2156	2.8906	4.8439	6.3859
176.0011	-3.7602	-5.9648	3.0123	-3.1383	-6.6459	-2.6099	-5.2206	1.8934	-9.5197	-4.6397	-10.5978	-5.5815	8.6438	-8.0984	-9.9779	-5.3519
184.0012	-0.1474	-1.6453	11.5756	-2.3324	9.0378	-3.9656	-2.7414	-1.9813	-5.1353	-9.9019	-10.5345	-6.2821	0.4445	-5.5866	-5.0209	-6.2376
192.0012	-2.7637	0.1260	15.2397	-0.9757	4.0253	-5.7640	-4.2517	1.6090	-3.8485	-19.7947	-10.6681	-9.6014	-26.5814	2.1530	-4.6787	-3.7869
200.0013	-3.8872	1.2861	11.9051	3.0080	-6.8335	-2.7364	-15.7836	-0.7754	-2.9141	-14.9228	-8.2847	-3.9626	-6.0266	11.5028	-7.3397	3.1051
208.0013	-2.3557	-0.9390	10.2691	1.1167	-10.1502	-2.8715	-19.9579	-14.3952	-0.3197	-7.2698	-3.8908	-2.7388	-15.7899	8.3619	-11.5460	-1.5302
216.0014	7.4348	1.0022	17.4332	1.8588	-5.0686	-1.1541	-0.0750	8.9866	-2.6972	-10.3279	-9.4454	-6.9965	-30.5109	4.6574	-13.6834	-5.2534
224.0015	14.8409	8.7371	17.9650	7.7868	-7.2747	5.5524	0.4502	7.0036	4.6719	3.4777	1.0251	4.2746	-59.4040	16.3238	-0.4853	8.5327
232.0015	4.6196	2.2835	9.2214	2.3162	-11.9124	-1.2654	-4.5193	-16.9877	3.4206	-0.9360	1.1026	0.3414	-69.2336	9.0722	-2.0506	2.5123
240.0016	1.7760	-1.5943	15.8804	-3.0236	9.2836	-5.0828	10.8345	16.0405	-5.0639	-19.3082	-11.1654	-13.9567	-28.3078	-6.1022	-10.3352	-11.0517
248.0016	1.9197	5.9847	19.2270	1.5232	13.6715	0.9436	13.8577	39.3262	2.7887	-15.5981	6.3733	-5.9986	-15.9747	3.7592	3.9348	4.7301
256.0017	-3.9533	3.4081	3.5368	1.5945	-9.1768	-3.4238	-1.9389	17.2792	2.0824	-16.3666	10.3640	0.4612	23.6329	3.5849	2.9023	12.0412
264.0017	-1.9850	-4.4092	-2.1303	-5.6001	-10.0825	-9.6108	-16.1049	-1.7041	-7.6965	-18.7816	-7.3937	-7.2010	41.9327	-15.4960	-14.2954	-6.0150
272.0018	-7.3019	-6.4717	-0.4505	-8.4236	-6.1173	-8.8965	-13.5511	-6.9549	-5.7020	-13.0001	-2.1189	-8.3760	1.8729	-16.5583	-7.5137	-7.7476
280.0018	-13.1679	-6.0924	-5.3684	-6.2769	-7.3707	-8.1544	-8.9466	-7.0065	-4.8340	-13.1731	0.6288	-5.5171	12.2032	-10.5009	-0.7670	-1.1956
288.0019	-7.3513	-7.0931	-6.6429	-6.9114	-2.6323	-6.4311	-4.8087	-7.3950	-5.6997	-7.2845	-4.1740	-6.9489	10.0194	-14.4745	-6.8157	-8.8671
296.0019	-1.1620	-1.9464	-1.1992	-1.8808	4.7349	0.9820	9.9994	7.0097	0.2841	2.3567	2.4268	-2.8591	-12.8705	-3.9100	-0.7655	-4.1198
304.0020	7.4223	9.5781	6.4946	6.9949	20.2246	6.3299	1.4907	3.9660	9.2720	4.1590	5.0927	4.7272	-14.2588	15.1429	4.0516	5.9277
312.0020	2.9370	1.4319	2.5246	-0.8939	7.9847	-3.3598	-13.5330	-33.1423	8.5304	0.4923	3.9969	-0.3846	-30.0327	2.9283	-6.1942	-7.3311
320.0021	-10.9538	-14.3594	-6.1495	-11.2769	-15.9113	-13.5536	-1.5892	-23.5937	-8.0337	-15.5767	-8.3566	-15.4230	-20.7943	-19.6065	-19.4421	-20.4706
328.0021	-4.0253	-1.8950	5.8500	-0.4139	4.2888	-2.9096	0.3103	19.9680	-9.1604	-19.7819	-15.2704	-12.6335	-7.5163	-1.1289	-14.5728	-5.2665
336.0022	2.0367	10.9797	15.4324	9.8686	13.9162	7.8785	-3.5807	20.5651	6.7294	-2.6935	6.2769	4.3106	-16.9372	23.4720	4.4147	15.5359
344.0022	-6.3069	2.5935	9.9654	3.7971	2.9482	-1.1127	9.6147	4.9533	2.9123	-11.0971	7.2646	-0.4187	-19.2946	10.5525	3.4194	10.6585
352.0023	-9.5967	1.0281	13.0808	0.6365	10.3690	-5.9366	11.1787	7.7931	-3.1277	-24.7354	-3.8840	-8.9844	-36.6840	4.1606	2.3723	5.6432
360.0023	-18.1283	-1.0092	10.3800	-1.7296	-1.4184	-6.3758	-8.5138	4.9945	-3.4286	-23.6808	-0.4590	-8.8284	-42.4834	6.4770	5.7662	7.5259
368.0024	-23.6866	-9.5563	8.6041	-8.0214	-6.6299	-15.7684	-14.9794	-4.6497	-12.9482	-39.5147	-13.9713	-19.6737	-17.7065	-8.0010	-11.7685	-5.8613
376.0024	-11.0549	0.0326	23.5503	-0.7062	8.5061	-9.1097	-2.6301	2.2772	-2.8777	-30.8535	-4.5178	-10.6012	-16.0157	4.5830	-2.3168	2.5734
384.0025	-9.3593	5.1830	16.5095	3.7660	-4.9200	-2.7155	-7.6341	-0.7008	8.5069	-14.3849	13.8858	1.6675	-23.6844	19.2063	11.3370	14.1500
392.0025	-15.7966	-5.9307	0.1811	-5.8472	-10.2536	-16.2577	-15.5389	-14.6482	-4.3696	-37.6121	-9.0782	-16.0502	-1.0256	-2.6221	-13.3159	-8.9165
400.0026	-4.5464	1.1250	9.9320	-0.6663	1.2642	-11.0193	-4.1050	-1.5739	1.3981	-31.7501	-3.3156	-9.3722	19.8931	3.1963	-7.5431	-3.0555
408.0026	9.5061	14.8246	16.1231	11.2735	7.0747	1.9659	4.5822	1.5694	17.1637	-6.7564	19.1955	12.5178	24.9383	24.5623	13.0342	19.7628
416.0027	8.5309	10.9940	1.7279	7.5087	12.3806	-2.8200	7.8157	-10.0903	11.5117	-11.9951	7.6046	7.0341	30.5218	12.5146	6.9314	10.6603
424.0027	-5.0789	3.1028	-21.1765	1.5599	-5.0554	-6.1093	5.9423	-3.2863	3.5577	-16.5764	1.3195	-0.2450	24.9324	4.6391	7.5539	5.4213
432.0028	-11.6863	1.1739	-37.2553	0.7235	-7.1718	-8.2466	9.0669	-0.7231	-0.1154	-24.3769	-6.4770	-5.6077	19.5604	4.6655	6.3975	2.8100
440.0029	-7.9614	2.7563	-48.4310	0.1539	5.4848	-7.1285	13.4639	7.1558	-1.9637	-25.2070	-14.0198	-8.7995	23.2572	-0.5545	4.6411	-2.4270
448.0029	-6.0860	4.9610	-68.7072	3.5286	-5.8879	3.9162	3.3040	16.8923	0.8132	-0.9948	-4.6661	1.1171	22.1862	5.3988	7.2543	5.7893
456.0030	5.4927	11.2816	-73.2258	9.7624	15.8991	12.9135	13.7065	10.4969	8.0300	18.3289	0.5785	10.1202	17.7304	10.9967	6.9889	9.1730
464.0030	7.1053	12.2471	-68.5163	6.0027	29.4945	10.7735	20.2173	7.3924	12.6121	17.6487	4.8169	7.9092	-0.0368	5.1618	15.6985	3.4008
472.0031	-11.7696	-0.9292	-79.8433	-5.2145	-5.1910	-1.2331	-2.2644	-2.0969	2.8721	0.6704	-1.2952	-5.1376	-12.6524	-7.3397	6.5545	-7.8580
480.0031	-13.1999	-5.1157	-75.2376	-5.7299	-4.8313	-4.0262	-2.1056	-3.4459	-4.7570	-7.1845	-10.7268	-10.4835	-1.7153	-12.9470	-9.4220	-11.6717
488.0032	-10.4760	-1.6791	-61.0612	-1.4999	4.7616	1.3250	3.3603	4.4834	-4.2351	-0.0214	-7.1087	-4.3862	4.0151	-7.5159	-3.4810	-2.1721
496.0032	-13.9443	-5.8570	-56.1170	-2.4764	-7.0983	1.2305	0.5684	-2.1534	-8.1678	4.9616	-9.7496	-3.0467	1.9407	-7.4892	-2.1940	-1.8926
504.0033	-7.9538	-5.2445	-44.2639	-2.2197	-11.0665	2.9704	-3.8026	-5.4396	-6.8606	12.0766	-7.9366	-0.2373	-8.5045	-6.7222	-2.2533	-2.4403
512.0033	-8.1660	-5.4858	-39.1854	-2.8912	-14.4042	1.6050	-15.2689	-18.9062	-5.7056	12.4589	-6.4895	-0.2154	-32.9771	-5.5781	-5.2993	-2.6531
520.0034	-4.5856	-6.9538	-30.4694	-1.6809	-2.0130	4.4847	8.3629	-11.2790	-7.8331	16.5123	-10.4916	-2.7487	-50.1969	-7.1680	-8.7371	-6.6845
528.0034	-0.1268	-1.4319	-14.0575	2.4802	1.2461	12.9368	15.8699	12.3154	-1.5117	28.7019	2.1133	5.2632	-45.7149	3.3748	6.1641	3.1009
536.0035	-7.6550	-6.1806	-17.4601	-2.6135	-9.4033	3.4558	-20.3905	-35.6252	-0.3132	24.7947	2.3421	6.9189	-18.7518	-1.3745	0.8684	-1.8941
544.0035	-5.3080	-12.9224	-12.9451	-7.9517	3.9511	-2.0453	-13.3446	-53.1763	-4.9685	22.3188	-8.1201	0.0639	-1.1440	-17.2297	-12.7383	-18.9988
552.0036	-7.2391	-8.7151	-2.6848	-2.9666	-3.7611	7.4552	1.3148	8.9132	-7.0581	20.8413	-4.3161	-0.7876	-1.8210	-3.7427	-2.5155	-7.3889
560.0036	-14.9319	-9.4976	-13.3685	-0.9094	-21.0261	6.0455	-4.4703	19.4018	-12.2410	11.0324	-7.2220	-1.1028	20.8123	0.8946	-4.2448	1.3441
568.0037	-11.5464	-12.3729	-10.7903	-5.3827	-4.9349	-0.3363	12.8980	8.1180	-13.1301	5.5304	-8.0991	-3.7473	47.5688	-16.2796	-5.9941	-6.6160
576.0037	-13.2911	-9.8305	-3.3891	-6.7681	-2.5554	-3.9230	11.9885	12.9911	-10.2083	-4.6452	-3.8257	-5.1201	47.7304	-15.7796	3.3665	-4.1484
584.0038	-8.2556	-8.0348	-13.3529	-4.5310	-11.4552	-3.8665	-5.5647	-5.9434	-9.3665	-1.1244	-7.3883	-1.8630	42.2860	-12.3031	-5.2824	-3.6606
592.0038	0.9162	-6.1289	-11.8442	-2.7709	-3.5517	0.8163	-5.5363	-11.8521	-5.4021	11.1426	-5.1308	0.4835	22.6760	-11.4515	-13.0789	-7.7271
600.0039	0.8244	-2.7757	-6.6103	-0.3974	-1.2571	2.7122	-8.1689	-8.4069	-0.9624	9.9522	-2.0374	0.3493	-0.1643	-1.5090	-10.5917	-5.5857
608.0039	14.7530	0.2202	-8.3923	1.9914	-7.8007	6.1554	-10.0663	-16.8167	3.9735	23.6624	1.5514	7.6374	6.5596	-0.7016	-13.6506	-6.8128
616.0040	24.6312	1.3933	-2.2385	1.5718	-8.6019	8.5032	-7.7890	-15.4743	8.6800	33.3494	10.8201	11.2451	6.6798	-5.2053	-17.3100	-8.9278
624.0040	17.0259	0.6743	-0.6865	1.2559	-9.5970	6.5274	-14.7566	-11.9413	6.4214	23.7339	10.6389	7.3409	-5.3399	-3.1644	-20.4291	-5.6339
632.0041	13.5167	-4.0821	-5.6049	-1.6222	-19.9212	2.2566	-24.1848	-23.3031	-0.1603	19.4788	0.2157	4.0062	2.8944	-8.5650	-25.9128	-10.8371
640.0041	9.8040	-8.6196	-0.5162	-6.4904	-14.9673	-2.4454	-14.7382	-24.1102	-3.9514	12.9070	-6.3187	-2.4121	3.8053	-17.1118	-23.0403	-19.7638
648.0042	13.3329	0.1739	11.2266	-0.3947	7.7200	7.7807	8.0610	7.8632	2.3474	22.0509	5.1920	4.2893	-8.4196	-6.3762	-3.0356	-5.8579
656.0042	16.0628	6.6554	13.5549	5.8124	7.9220	14.7756	7.3901	14.9563	7.0154	32.2069	14.3196	14.3856	-9.8470	5.6278	7.9368	9.2364
664.0043	-2.3680	-4.8727	2.4323	-2.1702	-5.1100	0.8327	-7.9548	-6.4628	-5.1299	7.2313	-2.9249	-0.0105	-0.3233	-5.5543	-6.3923	-2.5956
672.0044	-11.7606	-10.9965	-1.6562	-7.5224	-9.1710	-5.6565	-9.1646	3.5821	-14.5619	-10.1823	-14.9869	-11.9339	4.9639	-14.8572	-13.5822	-10.7834
680.0044	-3.5861	-4.6210	9.6220	-3.1326	-7.4354	-1.4889	5.0294	21.1066	-10.2719	-7.7872	-8.1793	-7.2747	-10.3556	-7.8662	-3.5550	-1.6807
688.0045	2.7874	3.6267	21.5770	4.5134	7.8189	6.1057	26.1382	35.2873	-2.6985	0.4064	2.2812	1.6302	-13.9797	5.2614	10.7912	11.6837
696.0045	5.8906	8.0432	23.6927	8.7381	11.4058	11.7672	23.4001	32.7977	2.6250	12.4933	9.6047	10.4130	-8.8851	14.0903	18.6688	19.8016
704.0046	2.2519	0.6918	13.7954	2.0252	-9.2383	3.5510	6.6980	3.4804	-0.9378	8.6521	4.2418	4.9078	-37.0136	4.0331	8.4610	8.9669
712.0046	-3.3767	-6.4256	6.5468	-5.6272	-13.0243	-2.3908	1.3688	-3.6292	-4.6917	2.5125	-0.2378	-4.6524	-50.5958	-8.9285	-0.6440	-4.9876
720.0047	-10.0434	-9.1725	7.8219	-11.4593	-0.6101	-10.2001	-15.5016	-21.2049	-5.0461	-9.4219	-3.9095	-10.4604	-24.3972	-17.7500	-3.7840	-14.3173
728.0047	-11.7299	-11.0065	10.1353	-14.3401	4.6954	-17.0427	-18.6269	-30.6400	-7.6463	-22.0092	-10.1113	-14.7493	2.3301	-25.0179	-7.5453	-19.6065
736.0048	-1.2452	-3.2660	17.1028	-5.1400	8.8257	-4.1381	1.2387	2.5759	-2.5566	-5.3068	0.6007	-3.3649	23.5552	-11.9967	0.9744	-5.2994
744.0048	0.0451	-0.0606	19.9039	-0.5041	8.1984	-0.0084	0.0096	-0.8152	0.8420	2.7598	5.9267	4.4823	33.3679	-2.5720	6.3670	3.7131
752.0049	0.3819	0.9562	19.6608	1.2927	2.0767	1.3988	-1.0462	3.2539	0.8159	3.2596	4.8364	5.4257	29.6867	2.7877	7.7006	6.0496
760.0049	7.6961	9.0436	22.6365	11.1180	1.5750	12.8805	5.6118	22.7438	7.8912	17.2164	14.1324	15.5486	29.4297	22.6311	12.7693	19.4065
768.0050	2.3857	4.9147	14.5639	9.2278	5.4596	8.4666	6.0833	1.0442	5.3586	14.1264	9.2657	13.5332	35.7944	17.4603	7.5258	15.2533
776.0050	2.9211	2.7622	12.3766	4.6551	9.2521	6.2648	13.8258	12.2364	2.3184	9.6728	4.9341	7.1228	28.4256	7.1168	8.4102	7.2316
784.0051	10.3053	9.3808	22.9300	7.3330	8.4673	7.2723	6.3957	12.3207	9.8110	8.6850	11.1219	9.9048	4.3805	16.3037	13.1593	10.9267
792.0051	6.6883	4.2169	21.1509	2.1292	0.1577	-0.6822	-4.8531	-19.8849	9.1772	5.3101	11.1859	8.4253	-3.0039	7.2293	9.0735	5.1464
800.0052	3.2967	0.4432	16.0249	-0.9166	-9.1489	2.1144	3.5921	10.2152	4.1870	7.7081	12.5785	4.6082	-1.5815	0.3925	9.3954	3.5064
808.0052	2.3336	4.8880	15.5659	3.9226	-6.7488	5.7849	5.9497	34.0860	3.8569	0.7309	11.1065	3.0452	-3.0320	10.9465	8.1304	10.3764
816.0053	5.9943	7.2272	13.1956	5.0713	7.1880	4.7847	4.1429	13.7590	7.3194	3.0346	12.1322	6.5735	5.6524	9.4137	6.8979	10.5754
824.0053	9.0334	4.7332	12.6765	-0.2363	12.1360	1.2373	1.7368	4.9036	6.9014	2.6348	9.1358	2.1999	-2.8109	-2.1037	3.7277	-0.6035
832.0054	5.5250	1.1767	11.2872	-3.5774	3.7582	-3.4973	-3.9380	1.7610	2.1659	-6.6644	-0.0003	-4.9116	-18.4340	-5.5088	-0.8025	-7.5447
840.0054	3.5719	0.3460	5.1709	-1.5689	-9.0624	-0.0349	-10.1666	-5.8416	3.0480	5.2943	6.1346	2.3748	-15.2926	-1.0403	1.1368	-0.3990
848.0055	2.7154	-3.7091	1.5453	-3.3522	-18.0201	-2.8422	-16.3134	-14.7296	-0.8427	2.6742	0.9598	-1.1162	-18.3432	-5.4880	-10.9729	-5.7354
856.0055	14.7836	2.2015	13.8144	1.3856	-5.2148	0.8836	-2.4512	-6.0044	2.6836	4.7141	0.1064	1.0442	-25.2989	-0.0977	-10.6789	-4.4199
864.0056	22.1247	12.8774	23.2112	10.3189	8.7646	12.2291	2.8459	0.5056	15.2920	24.0211	17.0847	16.3987	-21.6800	18.6493	7.5574	11.9241
872.0056	7.4308	3.4738	12.5083	3.5594	-0.5184	3.6531	-12.3288	-12.5614	6.3112	10.2136	3.6726	6.1277	-2.9953	10.3696	-1.6035	0.4458
880.0057	6.4697	-2.8439	11.0385	-1.7228	-4.4114	-0.8449	-8.6617	-10.4414	0.1127	5.2547	-4.8037	-0.2322	23.5960	-2.2553	-8.4825	-11.2774
888.0058	12.2969	1.9547	15.7952	1.7713	-0.5779	4.4454	-6.6769	-6.6444	7.3333	16.2957	7.6438	8.0965	31.4090	3.4249	-2.3458	-3.8770
896.0058	9.1388	1.3152	9.7636	2.1416	-5.6629	3.8386	-9.9498	-12.5479	7.3747	16.0710	9.0387	8.9665	27.5831	5.0345	-3.0372	-1.3810
904.0059	2.3642	-5.5951	2.4747	-4.3644	-8.1933	-4.2608	-3.9437	-24.7340	2.9529	6.2930	3.6061	1.1610	22.8659	-7.6642	-6.1159	-11.2502
912.0059	-8.4855	-16.1764	-3.3946	-14.2476	-5.3912	-16.8079	4.5931	-24.7748	-9.9508	-19.3760	-15.5872	-18.3363	16.8780	-28.1150	-19.0065	-29.8186
920.0060	2.7307	-7.2261	9.9802	-5.5124	2.9417	-4.5755	22.8471	2.2171	-5.4896	-2.9777	-7.2237	-7.0463	10.5078	-15.3144	-4.9836	-14.1351
928.0060	10.2836	5.2579	22.8357	3.9650	9.7297	7.1011	17.2162	-1.4388	9.5248	20.7638	15.4317	13.3165	-2.6168	6.6039	19.5671	8.8063
936.0061	-2.9535	-2.8614	6.3849	-4.1671	5.7484	-2.8360	2.5029	-1.3428	-1.5875	-2.5771	-2.5967	-3.7420	0.5239	-6.3406	4.4811	-6.3418
944.0061	1.6430	-0.6545	1.7416	-0.3236	3.0806	1.4648	12.1194	22.1509	-3.2433	-3.2008	-5.1810	-4.6158	7.3960	-2.2078	-1.8267	-4.2000
952.0062	0.6988	2.3184	11.5512	2.5531	3.2611	-1.2166	5.4857	-4.7397	3.2510	-5.0070	1.7797	0.6639	-10.3237	7.4697	2.9154	3.0865
960.0062	-4.7741	-2.7846	12.0337	-3.5438	4.9234	-7.9512	2.0627	-12.5906	-1.4531	-14.9546	-4.5851	-7.1222	-15.1074	-3.7430	-0.6986	-5.8347
968.0063	4.1734	4.2109	14.3973	1.6545	11.3227	1.9787	8.5864	13.6820	3.0032	-1.6844	3.3074	0.4712	-5.9892	3.2496	6.9346	2.8300
976.0063	1.3819	4.9026	13.6495	2.7514	11.1153	-0.9386	-0.4654	6.1636	0.6658	-10.8859	-4.3079	-1.5925	-2.6449	7.0666	4.3735	3.7160
984.0064	2.7125	2.9920	14.9842	2.0143	4.6497	-0.8014	8.1802	13.2027	-0.6530	-9.4954	-2.4571	-1.9237	-1.3596	3.6565	2.9949	3.1399
992.0064	7.2196	9.1442	20.8973	6.5012	6.9725	7.1566	16.9614	28.8639	8.1095	3.3634	15.1546	6.6633	-18.7460	13.1831	14.4950	14.9215
1000.0065	0.5022	9.3307	17.9353	5.9784	14.8635	5.0139	12.1559	21.2054	5.7990	-3.2387	8.7630	3.6741	-36.4861	14.9394	18.7305	15.8910
1008.0065	-2.3863	4.8781	12.2816	3.9254	15.8321	4.6484	15.6070	13.7252	-0.0072	0.7470	1.2322	1.9338	-41.7040	8.4255	16.4181	11.9556
1016.0066	-4.6852	-0.3404	5.8207	0.5795	16.1966	0.7257	15.4771	8.0198	-7.2782	-5.7591	-10.9886	-5.7981	-45.4565	-0.7303	4.1013	2.2561
1024.0066	-1.3434	-0.2216	4.8593	0.4258	14.1171	-1.7693	12.7730	2.3511	-7.6669	-10.0968	-15.9381	-7.3010	-36.3272	-1.6724	-0.4028	-1.8090
1032.0067	0.1492	0.9938	13.3453	1.7402	6.1206	-0.4255	2.9494	-2.5840	-2.3749	-4.5395	-8.1059	-2.1696	-22.7301	5.3371	2.0324	0.4420
1040.0067	0.2927	2.2161	19.6576	3.2442	9.3064	0.5772	0.1919	5.3983	-1.5065	-7.0913	-8.1314	-2.2003	1.4821	9.4834	0.2053	0.6065
1048.0068	13.8298	9.8212	23.4320	9.4878	10.5117	6.7318	16.6247	11.4686	9.9406	7.1867	9.6310	11.5852	31.9457	16.6418	10.6103	11.2556
1056.0068	17.5876	9.8201	25.4370	7.1318	9.0193	3.9933	17.7077	8.2045	13.0485	5.5906	13.8927	11.0717	35.1163	11.6526	10.8051	7.2386
1064.0069	15.6771	10.5971	26.5676	5.4777	21.3300	3.3642	6.9532	15.2183	8.6758	-2.1216	3.3813	4.4568	26.1898	9.2203	7.4967	2.5932
1072.0069	10.9636	11.5295	23.5633	7.7504	16.9279	5.1664	-1.1187	6.2292	9.6221	2.5753	8.3254	9.6661	16.9736	15.2409	11.4621	12.0095
1080.0070	1.6056	4.8374	19.3537	3.9546	9.4223	-1.4301	2.3053	4.9002	1.0231	-11.9010	-1.0944	0.3108	7.6856	7.9087	2.9504	7.1825
1088.0070	12.4682	13.5449	24.4001	10.3621	18.5980	6.0192	12.9448	14.8595	8.7516	-0.6933	8.2277	9.7405	1.5984	17.4583	13.6687	17.6527
1096.0071	11.2353	13.1072	20.5958	8.6707	12.5925	4.7663	1.4642	-6.1902	12.6496	6.6033	15.6514	14.8944	-5.2156	16.2633	19.0489	19.6223
1104.0072	-1.6447	0.4438	12.6443	-1.9787	10.1327	-6.8096	-0.7248	0.3011	-4.1821	-19.3203	-8.6007	-7.2359	-1.6089	-4.7473	-1.3536	-1.9973
1112.0072	10.1818	11.7009	20.3490	9.0456	14.5513	3.6259	13.0357	21.5025	6.1645	-9.7590	4.2024	3.1030	-9.5893	15.7266	4.9626	13.2724
1120.0073	11.7525	14.1038	20.3594	12.8628	4.7972	5.5566	11.3032	2.3186	13.2597	0.6036	15.1342	12.8061	-20.6431	25.7405	11.7219	22.2171
1128.0073	1.1548	2.3491	12.1347	2.2161	-0.3531	-3.7000	10.9683	-5.6051	2.8776	-9.6718	2.5303	0.2694	-14.6605	5.5397	4.6741	4.8842
1136.0074	3.9317	4.8340	14.9710	0.4068	1.6740	-4.4295	3.5151	3.5973	5.9260	-14.1976	6.4072	-2.5369	-24.6150	3.7127	4.1031	2.4278
1144.0074	9.7031	8.3254	21.6568	0.4703	13.7715	-6.4075	-2.5270	8.5183	4.3433	-24.5656	-1.3271	-6.9818	-23.9553	0.9353	-1.6255	-0.7398
1152.0075	7.6665	8.9394	24.4983	3.0462	17.0907	-4.3099	11.8964	11.9969	4.0063	-21.2667	0.2583	-2.9679	-16.3442	4.7750	7.9358	6.2294
1160.0075	-5.7502	4.1216	22.0787	2.0118	6.8200	-5.2784	14.9479	5.7325	2.5577	-19.3771	6.3717	-0.9842	-19.2743	7.3331	15.8505	12.7198
1168.0076	-6.2484	2.7621	25.3802	0.6743	22.5612	-6.2073	14.8734	4.9797	-2.6147	-21.9463	-3.4558	-3.5334	7.6499	0.5958	13.3324	8.2011
1176.0076	6.1757	13.9137	34.3226	10.2404	22.6472	3.0545	20.4189	17.1050	7.7651	-9.0646	8.0131	9.9185	12.0002	19.7648	27.4299	23.2904
1184.0077	1.7215	11.3439	30.1260	8.8916	-2.2209	-0.3011	9.6668	17.9252	7.5424	-16.3928	10.0781	6.5404	-2.6365	23.3571	21.6833	22.6014
1192.0077	-7.7136	1.7542	19.1773	-0.8065	1.3606	-9.7293	-6.0770	3.2778	-0.3555	-29.5221	-3.2190	-6.7933	18.0294	5.1616	5.0177	2.7128
1200.0078	-9.2965	2.1084	9.9275	0.0003	-0.8384	-6.8188	-16.3427	3.6124	0.4853	-23.8841	-4.0001	-5.2243	28.1043	9.2937	4.2380	2.0099
1208.0078	-8.8774	-2.1770	-4.0315	0.0840	-11.5613	-6.1281	-22.3481	-7.0989	-5.3676	-17.3448	-11.0901	-4.4316	38.8973	4.7049	-8.9198	-0.6129
1216.0079	-15.8502	-11.8839	-20.6991	-8.1315	-7.5514	-13.4119	-19.3036	-36.6773	-10.6583	-16.1803	-14.6139	-8.7171	45.5819	-16.8963	-16.4057	-12.1701
1224.0079	-27.0052	-16.8918	-39.8424	-14.5376	-17.2215	-18.1133	-14.8964	-18.9759	-16.8287	-29.2152	-19.4941	-19.7790	24.3409	-26.2078	-14.4243	-17.9090
1232.0080	-21.4938	-11.4753	-58.5703	-9.9598	-24.2558	-15.2260	-22.8813	-7.6255	-18.1197	-32.6810	-27.6223	-19.9237	19.1884	-18.9757	-19.8065	-14.3015
1240.0080	-13.3842	-3.3413	-66.7510	-3.4091	-16.0888	-8.0347	-20.9750	-19.5691	-7.2715	-15.3420	-16.2763	-7.2029	11.4517	-7.2117	-9.2930	-4.2593
1248.0081	-14.7547	0.2772	-70.6522	0.0195	-10.8136	1.1398	2.2509	16.8466	-4.6604	-5.5975	-6.1205	-3.2786	3.4668	-0.8000	6.1244	5.9092
1256.0081	-14.3728	3.4402	-84.7941	3.8896	-9.5555	5.4585	1.4251	23.3089	-3.8088	-1.4602	-4.0038	0.4970	11.1328	3.8652	4.7894	12.9817
1264.0082	-19.2376	-2.1100	-101.8087	-2.4885	-18.5319	-1.7667	-18.8939	-8.2413	-3.0436	-3.7675	-4.8701	-3.5034	6.1523	-5.4666	-5.2370	1.4317
1272.0082	-22.5611	-10.7043	-108.7607	-10.3571	-32.1752	-7.1486	-24.2799	-8.2430	-8.6104	-8.6051	-12.1381	-13.5707	6.1556	-18.6672	-17.2875	-15.4872
1280.0083	-15.8300	-9.7854	-105.5745	-7.1337	-33.2836	-3.3544	-20.9352	-8.6796	-8.2303	-1.0729	-14.1313	-11.2553	0.9117	-14.5358	-23.8870	-16.1514
1288.0083	-6.9175	-6.0902	-87.9774	-4.5915	-20.6483	1.5554	-10.6187	-3.9927	-5.2880	8.8214	-10.3369	-6.7007	-13.4078	-12.6984	-18.4850	-13.2744
1296.0084	-0.8663	-0.3764	-63.8145	-2.1499	-13.2047	4.8694	-11.8970	-0.2079	0.0922	15.3354	0.1538	1.3630	-13.6312	-7.9004	-4.8406	-3.3528
1304.0084	-6.8882	-0.7060	-52.4883	-1.4392	-20.8300	1.4553	-19.8290	-8.6033	0.5139	7.8957	3.5042	2.6232	-11.6232	-2.1084	-1.7619	3.1674
1312.0085	-17.2803	-11.0227	-48.6186	-8.9432	-28.2857	-8.3851	-14.8550	-8.1696	-11.9100	-10.3492	-10.6657	-10.0098	-0.3423	-17.0872	-9.8819	-7.8675
1320.0086	-18.7148	-12.5413	-38.0785	-11.3890	-24.0745	-9.9640	-16.4628	-11.9432	-14.9696	-10.7594	-12.8827	-10.8353	-9.1051	-22.3913	-5.6102	-8.1067
1328.0086	-18.2445	-6.8368	-24.9820	-6.1786	-10.3092	-1.9435	-10.7982	-7.1574	-7.3955	1.3866	-0.5044	-3.8411	-43.6432	-8.8798	5.5636	2.8311
1336.0087	-24.0747	-12.2590	-26.7435	-8.9819	-19.0070	-4.5067	-11.6202	-12.6429	-9.1566	0.4245	-0.2211	-6.5877	-37.8121	-11.8316	0.7508	-2.0546
1344.0087	-31.6047	-23.8564	-38.0824	-17.3597	-44.0037	-15.1912	-28.3288	-25.2889	-20.3542	-13.9033	-15.7160	-18.2641	-14.4717	-26.7796	-18.7770	-18.7471
1352.0088	-28.2782	-20.7047	-30.7194	-11.8490	-28.1520	-10.4299	-14.8186	-12.3156	-20.3206	-14.2959	-20.4389	-18.9380	-10.4679	-18.1371	-23.4161	-17.4028
1360.0088	-21.8565	-10.8514	-18.0798	-3.6965	-3.8904	-3.6157	-12.4625	-19.8034	-9.2962	-3.3974	-9.2304	-6.2168	9.1528	-3.0079	-11.0683	-4.5932
1368.0089	-21.4110	-14.1377	-22.0416	-9.7713	-4.4045	-8.9025	-23.3895	-21.3629	-13.1835	-10.1766	-15.3271	-11.7726	33.7813	-16.8769	-16.8924	-14.9333
1376.0089	-15.8387	-14.4462	-20.5785	-8.5516	4.7353	-5.7409	5.6235	-1.3303	-14.9207	-8.6714	-18.2251	-15.4606	20.2585	-19.8651	-20.1292	-18.9116
1384.0090	-12.3197	-7.3470	-10.2609	-1.3727	7.1609	1.9992	16.3647	-5.8792	-4.1251	7.6786	-1.1454	-2.5411	-16.0130	-2.4707	-1.9862	-2.6061
1392.0090	-14.6637	-6.5613	-7.8245	-2.6253	1.0153	2.5083	2.4058	6.0367	-7.1749	3.8976	-4.7387	-5.4796	-33.0207	-1.1481	0.2102	-1.4566
1400.0091	-9.3862	-1.9686	-5.6926	3.0986	6.5081	7.2346	9.1607	20.5391	-7.0047	4.0498	-7.7181	-3.7963	-28.6457	7.4625	-2.3169	3.6072
1408.0091	-1.2229	3.7190	3.1120	7.6980	9.9991	10.9883	9.8782	3.8203	4.1820	18.5723	8.5223	9.5465	-17.8586	15.5203	6.8611	13.0137
1416.0092	-0.0664	1.0678	9.6633	1.9654	12.6466	6.8361	-0.1149	-8.8835	4.4809	19.3311	9.4435	8.3917	-7.7403	4.3541	7.7528	5.1896
1424.0092	-4.5911	-2.3590	10.0586	0.4075	7.4899	4.5521	0.3318	-4.2434	0.8017	13.3897	5.2997	4.6037	8.5109	2.5767	4.1671	1.9561
1432.0093	-2.8741	-3.2349	14.2356	1.5395	-0.9765	5.3546	15.7461	17.3899	0.5856	10.4421	9.3831	4.0299	33.5790	3.0588	2.0133	3.0333
1440.0093	6.1584	1.5378	20.7584	3.9507	1.2798	7.6293	21.8704	19.2223	6.0958	16.1003	16.3286	9.9218	34.8536	5.4968	8.8321	7.3449
1448.0094	4.3356	3.0632	16.0392	2.9411	-1.1845	7.8916	0.4539	0.7440	9.2742	23.1791	21.0860	14.9005	22.6275	6.7662	14.8179	10.9098
1456.0094	-5.1034	-7.6577	8.3944	-7.6689	-3.3825	-0.7895	-9.8427	-1.7749	-1.8745	9.8730	8.7879	0.0828	24.6460	-15.0624	-1.7343	-6.6062
1464.0095	-5.8067	-11.4691	9.9300	-10.8037	0.1737	-6.6892	2.1350	-6.1632	-7.0427	-1.6438	0.0900	-8.1998	6.0324	-24.2640	-9.2041	-14.2087
1472.0095	-2.8134	-5.3279	10.6860	-5.6963	0.8770	-2.5138	2.6885	-8.9164	-1.2680	4.4986	7.5982	-1.1418	-21.9806	-12.9281	-0.1518	-2.7940
1480.0096	-4.4583	-7.0280	5.8313	-6.7454	-2.8993	-2.5194	-8.2722	-9.9020	-3.8341	4.3088	3.6684	-3.4649	-22.1697	-14.2811	-7.4287	-5.9969
1488.0096	0.8783	-6.4467	8.2738	-3.0599	-3.6984	-0.2565	0.8127	-6.6469	-6.3264	6.0812	-3.8190	-2.7030	-15.4590	-10.0941	-12.4005	-6.2413
1496.0097	15.9484	5.2392	16.5278	8.1866	11.9879	11.2710	16.0231	0.1714	3.1964	24.1467	4.7427	12.0501	-11.8301	6.9950	-0.7017	8.5996
1504.0097	17.1359	7.0495	15.2815	7.0367	12.0877	10.9725	-4.7042	-16.4288	8.7974	29.0695	9.1032	14.9230	-13.9492	9.2942	0.7076	6.3048
1512.0098	9.9091	-0.2605	11.5522	1.2505	-11.3174	4.5901	-17.9434	-13.0610	3.8345	16.4329	0.7659	3.7731	-17.0515	6.3684	-10.5352	-7.0437
1520.0098	12.1119	-1.1045	9.7681	3.7731	-11.8146	6.0764	-6.0138	-13.8168	4.2824	19.5661	0.5228	5.1316	-6.0252	8.9086	-15.6199	-7.6231
1528.0099	9.2097	-4.9014	3.3289	-2.3995	2.8274	1.9266	-9.1969	-35.9088	3.2939	22.6733	1.6326	4.2700	-1.6379	-7.6782	-15.2972	-13.9370
1536.0099	6.8493	-4.7348	7.0555	-4.8720	14.6297	2.3982	9.4414	11.4104	-4.1291	8.3069	-6.5447	-6.4190	3.8876	-15.0239	-11.4082	-16.9223
1544.0100	10.7612	6.7981	16.6730	8.6937	19.9655	12.1852	25.1850	39.8251	1.4658	9.0085	-1.6569	3.2626	16.8151	12.7706	1.7549	4.7765
1552.0101	5.7303	6.0700	14.0170	7.2337	9.1676	8.0998	2.8265	-2.3809	7.6157	15.2238	7.7593	10.9756	6.1935	15.9779	9.2700	9.2886
1560.0101	8.0383	1.4366	13.3483	0.7579	5.2917	4.9522	12.8914	5.6767	4.8501	14.6313	6.8253	5.6405	4.6288	0.9053	9.0732	-1.1960
1568.0102	21.9004	10.6525	19.4077	8.8974	12.4244	15.1832	27.7383	29.6611	10.8821	27.7653	15.5770	16.0075	16.1637	10.8287	16.6092	10.8718
1576.0102	25.9355	13.8781	20.1767	9.0594	9.9487	14.6494	15.9315	21.8372	15.5878	28.9392	22.5505	19.2202	7.6497	11.4411	17.0344	13.7902
1584.0103	22.9001	7.2247	15.7951	4.4698	-4.8172	7.2748	17.4725	12.3105	12.8579	19.4274	17.6852	12.1361	13.6358	4.5842	7.1612	2.4602
1592.0103	17.9192	2.3447	7.9854	1.8973	-15.4476	5.3021	2.9296	-10.8138	11.9874	25.3563	16.5833	13.1325	15.3115	2.8474	2.9258	-2.0271
1600.0104	8.3471	-5.2626	-1.6461	-7.6869	-11.0500	-1.4214	-16.6355	-26.8350	5.6513	19.3350	8.4321	3.1277	3.6788	-14.1433	-5.6382	-16.1846
1608.0104	0.8990	-14.1512	-10.5072	-14.3604	-20.1055	-9.3198	-23.5461	-30.2089	-3.4124	5.6201	-3.8117	-8.3257	23.1388	-27.3970	-21.9419	-30.1073
1616.0105	3.0060	-16.8436	-11.8242	-17.1495	-34.6552	-12.7060	-40.5533	-38.2818	-6.4372	3.0019	-7.0331	-10.5374	24.1902	-33.4691	-33.0683	-34.8298
1624.0105	7.7494	-15.0585	-1.6973	-18.8706	-18.7358	-14.1452	-25.2627	-30.7343	-6.1066	-2.3251	-8.4693	-14.9964	-2.3432	-39.6747	-29.3063	-38.4765
1632.0106	9.3571	-6.1271	13.3105	-10.2951	4.7033	-5.9463	13.2975	1.0462	-0.4022	-0.7572	0.1793	-9.2187	-13.6023	-23.9117	-6.6031	-21.7638
1640.0106	16.6632	8.4885	26.4286	2.8669	17.1038	6.3364	25.9145	21.0358	10.2673	11.0080	16.0328	7.0895	-20.7068	1.4677	16.2329	5.7175
1648.0107	23.1549	12.1156	29.2901	5.3470	23.8104	7.9997	25.5489	3.8644	16.3912	20.3062	21.1481	14.7178	-15.8139	4.9532	21.8050	8.5983
1656.0107	20.8814	9.9771	28.1506	1.6201	28.1257	7.6196	17.2747	1.4987	17.5428	23.3999	22.6265	12.8174	-7.9246	0.1941	21.3283	1.5502
1664.0108	14.5707	11.1577	30.8598	2.9604	27.2580	7.8686	8.0467	15.2761	15.9889	14.2742	21.4858	9.9839	-0.6240	6.7478	20.0286	5.6677
1672.0108	3.1898	3.6687	24.3212	1.0918	9.1741	0.8061	8.6698	6.7471	6.8730	0.4096	10.9535	3.7660	6.5397	4.7476	12.2329	4.1766
1680.0109	1.1013	0.9909	17.3494	-0.0151	-1.2374	0.7050	10.1234	20.4530	-0.7722	-3.6598	1.7667	-1.1441	-4.1691	1.4490	8.1807	2.7087
1688.0109	9.2252	7.9942	21.7712	7.7626	10.6358	8.8853	14.7956	30.5480	1.0094	4.8184	-1.3952	5.0970	0.1526	13.8130	10.8682	10.3438
1696.0110	10.0375	7.8346	23.9362	8.0397	21.5555	9.3938	18.6677	11.2238	4.9793	12.1228	1.2197	7.4913	-14.0643	14.7965	12.1933	7.9784
1704.0110	10.6441	10.6780	23.9396	5.4479	21.3491	7.4192	8.2483	12.3407	9.8690	6.4259	7.2288	3.4765	-61.3991	14.6250	13.7187	6.1485
1712.0111	5.1974	8.0419	20.9158	4.3165	6.9108	1.7773	-10.7985	-2.4583	6.7414	-4.2568	0.8924	0.0305	-58.9493	16.5490	5.2356	4.3437
1720.0111	-1.9966	-1.5284	15.5550	-1.6425	2.8033	-4.7155	-9.8860	-11.4306	-1.6843	-11.4077	-8.9828	-7.8584	-32.2825	2.7963	-7.3796	-7.8282
1728.0112	12.7963	10.6486	22.6974	8.3811	16.9403	7.4390	10.2819	22.7093	6.8706	0.5572	1.2477	2.9630	-14.1541	17.2482	4.4588	6.0064
1736.0112	19.2417	19.9520	28.4627	20.6249	16.8665	17.3424	15.7641	18.2115	15.5821	18.2160	12.8266	21.7497	6.6840	40.3846	19.0705	28.0472
1744.0113	2.3197	7.9249	18.6115	11.5682	9.6553	6.4012	11.5621	-1.0049	6.0013	4.0799	4.8145	10.7234	6.1170	24.2645	10.0273	17.6773
1752.0113	-0.4396	4.5841	12.2421	6.0969	7.6693	1.4220	6.5915	8.9506	0.3616	-8.8088	-2.7005	0.4033	0.0996	12.9861	1.4569	8.4863
1760.0114	8.1164	8.5154	16.4484	7.0841	8.9132	4.5821	-1.1567	8.5075	3.7139	-0.6059	0.8968	4.6989	-10.5337	13.4332	3.3056	10.0631
1768.0115	3.6609	4.8297	14.9773	2.8613	7.9167	0.6563	0.6220	8.8604	0.5055	-6.8943	-1.4740	-0.7346	-17.6481	5.5887	2.2018	5.1136
1776.0115	-3.9431	-2.2667	5.7932	0.1361	-9.5207	-4.1732	-3.8864	-4.5951	-5.7467	-10.8975	-8.8283	-3.8244	-7.5302	1.8739	-4.2791	0.8464
1784.0116	-2.2016	-5.2980	2.8911	-2.9099	-18.4252	-6.0831	-11.2004	-19.7089	-4.4872	-5.3339	-5.6692	-3.0729	-13.3094	-3.9229	-8.9695	-4.4075
1792.0116	2.1454	-1.5836	3.9761	-2.6493	-12.1081	-3.2439	-4.2843	9.4311	-1.3796	-8.4860	-0.2667	-5.6668	-8.6790	-4.2730	-8.5708	-5.0731
1800.0117	5.2409	2.1310	3.2852	2.4146	-9.1215	1.6414	-4.8419	16.3149	-0.4996	-3.5736	-0.8994	-0.6034	13.4410	3.9324	-7.9741	1.1345
1808.0117	5.8526	0.8655	4.5150	2.0146	-2.9719	-0.4815	-6.6481	-8.1054	-0.4505	0.2076	-2.9648	2.4555	20.9550	0.8500	-7.9066	-0.0447
1816.0118	0.1349	-4.9628	1.1703	-2.1731	-12.0726	-4.1191	-3.7563	-3.5147	-6.7297	-5.2512	-8.1362	-2.8370	29.0937	-7.3196	-10.3720	-5.0996
1824.0118	-3.9567	-7.7040	-1.8261	-3.3932	-24.0101	-3.8610	-13.5206	-1.8347	-9.1234	-4.2462	-9.7687	-4.4782	23.7189	-6.0618	-13.6374	-6.6288
1832.0119	-5.4588	-4.7918	4.8612	-1.6668	-11.1512	-3.1141	-17.2036	-8.4152	-4.5530	-5.7071	-8.5552	-4.8362	7.6501	2.0238	-11.1582	-6.5757
1840.0119	-6.6170	-5.0257	8.6621	0.1409	-7.4875	-1.4529	-8.0828	-6.1787	-5.1203	-3.5507	-9.3094	-3.4332	13.4151	5.2553	-8.2970	-4.4436
1848.0120	-3.6261	-7.0829	6.3518	-2.0940	-9.0791	-3.3403	-6.0525	-22.3955	-4.6493	3.2839	-5.6644	0.6578	25.0048	-3.7909	-7.0559	-5.4087
1856.0120	-9.4282	-10.6932	3.2019	-8.1200	-2.1939	-9.5471	-11.7039	-27.5013	-9.4948	-7.3173	-11.4644	-6.6842	23.1039	-16.5327	-9.2185	-12.0782
1864.0121	-17.2889	-12.0616	-0.5482	-7.1881	-9.6282	-9.1396	-12.6186	-3.3850	-17.3929	-19.2961	-20.7415	-14.0813	12.2361	-12.3937	-14.2001	-9.5612
1872.0121	-10.6824	-6.1258	0.4575	-0.3230	-11.7089	-5.4770	-3.7942	-1.3267	-10.8459	-16.5819	-14.2929	-8.0345	6.6717	0.7047	-12.7088	-1.0568
1880.0122	-3.1283	-3.6017	8.1024	-0.5270	-3.2058	-4.7388	2.2919	-11.5522	-4.6606	-8.4152	-6.2478	-3.2408	-2.2484	-1.8519	-6.6495	-1.2420
1888.0122	3.7991	2.9307	17.8309	1.4377	1.2073	1.2931	2.1297	3.8190	2.0552	1.5316	6.3751	3.3597	-17.7968	2.3759	6.0800	6.9197
1896.0123	6.6118	9.4356	15.1352	5.3796	7.6704	3.3155	2.2802	12.7513	7.7729	-1.8688	12.2725	6.1644	-11.3374	10.2620	9.9007	13.7855
1904.0123	-3.2286	-1.7826	-0.2513	-2.5183	-3.9994	-7.1352	-4.6423	1.7583	-4.6893	-19.2637	-4.7035	-8.2060	-5.2505	-6.7144	-11.2076	-1.9397
1912.0124	-5.8297	-5.8970	-3.2094	-6.3757	-22.4385	-11.7358	-18.3687	-4.0100	-7.9815	-25.4443	-7.9047	-13.3932	-22.7105	-11.0742	-19.6962	-7.4561
1920.0124	-1.3773	0.2062	1.5488	-3.0103	-17.9417	-9.2171	-27.4435	-13.0183	-0.2512	-19.8910	-0.3123	-6.4892	-29.1022	-1.8753	-12.1078	-1.0359
1928.0125	-5.2623	-4.4919	-1.4874	-5.9129	-15.4070	-12.0932	-25.6738	-21.6577	-4.9106	-21.0807	-6.2244	-8.9842	-12.7336	-9.7113	-15.4269	-6.2690
1936.0125	-10.0751	-7.4997	1.0218	-8.7389	-14.0707	-17.1795	-19.3661	-19.2426	-8.1195	-31.9932	-11.1383	-13.7683	10.1441	-14.5415	-13.5531	-10.5035
1944.0126	-9.1466	-5.3398	7.2828	-8.0045	-5.7278	-17.3382	-15.1905	-17.4706	-6.1134	-34.1212	-11.1254	-13.1436	18.1796	-12.1757	-7.1981	-9.9038
1952.0126	-6.9642	-4.1387	2.9160	-3.6808	-13.9810	-12.2412	-9.1728	-12.3520	-4.8148	-24.9941	-8.4678	-7.9843	19.3504	-4.0250	-6.6132	-4.4140
1960.0127	-10.7083	-7.6043	-7.8600	-3.9197	-21.9427	-15.8709	-16.0636	-24.7844	-9.6509	-30.0586	-16.6924	-9.0724	49.3425	-6.1456	-15.0707	-6.4589
1968.0127	-10.5528	-12.8359	-7.4606	-9.5307	-14.9393	-20.7744	-24.5420	-32.2531	-16.1603	-35.2867	-24.6715	-15.1417	75.3945	-23.0966	-29.3011	-17.4628
1976.0128	3.2544	-0.2157	9.7646	1.5309	-4.8561	-3.7848	2.7322	19.0103	-5.4119	-16.7635	-4.4417	-3.0421	63.2625	-3.9508	-13.4747	1.5991
1984.0129	9.2052	10.7330	15.3418	10.3980	3.8382	4.0423	13.5631	25.4561	3.5313	-7.1697	4.7669	9.0046	46.4238	15.0021	8.8916	19.4109
1992.0129	-0.1596	-0.8698	6.0680	-4.3953	2.6344	-12.2693	-16.0167	-29.8075	-1.1816	-18.0760	-4.8320	-2.5619	28.6560	-10.7482	-3.1572	-3.8279
2000.0130	0.0001	-0.4918	15.8994	-5.4905	7.2764	-7.7553	-3.6790	2.2023	2.8618	-16.1222	5.2749	-6.7439	11.7503	-9.3006	-2.3031	-7.1211
2008.0130	10.7142	14.7157	28.7436	10.7106	18.0460	8.4120	20.9002	38.5474	12.3432	-2.1801	17.0237	8.8357	10.0197	21.2703	17.7705	19.3170
2016.0131	5.9912	9.6952	18.4766	6.0310	8.4254	-2.1776	-4.3599	-14.1385	11.2454	-8.4465	10.3707	7.1811	2.5574	14.6226	8.8661	11.6399
2024.0131	-5.3201	-3.2154	11.8635	-6.9024	0.5028	-15.5221	-11.5101	-18.1973	0.5225	-31.1613	-5.6844	-13.5822	-1.0355	-6.8803	-9.0197	-13.7131
2032.0132	3.0657	6.3097	21.4994	1.6110	12.7474	-5.5315	9.0306	27.9870	1.6790	-30.6357	-6.4060	-10.9399	1.5741	7.0694	0.2157	-2.4518
2040.0132	13.9429	20.5155	27.9179	13.4949	25.9471	6.5010	12.9785	31.4059	15.4306	-12.3804	9.8837	6.4971	-8.5857	30.1951	18.3773	18.7775
2048.0133	11.2305	15.4243	21.4656	8.2145	18.2517	1.6787	9.9906	14.2289	13.6047	-11.0296	9.0398	5.4530	-7.2264	19.8780	19.4380	12.6054
2056.0133	4.8191	6.5417	10.1259	-0.1559	-3.0787	-7.5215	-4.4288	0.6258	4.5371	-20.0578	0.9092	-1.6059	-2.7808	2.7949	10.5490	3.5404
2064.0134	2.2996	7.1229	11.5364	0.8854	7.8812	-6.4998	0.7458	7.3995	2.4479	-24.3569	-2.8843	-5.4065	-20.9173	4.2529	7.8004	3.9953
2072.0134	10.1674	14.1033	18.7465	8.8668	28.6450	4.5792	31.7981	27.0308	6.0059	-10.0156	-0.7047	1.1394	-47.6522	16.0323	20.7431	13.4317
2080.0135	9.1405	17.4796	2.7498	11.1267	15.6899	10.3894	15.1323	15.0405	13.5265	9.5034	14.1871	13.9760	-52.0371	23.9466	33.3236	24.9610
2088.0135	-3.4290	7.6062	-27.7101	1.1068	11.2104	-0.5875	-11.9454	-10.8633	5.8422	-3.2890	0.9948	3.0370	-14.0524	5.0177	16.1791	6.8633
2096.0136	1.4104	3.2551	-43.6977	-2.5802	18.4598	-4.4523	5.8817	-11.4835	0.8131	-7.6962	-12.8463	-4.5357	8.6796	-9.3296	6.1172	-9.3437
2104.0136	0.4873	6.2847	-56.0487	-0.1232	9.0527	3.6004	13.5972	1.5751	10.5264	10.7512	7.9805	5.3388	3.1745	-0.7800	21.4011	0.5100
2112.0137	-12.7969	-1.0628	-74.6607	-3.7197	5.0875	0.2859	12.5667	7.1082	2.5377	1.4762	-1.0144	-3.2658	26.1446	-6.8260	11.4900	-6.3331
2120.0137	-3.4725	2.5940	-76.0520	1.8318	10.6018	4.9811	23.3427	14.3429	0.5813	5.1154	-10.0175	-1.8090	21.3970	-1.4245	6.3629	-4.9177
2128.0138	5.5605	14.4092	-65.0985	10.0660	8.5367	18.3250	19.2835	26.3121	14.5220	29.6468	15.0916	15.5003	-18.8568	18.1539	27.1252	16.9503
2136.0138	-2.4114	6.2349	-65.2081	5.1357	-6.2657	12.1317	10.8361	16.0463	6.5197	22.5684	8.9945	10.0251	-13.4844	8.9209	17.4058	11.7246
2144.0139	-9.9789	-5.3910	-66.2972	-1.6341	-14.6408	3.0287	-1.8733	-16.9384	-3.8291	16.3732	-6.5032	2.1329	-4.3761	-4.7899	-0.3143	-3.0363
2152.0139	-18.5947	-10.2034	-58.7960	-8.6484	-2.8826	-2.2703	-16.0870	-28.3496	-5.5735	9.4418	-8.5428	-5.8400	-13.8635	-14.0673	-4.2677	-13.4744
2160.0140	-15.5323	-9.7436	-47.0700	-8.6424	2.2980	-4.7075	-3.0162	1.8552	-9.7758	-8.6109	-15.7287	-15.1295	5.1221	-16.8716	-13.2582	-18.3134
2168.0140	-1.0155	1.8897	-34.3541	4.2581	2.5859	7.5677	9.7551	20.8156	-0.7512	7.5567	-2.4509	1.5015	23.9383	4.2320	-3.4335	2.3563
2176.0141	3.2436	5.9796	-25.4438	7.9159	12.9560	12.5331	6.4405	6.7328	4.2380	22.4372	5.2369	12.0289	23.6139	9.5984	5.1171	11.1279
2184.0141	3.4377	2.3113	-14.9448	5.3679	9.0980	9.7157	7.4134	11.6007	-1.8238	15.6917	-2.7584	5.6525	14.4274	3.9560	-2.5055	5.0350
2192.0142	4.0360	6.5018	-4.4997	9.7943	-3.3237	15.3023	1.3209	21.8066	3.1313	22.9159	8.5440	12.2517	-8.9102	18.1298	5.1901	17.1181
2200.0143	3.2001	6.5507	-2.2284	8.8578	5.5614	14.5126	3.8170	12.6705	4.5162	24.6244	10.1640	13.1386	-15.2157	15.9195	9.4672	16.8978
2208.0143	4.1641	2.3328	-4.1617	5.9243	13.5115	12.4295	19.6788	11.5206	-0.7174	24.5576	2.1304	9.7509	-0.5205	4.5110	7.6679	9.1427
2216.0144	0.5092	0.8340	-9.1362	5.9826	0.4708	14.5032	11.8396	6.5471	0.0202	33.7131	8.7869	14.9371	-0.7930	6.6937	11.3171	14.4879
2224.0144	-4.0589	-3.6453	-9.3546	0.3291	-1.2272	8.5317	0.5465	-0.5291	-3.5775	24.4112	5.2612	7.5627	-6.6827	-3.4580	2.5462	6.3321
2232.0145	-8.5000	-8.2397	-7.3095	-4.4567	-4.9263	0.1391	-1.2647	-8.5533	-8.7122	9.1241	-3.6416	-0.8206	-7.4203	-11.6901	-2.5777	-1.8258
2240.0145	-15.9430	-13.2497	-12.4174	-6.5692	-25.1742	-5.4543	-10.6170	-22.9237	-12.3340	2.5326	-7.7936	-2.7157	-1.8348	-11.4884	-5.1227	-3.1681
2248.0146	-12.4418	-14.0688	-6.1089	-8.8953	-6.6017	-4.8528	-4.2539	-9.3510	-14.6216	-0.0471	-12.7745	-8.9951	7.9627	-20.1161	-13.1365	-12.7006
2256.0146	-6.1395	-5.4621	2.3875	-3.7234	16.1174	2.1370	5.7025	2.1482	-5.6465	7.1064	-3.2837	-3.5740	-5.4381	-10.0356	-2.5430	-5.5595
2264.0147	-13.0895	-4.4632	-3.6619	-0.0368	-2.0859	2.5394	-1.4346	-6.2830	-2.5507	6.9950	0.9350	0.6854	-18.2890	5.2571	3.8224	3.5731
2272.0147	-17.2223	-10.6154	-3.9357	-4.6675	-4.3146	-3.4621	-2.3657	-7.0581	-10.8198	-4.7364	-12.5077	-8.6474	-5.3502	-4.4255	-5.9090	-7.4508
2280.0148	-14.7279	-11.4840	-5.6090	-6.2898	-4.7842	-6.4207	-2.8557	-16.7941	-10.8914	-5.9334	-14.1242	-8.4635	7.1506	-9.6980	-6.8599	-10.8091
2288.0148	-15.0616	-14.2640	-9.3802	-7.0805	-16.5951	-7.7489	-5.3269	-16.9128	-13.9808	-6.7622	-17.2140	-9.1493	22.2654	-11.9732	-11.9861	-12.8083
2296.0149	-4.6175	-9.5021	5.3588	-3.4767	-2.5746	-4.7192	6.9989	-10.9915	-12.5378	-3.5968	-17.8729	-5.5403	25.8280	-10.6971	-9.0965	-9.5573
2304.0149	11.5146	6.7409	17.8444	8.2571	3.6407	7.4309	13.3894	-13.4663	7.6886	21.1164	10.9659	17.5754	2.0957	12.5041	16.4263	15.6522
2312.0150	5.0602	4.5468	12.0236	3.1247	-7.6155	7.1805	-6.7364	2.8078	5.8770	18.5583	14.2927	12.6203	-6.1744	7.7242	15.1834	12.7635
2320.0150	-4.3153	-8.4814	4.8632	-9.8366	-13.2057	-6.8400	-18.3509	2.2770	-11.1466	-7.8938	-10.6756	-9.4050	6.7370	-19.2374	-7.5842	-12.1862
2328.0151	9.0605	-1.5948	10.4394	-1.3740	-7.2532	0.5677	9.8367	-0.8879	-0.0867	9.5270	4.0609	4.0791	5.1311	-7.9195	1.1633	-1.4457
2336.0151	15.7451	7.1392	19.6014	5.6446	9.7863	12.4638	29.1430	24.9061	9.1168	25.4519	19.8921	13.4651	-9.2117	4.6032	16.0857	11.6781
2344.0152	13.8471	7.6321	20.9476	4.2911	9.6271	9.1393	19.7815	30.4558	5.8757	13.1161	12.8152	7.7734	-11.5734	3.5901	13.0255	9.5549
2352.0152	18.6798	11.8601	21.2028	10.5110	2.6619	12.7298	19.4756	20.7420	12.5106	21.3960	20.8745	17.0959	-5.4356	16.3077	14.7093	18.5814
2360.0153	9.8846	5.4482	14.4135	5.1405	5.0143	7.5447	11.6434	6.9534	6.9550	16.2620	14.7149	11.4239	2.0000	5.7392	8.3098	11.1116
2368.0153	4.6385	0.0449	11.2303	-1.5334	6.4134	-0.3694	6.3324	0.4479	0.9303	3.2943	5.8318	2.4712	10.9997	-7.9257	2.2352	0.6286
2376.0154	11.0803	7.6448	21.1540	5.2028	11.9570	6.8747	14.9798	5.2411	11.0403	15.4446	19.7357	13.1766	5.1324	6.8371	15.2097	12.5400
2384.0154	0.7307	-0.1558	13.1924	-2.5347	-0.1460	-2.5668	-7.8790	-18.3788	5.5785	4.4235	10.5816	4.5124	-0.4410	-2.4546	6.9003	0.6304
2392.0155	-2.6089	-8.3215	3.2770	-10.6625	-14.5365	-11.3322	-21.9664	-25.4174	-0.1960	-9.0582	-0.6183	-8.9915	-3.3116	-15.4191	-12.6534	-19.0796
2400.0155	8.9597	-2.2444	7.9596	-3.4337	-9.6156	-3.1391	-7.5675	-20.6021	8.2018	5.3805	8.9566	-0.7290	-15.1220	-3.7766	-12.3673	-13.0956
2408.0156	12.2065	-4.1215	5.5949	-3.8663	-16.8155	-1.3908	-12.2384	-31.9386	6.6592	17.1946	8.2621	3.9282	-12.6014	-7.1264	-12.9283	-13.3888
2416.0156	16.8634	0.5977	11.0948	-0.7597	-12.1948	8.6776	-5.5866	3.6049	8.6164	27.9609	12.2857	5.8753	-28.4577	0.4803	-4.9873	-9.2345
2424.0157	16.4903	8.0968	14.2465	5.5817	5.0277	11.8199	0.7211	7.4263	14.4623	23.1214	14.6363	7.1050	-54.3026	15.7731	0.7483	-0.6953
2432.0158	6.0197	-2.3054	2.4965	-4.0140	0.3039	-3.8026	-22.0507	-40.8535	7.1573	6.5155	2.9722	-1.9677	-37.7512	-3.8052	-16.0810	-15.3892
2440.0158	0.4461	-9.0116	-1.8118	-9.0360	-1.4918	-2.6094	-15.0954	-11.1500	-1.9490	5.5977	-2.3695	-9.5582	-14.0175	-16.4548	-22.1413	-23.0282
2448.0159	2.6754	-4.0945	-0.7591	-0.9169	4.5278	5.9914	13.4450	35.4453	-5.0999	4.6378	-5.8390	-7.4093	20.0642	-5.0765	-15.5436	-11.9047
2456.0159	9.4060	4.0557	10.3240	6.6209	9.6842	8.2924	15.5621	24.6015	3.2212	8.7605	3.8055	5.5813	49.7075	8.0155	-3.6920	3.1534
2464.0160	2.8803	3.9783	12.2887	5.8610	7.0038	5.8819	4.4090	6.0958	6.3128	8.5395	10.7320	8.5322	34.5425	11.1246	2.7026	8.5826
2472.0160	-10.1375	-8.4266	-4.8318	-3.1955	-7.2149	-4.5713	-3.6262	-7.5925	-8.1589	-6.8166	-9.2336	-5.9999	26.3748	-5.8717	-12.0694	-6.8850
2480.0161	-8.4299	-9.7619	-1.1122	-4.8097	-10.4551	-3.4189	-7.6405	-8.2812	-10.5049	-0.6605	-11.8427	-5.2029	19.6690	-9.1044	-9.6756	-8.7572
2488.0161	-7.1873	-6.9524	3.3284	-1.5775	-13.9241	1.0895	-11.4738	-5.9531	-8.8248	7.2042	-8.5145	0.1726	7.4664	-0.9549	-3.5522	-1.2445
2496.0162	-5.9446	-10.6914	0.2467	-2.5580	-13.8179	-1.2974	-8.1017	-11.9733	-14.9334	3.4482	-20.9340	-4.8228	11.0457	-6.2639	-15.1280	-9.2460
2504.0162	-1.0314	-6.7661	10.5000	-0.2150	-3.5776	3.7474	-3.4460	-14.7470	-8.4613	15.8197	-12.0956	1.3468	-10.9249	-0.8773	-6.1474	-4.9863
2512.0163	-4.0988	-8.1165	5.6358	-3.0549	-7.7039	1.6341	-12.9128	-24.2942	-6.9446	16.0535	-7.5843	0.6843	-26.5585	-4.3168	-6.4904	-6.1678
2520.0163	-1.6967	-11.0424	3.3142	-7.7318	-1.0053	-2.4100	-11.6286	-16.2276	-11.5116	6.4505	-16.0782	-8.4671	-13.9749	-17.4724	-18.2326	-18.7323
2528.0164	4.8123	-2.6922	15.4265	-2.9593	12.1324	4.7240	-4.2289	4.0053	-4.0003	13.4601	-6.0303	-1.8255	-14.0930	-7.4212	-3.8819	-9.3925
2536.0164	3.8977	-1.8929	13.9555	-3.0888	8.2943	1.5919	-6.3986	-4.4341	-1.8886	8.8788	-2.0533	-0.4617	-12.1549	-7.4088	-1.8706	-6.2299
2544.0165	4.6782	-2.6548	16.3458	-4.4121	12.1091	-2.9203	9.9841	2.3244	-2.9673	-3.1834	-2.6104	-5.4923	-10.0942	-13.5147	-4.5912	-8.5392
2552.0165	6.6920	5.3829	21.6321	1.5371	14.0613	2.8522	18.4387	26.4186	3.2132	-2.2810	7.0661	0.4732	-11.4723	0.7617	10.7653	5.2948
2560.0166	4.4912	6.1655	17.8005	1.3357	8.4148	1.1441	0.1504	14.8778	4.2774	-3.7474	6.8478	2.3412	-1.0925	3.4839	11.3144	6.7501
2568.0166	-1.5750	-0.4879	13.7374	-2.2889	2.3552	-3.1441	-2.8019	4.9583	-2.3736	-8.0500	0.0082	-2.5529	2.8042	-4.7210	1.9279	0.9103
2576.0167	-4.9671	-2.6838	9.2190	-1.3285	-0.8623	-3.3287	3.5734	5.7758	-6.8785	-10.4137	-5.0909	-4.4923	-5.2549	-4.3957	-2.0874	2.3245
2584.0167	-1.8359	-0.4575	9.4910	-1.2461	9.3736	-5.9486	6.4844	-12.7124	-2.1573	-11.6682	-4.3318	-3.5550	-17.1062	-4.1175	1.2492	0.1657
2592.0168	-3.0485	-1.5014	4.8909	-1.9938	-3.1429	-5.6958	3.0337	-8.4520	-1.5570	-10.1353	-3.1034	-3.4413	-14.6488	-1.9612	3.2082	-0.9878
2600.0168	-3.8225	-1.3370	0.9240	2.9203	-23.8603	0.4241	-10.3530	17.3650	-8.4334	-8.8904	-11.6901	-2.9419	9.3926	9.1383	-6.3252	4.2873
2608.0169	8.5508	7.7883	12.3581	11.7805	-6.9000	8.8752	-1.8089	21.0614	-0.5917	3.3807	-4.5176	8.0693	24.4680	21.7467	-2.1271	14.6228
2616.0169	20.4259	13.0509	15.2226	12.3057	8.1208	11.3648	5.6136	8.8494	11.8537	17.2000	11.1754	16.5647	29.2627	19.3917	5.5891	14.1104
2624.0170	20.7987	10.1096	14.2080	6.2496	11.5093	5.5136	-1.1915	4.5795	11.2156	8.6273	6.9323	8.7805	34.8373	8.5252	-1.1537	0.6476
2632.0170	18.0597	11.2496	20.5141	6.6653	15.1823	5.6357	10.9032	21.5620	12.2137	2.0785	10.1577	6.0242	26.0361	11.4329	4.4472	3.1148
2640.0171	10.6299	9.8143	11.7190	4.7799	-0.0618	4.3826	-8.1454	16.6629	12.7320	2.0381	17.0319	7.4353	21.5194	11.9895	5.1456	7.7678
2648.0172	-2.7388	-2.5476	-4.6384	-5.2182	-14.2249	-7.6012	-36.6041	-12.3994	0.3637	-12.0853	0.1520	-4.6487	33.9451	-6.1823	-14.8586	-8.3380
2656.0172	-8.0964	-10.1096	-8.1349	-6.8461	-11.4007	-9.1762	-5.0382	-4.9353	-9.8708	-15.6670	-12.2422	-11.8126	27.3960	-14.4552	-18.7892	-14.1479
2664.0173	-12.1048	-8.3946	-4.4757	-3.7539	-6.2826	-7.5837	5.9714	-6.5714	-11.0796	-14.7395	-12.8178	-8.4688	8.2044	-8.2736	-6.8025	-4.1822
2672.0173	-21.6160	-10.9644	-8.1774	-7.6326	-9.3434	-14.0098	-17.8985	-20.0144	-16.0017	-27.7854	-21.5072	-14.5732	2.1697	-11.1479	-9.9472	-7.0664
2680.0174	-14.5848	-9.0100	-7.4838	-3.8349	-6.8134	-5.1090	-4.4800	14.4506	-16.6224	-20.3831	-22.8716	-16.4825	-4.3175	-5.9589	-17.9537	-9.1034
2688.0174	1.2193	4.5302	13.6619	8.4291	9.9357	7.5700	15.6719	31.0229	-3.7420	-3.3858	-7.4186	-1.1332	-9.5426	15.5354	-2.1316	8.9091
2696.0175	-0.7442	8.8854	24.7495	9.2833	6.9460	1.9567	10.1382	11.0476	3.8555	-10.8162	3.8542	5.4096	-8.0735	21.7216	14.6874	19.7670
2704.0175	-12.0229	-1.4391	12.3072	-0.7766	-11.6061	-8.7743	-11.1293	-6.6012	-2.3744	-23.3249	-4.0943	-5.6956	-3.4682	7.8317	3.0017	3.7633
2712.0176	-17.1909	-10.7267	4.6097	-10.3647	-15.1289	-17.5874	-22.6302	-26.5044	-8.9694	-30.2115	-16.2336	-15.9668	0.8224	-9.6405	-7.6482	-15.5978
2720.0176	-11.1956	-9.7186	9.2529	-12.4135	-12.3309	-18.8617	-8.6140	-22.2963	-5.4970	-29.4738	-10.0065	-15.7448	-7.7755	-16.1051	-1.6045	-17.7198
2728.0177	2.1302	0.1838	20.6296	-4.4899	-0.9471	-7.8460	2.6648	-1.4683	5.5410	-14.5720	5.7744	-5.9229	-14.4803	-2.9657	3.8318	-7.3193
2736.0177	14.5991	12.6144	29.2329	6.3186	13.5236	3.8493	9.9474	16.6666	14.7400	-1.3859	17.1028	6.7299	-9.7990	14.3331	12.5868	9.5497
2744.0178	21.5675	19.7350	25.2847	10.9735	13.0610	6.8558	10.7466	16.5133	20.1910	3.0692	24.2002	14.7826	-14.8322	20.8529	21.0893	20.7243
2752.0178	14.2680	13.3451	17.0494	4.9654	9.5873	-1.0962	4.0200	-11.8926	17.3599	-3.4466	17.7588	8.0408	-42.1520	12.3320	16.1423	10.4367
2760.0179	4.4637	7.6707	15.0097	0.7353	10.6121	-4.9306	18.5372	2.9929	9.1263	-16.8450	7.2156	-4.3216	-72.0879	6.3890	14.8172	3.4232
2768.0179	6.2580	17.1908	13.6615	10.7689	10.5351	6.7927	19.4277	38.7733	10.1465	-10.5287	10.8022	4.1114	-66.3961	25.8100	25.5589	23.9141
2776.0180	3.5215	18.3598	1.1041	17.0779	11.4605	13.0909	5.0703	28.4685	6.8826	0.6893	6.3689	12.1507	-38.3675	34.5970	18.8751	33.7478
2784.0180	-1.7013	8.0967	-10.1528	11.1728	14.6709	5.1076	16.0312	18.8596	-4.4629	-10.7790	-8.8342	1.2643	-10.7597	15.1512	-0.6955	18.9815
2792.0181	-3.1701	4.4612	-9.5278	5.2834	4.6835	-3.6864	6.7531	1.0662	-2.5948	-18.6689	-5.1488	-0.4094	14.6005	5.4282	-1.1902	12.0783
2800.0181	-12.4420	-4.0953	-10.5603	-3.6518	-12.6969	-11.5110	-15.6836	-24.7007	-2.3691	-19.1624	0.1873	-3.0981	21.3031	-5.0469	-3.9768	2.2181
2808.0182	-14.1844	-11.0687	-5.6606	-10.5317	-7.4966	-15.8099	-6.3318	-10.0901	-10.6449	-28.3916	-8.6505	-14.8491	27.4582	-22.2715	-14.9645	-11.8760
2816.0182	-4.2356	-2.2062	6.4061	-4.9052	1.2377	-10.8579	-6.2080	-0.9067	-6.0338	-24.3576	-4.4628	-7.4315	26.9501	-13.7774	-5.7171	-1.1409
2824.0183	-2.0642	3.1995	9.0999	0.2250	-0.2896	-4.7634	-16.5374	-8.9603	1.1514	-11.7284	6.2586	1.8131	1.9365	-0.4214	0.3232	9.9781
2832.0183	-3.4713	1.6487	11.9725	0.2665	5.3462	-2.5121	-4.9705	2.2892	-0.6006	-10.9174	3.9650	-2.1658	-16.9479	0.0758	-2.1953	6.7815
2840.0184	-8.1024	0.3012	12.3340	1.2334	-1.2124	-2.2025	2.3902	1.9478	-3.0377	-9.9088	0.4486	-0.9618	-24.5775	4.9807	7.2411	10.3946
2848.0184	-15.7167	-7.4696	0.5171	-3.5897	-16.1810	-8.2334	-10.9244	-24.8248	-6.9882	-10.6713	-5.0991	-3.5181	-16.0977	-1.6009	0.1272	2.2234
2856.0185	-10.4062	-9.5624	-1.9054	-7.7031	-8.9053	-10.3342	-15.4750	-23.5043	-7.8353	-14.0223	-10.2458	-11.3375	-17.1474	-12.0746	-15.5007	-12.6447
2864.0186	0.0522	1.6614	9.5452	-0.0084	9.1081	-0.2999	1.4651	9.6678	0.3136	-9.0688	-1.9110	-7.6006	-47.5683	2.6191	-6.0255	-2.9063
2872.0186	1.8042	6.4608	10.6566	4.2338	9.7755	1.4870	4.3776	4.0754	6.4539	-6.9465	4.7285	-2.1928	-61.9280	13.1298	1.6075	5.2437
2880.0187	-0.9445	2.9081	-3.8031	-0.0856	-4.7143	-3.5670	-13.1079	-14.6214	4.5373	-9.0682	2.2703	-4.2269	-69.3350	5.9510	-3.9330	0.2996
2888.0187	-4.4462	1.7211	-17.4782	-1.5889	-9.7138	-2.4994	-15.9944	3.3537	-0.8410	-11.8507	-2.7462	-7.9875	-65.5708	1.8466	-5.5851	-0.0711
2896.0188	-5.7439	-1.1726	-27.0474	-3.6839	-11.1613	-5.5256	-5.5607	5.5909	-6.0074	-17.2497	-11.1383	-12.0175	-57.2546	-5.3403	-6.0532	-4.4875
2904.0188	-6.4465	-0.4362	-37.7866	-4.2196	-9.1219	-5.8733	1.8237	-3.9858	-3.3211	-13.2729	-8.3582	-9.8301	-75.9426	-6.2813	2.9725	-3.1408
2912.0189	9.2498	6.6506	-5.5286	6.1626	5.2346	11.1116	7.4510	7.2706	9.3087	24.8167	13.6545	14.8377	27.1127	9.3023	12.8941	9.6453
2920.0189	9.7395	2.0670	-6.5559	1.1799	-7.4222	2.7042	-8.3141	-10.0208	3.4215	14.0852	4.6054	9.2812	31.1659	-2.1930	0.7733	1.5348
2928.0190	4.0473	0.7458	1.4946	2.3619	-6.5025	4.5103	11.3369	23.2083	-2.9160	4.2971	-0.7366	1.8449	11.4733	1.1305	1.4228	3.9766
2936.0190	1.5106	9.6346	4.8459	12.6636	8.4033	15.6397	16.3215	37.2444	1.1046	15.2814	3.2163	13.2479	20.1290	23.7109	20.5575	23.8504
2944.0191	3.5267	7.7385	4.8303	9.2169	10.8856	10.1047	6.4079	10.8286	1.3813	14.5001	1.0573	14.1399	37.4564	14.8294	18.4267	18.1345
2952.0191	4.2674	-0.1204	5.7371	-0.6660	9.8989	-0.2937	8.2795	1.6104	-3.4518	2.0587	-4.6748	2.4868	37.6892	-8.1304	4.8469	-0.3099
2960.0192	5.4055	1.2170	7.8767	-1.1944	10.0531	-1.5089	4.4505	-8.3843	0.5410	4.3989	1.3841	6.4818	45.7682	-8.4597	11.0446	1.7759
2968.0192	4.7912	1.0786	10.8629	-2.4635	2.7592	-2.5073	4.1681	-1.9218	2.4051	2.1654	8.0144	6.0362	40.7077	-9.2582	12.4893	3.0448
2976.0193	4.0598	-1.8007	11.7157	-5.2755	-3.8112	-4.3449	-4.2731	-0.8624	0.4044	0.1139	6.5048	2.9031	48.8079	-13.9066	5.7078	-2.4449
2984.0193	6.2645	-3.2688	15.3669	-5.8229	-1.6132	-3.2452	-12.9309	-18.5795	1.3975	10.8022	7.0166	7.2296	60.5918	-15.6482	4.0466	-5.0887
2992.0194	10.6160	1.1556	26.0601	-0.4894	10.7011	2.9562	10.3089	5.3741	4.1294	13.6191	13.0371	9.6308	55.4683	-8.5060	7.6880	2.4717
3000.0194	8.5423	2.8079	22.3876	2.8707	-1.3377	2.6149	6.7740	4.7454	4.6245	10.1580	14.3569	13.2283	69.9758	-0.3716	9.9133	10.5544
3008.0195	-4.7572	-10.5579	4.7681	-7.9148	-25.4591	-7.9042	-14.9952	-23.3084	-2.9544	3.6994	6.6832	3.5107	68.4466	-16.2264	-4.1733	-6.0890
3016.0195	-12.7064	-16.0471	4.1162	-13.1413	-10.8516	-10.0865	0.1546	-5.2141	-6.9493	-6.7310	1.3839	-10.5250	48.3570	-24.6281	-12.1661	-19.4791
3024.0196	-13.2398	-12.1768	11.1013	-8.4727	3.1960	-7.8256	7.1289	-0.2757	-8.9814	-10.6270	-6.7191	-9.9071	46.3735	-15.8331	-6.1370	-13.4807
3032.0196	-13.1205	-11.8472	12.5307	-5.8039	2.9153	-4.5474	7.3418	-2.4294	-15.0448	-4.5305	-14.9223	-6.7124	31.4748	-13.5078	-2.5647	-6.8898
3040.0197	-8.8137	-5.7733	14.3785	-0.5023	8.0282	3.2828	8.1218	5.0203	-10.1476	7.3791	-6.6552	0.7496	9.3195	-3.5856	4.1682	3.9224
3048.0197	-9.3541	-7.9294	6.6716	-2.7562	-7.6894	-0.6060	-14.4226	-12.8026	-9.5869	5.0320	-6.5751	-0.5864	4.7153	-5.2881	-7.1376	-0.4860
3056.0198	-9.6500	-13.9802	2.1277	-7.8766	-13.7733	-5.8225	-20.5103	-18.8695	-14.9237	-2.0133	-14.2415	-9.3967	-0.5880	-17.1853	-24.9906	-13.3576
3064.0198	-4.6274	-9.2242	9.8043	-4.2345	3.7373	-0.7278	-9.1134	-22.2647	-7.1621	9.4587	-5.2431	-2.1993	-2.4955	-10.9448	-15.3073	-8.7467
3072.0199	-7.2429	-11.9114	9.5420	-6.0918	1.9910	-1.0068	-6.1223	-23.8174	-7.6009	13.7890	-4.7764	-0.5559	22.8229	-13.4720	-9.2626	-11.0594
3080.0200	-10.0283	-17.8340	3.3181	-12.7361	-9.7751	-6.7669	-19.5753	-28.8881	-12.4097	8.2356	-10.9353	-6.6733	38.7626	-25.3822	-16.7363	-22.2575
3088.0200	-13.3927	-23.7408	-0.8166	-22.7697	-16.6219	-18.2621	-44.8843	-71.3490	-9.0828	1.6511	-10.1499	-13.8760	4.9429	-38.2478	-24.6955	-39.3680
3096.0201	-19.6601	-29.8595	0.9249	-29.7370	-20.8462	-25.8740	-34.3492	-61.1377	-14.1433	-15.6842	-17.1890	-28.0567	-23.0206	-48.1801	-28.7525	-52.0813
3104.0201	-13.1943	-18.9421	8.0300	-18.2805	-12.3061	-14.9236	-3.7738	-8.9335	-13.8312	-16.6125	-15.5249	-22.3982	-19.3427	-30.4185	-14.1075	-31.4588
3112.0202	-4.3630	-6.8859	10.3836	-7.1560	7.4365	-4.3652	10.1439	-2.1063	-4.6956	-3.4536	-6.2340	-9.0733	-23.9439	-12.2514	0.3293	-13.1916
3120.0202	-1.5349	-0.5716	14.3121	-0.5475	16.7261	2.7661	21.3445	15.4877	0.0995	0.9515	-1.9803	-4.9947	-30.7822	2.0142	7.1961	-4.7911
3128.0203	2.2810	8.6099	16.2608	10.4997	9.0842	12.9659	17.2502	30.8808	6.2639	10.0636	6.4730	5.8955	-36.8480	26.6642	13.3330	14.2127
3136.0203	1.4015	6.3307	9.6313	9.4124	10.8020	11.6655	12.9240	13.1091	5.4427	13.1175	3.8471	5.6005	-44.5606	23.3365	7.4231	10.5122
3144.0204	0.5309	1.1957	5.6620	2.9508	14.0730	5.9779	19.6022	11.2818	0.3294	6.8792	-2.8816	-1.2703	-36.4074	7.0610	4.6024	-0.4167
3152.0204	3.6825	1.9444	0.8008	2.8467	1.8118	5.6313	10.5201	9.0827	1.3809	9.1902	1.2998	2.1870	-26.0186	5.4401	3.3042	2.3761
3160.0205	3.7161	-1.0946	-1.9103	1.1006	-2.9866	4.6555	1.9826	1.2512	-1.3448	10.9385	-2.1530	0.5243	-26.0139	1.0478	-5.8722	-2.3717
3168.0205	3.3885	-2.5881	1.4524	-0.7901	-4.1275	3.9733	-0.9167	2.3137	-3.6082	10.2783	-5.3476	-2.0758	-37.1028	-1.8187	-6.9450	-5.6265
3176.0206	6.0123	-0.9734	3.4511	-1.5368	-5.5198	3.5717	-5.3351	-3.4064	1.2769	11.9007	0.8119	-1.5471	-60.6872	-0.7613	-5.9554	-6.6229
3184.0206	9.3750	0.9123	12.6727	-1.9349	5.5915	3.3395	-2.3738	-4.6656	5.4110	11.0742	4.1846	-2.7324	-72.8303	-0.7817	-5.6593	-9.7202
3192.0207	6.7785	0.9762	20.6153	-2.0689	11.2020	2.3949	-3.9426	-3.1429	5.1103	7.3439	4.7773	-2.9282	-57.1372	-0.4653	-3.9184	-8.3111
3200.0207	-6.5557	-5.7901	14.8330	-5.4614	2.8574	-4.2056	-18.9597	-30.2493	1.8855	1.7216	1.5089	-4.5384	-35.5170	-2.2843	-7.1677	-11.0496
3208.0208	-22.3642	-18.2945	6.3076	-14.6612	-7.9684	-15.6430	-35.6236	-62.2183	-7.1299	-8.7300	-11.2432	-13.3017	-14.4382	-15.4469	-15.1140	-25.3454
3216.0208	-28.1024	-25.4703	1.9991	-19.8889	-10.9766	-18.2020	-27.2549	-30.7550	-20.0358	-21.0026	-26.3087	-25.5651	17.9436	-28.7502	-24.3537	-36.1593
3224.0209	-22.5780	-14.9181	3.9366	-6.7828	-8.5240	-4.1214	-10.9349	14.9204	-17.3994	-13.7495	-20.9501	-16.4211	32.5456	-5.5136	-16.5326	-14.9790
3232.0209	-25.9945	-11.6344	-2.9191	-1.2884	-10.7600	-1.2711	-14.9853	0.4159	-12.4632	-8.0052	-12.7141	-8.3976	24.3799	6.8508	-13.0523	-2.4552
3240.0210	-42.9484	-28.1850	-15.6876	-14.9812	-12.2569	-15.6724	-1.4050	0.6406	-28.2250	-33.6186	-30.9785	-31.8225	20.9730	-21.2782	-31.1558	-26.5282
3248.0210	-38.0442	-22.3293	-7.3384	-8.3874	-19.0017	-10.7510	15.1684	23.8973	-25.9861	-34.0410	-28.5570	-28.1902	3.8189	-6.9873	-21.2123	-15.4595
3256.0211	-15.0951	-5.2314	-2.0424	4.2713	-27.4773	2.0726	-2.5369	8.0931	-5.9984	-3.7826	-3.7597	-2.2547	-17.1641	17.5905	-6.6750	7.5935
3264.0211	-15.9705	-12.1716	-12.6414	-3.7610	-15.6246	-1.5694	-9.9784	-3.5979	-11.4618	-2.7148	-11.8302	-10.6607	-14.5874	-3.0984	-22.1863	-10.0230
3272.0212	-20.0832	-13.7174	-7.1759	-4.4367	1.5783	-0.9554	0.7987	3.3319	-15.7727	-5.1259	-19.2418	-14.5513	-11.2748	-5.5674	-19.6227	-12.7406
3280.0212	-3.5410	-3.1211	5.3268	0.0696	6.3839	3.0018	0.7090	2.3477	-3.0677	4.0130	-4.7635	-3.8658	-19.2513	1.9841	-7.9189	-4.7462
3288.0213	0.4049	-2.7423	4.3337	-3.6688	1.6887	-2.9254	-6.9579	-10.1796	0.6057	-2.1775	-2.4129	-5.7572	-23.0426	-4.1163	-8.2384	-10.7795
3296.0213	-1.6705	-4.6935	-1.1871	-4.5977	-3.6730	-6.7252	-10.4374	-19.6112	-2.9998	-7.5422	-9.9277	-6.8072	-5.0684	-6.3965	-9.0443	-12.5642
3304.0214	15.1452	0.1701	1.9626	-2.3668	5.3149	-2.8187	-3.1100	-6.0864	-3.0275	-2.3485	-12.7494	-4.8755	2.8609	-12.2492	-15.3008	-14.1782
3312.0215	22.3177	6.6033	9.1282	1.2792	13.1025	-0.1809	-3.2176	-16.1573	5.4641	4.4737	-2.1697	2.5104	-17.8924	-5.6576	-8.6195	-6.6050
3320.0215	14.0273	5.1135	7.7463	-0.0811	5.8279	-3.8715	-7.6725	-23.2976	7.4036	-1.6607	1.2513	1.8274	-15.4673	-1.7517	-2.4561	-5.2472
3328.0216	20.6428	10.7955	16.0995	5.5422	6.1282	4.8640	8.4250	36.8479	3.2004	-6.0218	-3.8095	-1.4608	-10.9580	6.8778	-2.0808	0.7555
3336.0216	36.3900	31.5566	33.3743	26.9279	16.4772	26.5669	23.3385	60.6135	19.0130	22.2374	19.7875	26.0896	-24.5911	46.3230	23.3142	40.5971
3344.0217	35.5831	30.4691	29.4328	26.8071	20.7331	25.2005	23.0391	18.2894	25.3655	37.1294	31.6959	37.6319	-14.3786	43.4385	31.3528	45.7903
3352.0217	25.1801	15.4977	19.4867	11.7745	18.2896	12.8181	22.5348	10.6358	11.1025	23.1218	14.7388	19.9468	-7.7761	11.6136	18.7262	21.0067
3360.0218	25.9472	17.6797	18.8121	12.4615	12.2685	13.6452	20.8994	21.5333	12.5665	20.8824	16.3817	19.7244	-14.2048	15.6492	22.6620	23.1075
3368.0218	28.1825	16.2735	17.8928	9.0013	7.6196	7.9572	17.9272	15.0339	14.7826	12.5700	16.4932	15.2256	-8.8587	10.3565	17.1438	14.2781
3376.0219	24.6524	13.1185	20.6001	4.6299	9.0941	3.8984	13.0905	15.1297	12.2996	5.6214	12.6553	9.7792	1.2621	3.5938	15.3548	6.9465
3384.0219	29.0929	19.2926	22.7491	9.6487	10.1132	9.0573	7.3299	15.4090	18.8608	14.2505	21.7923	18.6069	5.5380	14.0754	22.0265	17.1044
3392.0220	32.5674	17.5238	18.6700	7.0995	2.6994	4.5036	4.4436	2.5479	19.5437	10.5813	22.4918	16.2554	-5.6030	7.2299	13.4008	11.7124
3400.0220	27.2386	12.5725	10.0723	1.9215	-8.2135	-1.3329	-7.6425	-7.7678	16.8112	4.2610	20.4599	11.6299	-0.0398	-1.1278	7.1216	5.0390
3408.0221	27.7925	12.0891	5.0801	1.9257	-6.7809	-1.0553	-14.0997	-4.2831	15.9119	1.9139	16.2938	8.5359	13.6374	-1.1810	-2.5700	-0.1427
3416.0221	31.7045	13.6882	9.8710	4.9016	4.3468	1.4290	-0.9058	-8.9083	19.0238	6.9900	17.7378	10.7345	6.1442	2.7613	-2.9630	0.0739
3424.0222	27.8834	13.4781	7.6163	5.0433	3.3243	2.4228	-4.1553	-23.2074	22.1487	16.6389	25.2256	18.4229	21.0096	4.5303	8.4899	6.0287
3432.0222	27.6383	11.9106	6.0287	4.4704	0.2742	2.4883	-10.3273	-13.2147	16.3498	12.4332	16.0485	14.0938	30.4003	2.3464	0.3719	2.3651
3440.0223	36.0057	20.6436	16.2181	15.5360	6.7161	13.5077	9.9167	11.6435	21.1279	20.7402	19.8880	20.7939	7.7196	23.3635	5.8834	15.8008
3448.0223	34.1165	24.9289	15.9996	21.0438	4.2682	18.5183	16.9742	18.4676	26.7282	26.2807	28.0679	27.3346	2.4737	38.4499	17.4877	26.8016
3456.0224	28.6491	19.0645	15.5755	14.9667	1.5547	9.6083	10.8913	6.1487	21.3100	12.3389	19.2567	18.7451	9.0587	27.3729	10.1595	16.4500
3464.0224	31.8317	17.6964	21.2603	11.3312	6.5619	5.7945	12.1701	-6.7479	21.6827	13.2865	22.0035	20.2320	21.2261	15.9731	12.7790	13.7624
3472.0225	30.7947	14.6871	21.6369	5.9620	12.7638	2.9290	15.4518	11.9049	13.8989	4.3339	15.2420	12.1493	28.4682	0.1967	8.8425	7.7145
3480.0225	41.2990	25.7798	35.3163	14.5958	27.5815	10.5991	32.6938	50.9976	15.2980	-0.2863	15.5048	14.0988	12.1509	12.0988	14.5064	21.3452
3488.0226	55.8004	43.7480	47.2404	29.0209	33.7126	22.3350	35.2490	50.8770	34.0973	17.9071	39.6571	37.1673	5.3091	41.1551	38.8875	50.0585
3496.0226	45.2174	35.3150	37.9063	19.9695	27.6744	12.3640	17.0083	23.6872	30.5274	9.4202	35.8830	30.0724	12.1512	26.8659	32.1363	37.8667
3504.0227	45.7835	27.5477	28.3618	11.9275	22.4825	7.1564	16.2629	16.0882	24.1660	9.2287	28.4294	23.3045	18.3630	6.8681	22.4328	22.7419
3512.0227	55.3768	28.7633	23.4458	13.4301	11.3368	11.5415	17.9665	14.8263	25.5777	24.8546	31.2568	30.8465	22.0620	5.9424	25.2173	24.6481
3520.0228	39.0872	23.4467	30.3514	12.6785	12.1672	8.7991	19.5842	19.7734	19.5764	11.9405	24.5694	22.7259	14.7184	11.6425	22.6201	24.1223
3528.0229	22.6662	24.6327	41.0097	16.5531	16.3248	11.4794	14.7478	28.7554	21.8452	6.0620	31.3896	22.6631	1.3502	30.3325	30.6452	35.8803
3536.0229	4.3409	16.1145	28.1774	12.0863	1.3790	8.5465	-7.3438	14.4393	14.1789	4.7574	26.5557	18.5303	-8.8721	28.2079	25.8801	34.7040
3544.0230	-20.5724	-2.2020	15.7308	2.3849	-1.2777	-0.8365	2.9125	9.0312	-5.6992	-11.4247	3.5103	-0.1712	-8.4118	10.4231	11.0523	18.0333
3552.0230	-28.3846	-5.9628	16.1814	1.8411	7.1231	-1.6710	23.2308	19.5679	-10.8625	-18.2795	-4.8910	-6.8465	-12.0031	10.5266	12.7334	14.3170
3560.0231	-37.3976	-9.6731	3.5657	-1.8086	-0.0410	-5.8359	1.8278	4.3694	-13.7930	-23.9528	-11.4521	-11.9743	-22.7236	9.1501	7.4172	8.5813
3568.0231	-49.2640	-20.3211	-9.2836	-9.8271	-7.2254	-14.5393	-15.7042	-9.9112	-23.4924	-37.2097	-26.3387	-25.2060	-11.5026	-3.8737	-12.1335	-8.5864
3576.0232	-45.8924	-23.2270	-5.8258	-12.3727	0.7576	-17.9405	-10.0007	-13.4980	-25.5572	-42.1981	-33.2511	-30.6429	6.1919	-11.9971	-22.2552	-20.0029
3584.0232	-40.0004	-18.3210	-6.0535	-10.0542	4.5134	-15.5388	-17.2553	-26.2766	-16.6583	-32.6999	-22.4058	-22.3817	11.5206	-7.0997	-16.9020	-15.6081
3592.0233	-37.0553	-17.5497	-15.4863	-9.6435	-9.8135	-14.3541	-29.0600	-13.9897	-18.5080	-34.3050	-25.4463	-23.9156	16.6801	-6.1206	-24.5181	-16.6449
3600.0233	-33.2126	-18.7357	-16.4487	-8.8662	-15.7750	-15.7689	-17.0622	4.7471	-26.2323	-45.6687	-39.1905	-31.7228	10.6555	-8.5168	-35.0720	-21.1161
3608.0234	-28.7756	-12.6977	-10.2476	-4.3570	-9.2494	-12.5017	-0.4080	-1.1638	-16.2534	-36.7580	-24.0204	-21.7540	-5.8644	0.3199	-18.0691	-9.4075
3616.0234	-27.0649	-11.2561	-10.9142	-6.2837	-4.9134	-12.5380	-2.0898	-0.6288	-13.8024	-34.5018	-19.3986	-20.7856	-12.0024	-3.9036	-12.4428	-9.5107
3624.0235	-26.9812	-12.8390	-18.0266	-9.0029	2.9404	-14.0688	-10.2971	-5.7793	-18.5151	-36.2990	-27.7289	-24.6318	-11.5617	-12.9998	-19.5418	-15.2243
3632.0235	-17.4942	-5.6578	-23.1544	-4.0265	4.9603	-5.4537	-10.4484	0.3350	-10.4893	-18.6668	-16.7572	-13.8452	-12.5713	-4.9954	-10.7957	-6.6673
3640.0236	-7.9465	0.7579	-24.8341	1.1456	4.8248	1.8005	6.1216	28.7341	-6.8617	-12.7314	-13.6780	-10.3882	-19.8646	3.3141	-3.8534	-1.1991
3648.0236	-13.0348	-0.9103	-38.3943	1.3493	0.0166	-1.1989	14.0843	4.5494	-4.6548	-11.0960	-10.7477	-7.3911	-36.5079	4.7245	2.1661	1.9527
3656.0237	-17.8364	-7.2214	-61.5818	-5.8927	-12.7450	-5.9004	-0.1879	-19.9153	-5.3877	-5.0915	-9.9209	-7.9828	-33.7094	-8.3573	0.8081	-7.0787
3664.0237	-9.1902	-3.0024	-70.4452	-5.4567	-10.6078	-0.5503	-5.4292	2.9859	-2.9799	1.2640	-9.1847	-7.0546	-14.0307	-9.3993	0.4080	-10.2685
3672.0238	-3.9380	3.3927	-77.4284	1.2810	-20.2311	4.8388	-9.9363	-6.4563	8.0431	13.9738	4.7235	5.0483	-12.1654	6.7454	6.7757	0.7177
3680.0238	-12.1495	-6.0959	-88.1603	-5.4829	-31.8306	-3.0533	-19.6858	-15.7110	-0.9992	1.5282	-9.7672	-7.2801	-9.8383	-4.3005	-10.2791	-15.0840
3688.0239	-15.0659	-5.2607	-81.9092	-6.4824	-14.2901	-4.9743	-22.4306	-12.0209	-2.4029	-8.9387	-16.1951	-13.8242	-13.0999	-4.8819	-13.2338	-19.5928
3696.0239	-9.9660	0.9899	-72.6085	-0.0095	-12.3889	2.2758	-16.8862	-19.7853	8.4724	8.9814	2.7540	0.3933	-25.8633	8.4811	-0.4377	-4.5953
3704.0240	-8.0165	-3.9605	-64.4642	-1.1462	-12.7645	5.4325	2.7400	9.1457	-1.5494	11.0962	-4.8289	-4.2427	-13.5979	-1.0419	-8.0366	-8.3609
3712.0240	-4.7789	2.0555	-50.6391	1.6371	-4.1750	7.0891	-6.5373	7.8138	1.7719	11.2182	0.2589	0.7800	-22.0849	4.2780	-0.6825	1.3021
3720.0241	-4.8054	0.2693	-50.1582	-2.7205	-16.7284	2.4899	-28.4660	-27.3384	6.2122	17.2173	10.7846	4.7212	-57.8831	-1.8042	-0.7122	1.5408
3728.0241	-10.3383	-11.1412	-52.8700	-10.6046	-17.5588	-2.2832	-9.5310	-14.5059	-6.3920	9.5356	-1.1593	-9.0349	-62.3489	-22.7149	-15.2739	-14.0685
3736.0242	-12.8968	-6.5944	-42.9045	-4.7057	-10.5148	0.0730	-4.4135	-9.8477	-4.2172	7.2364	0.1586	-3.2026	-34.4694	-9.1826	-3.8418	-2.5504
3744.0243	-14.7952	-8.4246	-34.8635	-3.4705	-11.0783	0.2882	-5.4506	-9.3092	-8.8408	7.8843	-6.3543	-0.3691	15.8544	-8.0082	-1.7470	-0.8341
3752.0243	-10.4585	-10.4030	-28.9246	-2.3046	-4.1531	4.4901	21.5096	9.7247	-12.8499	15.0720	-9.9094	0.2791	38.9647	-12.2347	-0.3057	-2.6538
3760.0244	-2.2025	-0.6654	-19.3030	5.1036	0.7100	10.7958	27.9115	6.1404	0.9025	26.7419	6.3029	12.3930	19.7446	5.8070	15.7665	10.2038
3768.0244	-8.6110	-5.1858	-17.8532	-1.2512	3.7530	4.5032	15.7721	0.9385	-1.2784	14.9947	2.3829	2.3647	10.9365	-2.6105	6.8922	-1.4621
3776.0245	-17.9514	-13.5280	-27.1043	-10.8196	-5.5686	-5.7125	-5.1209	-14.1402	-7.9525	0.8505	-6.6554	-9.2680	9.1529	-17.9635	-4.9932	-16.1313
3784.0245	-13.3842	-13.0894	-28.8569	-11.3217	-12.0476	-7.9533	-17.5513	-24.6909	-8.0949	-0.4695	-10.9835	-8.8637	19.2016	-19.2570	-9.7768	-19.5958
3792.0246	-4.6533	-11.5690	-16.1776	-9.6502	4.3156	-4.4524	5.0618	1.3184	-10.4962	-1.8711	-15.1367	-12.8948	21.6571	-23.1591	-16.2321	-23.4060
3800.0246	5.3666	-0.9888	-1.6715	-2.0865	11.2212	3.4002	18.0117	17.3528	-0.6492	6.5982	-0.9067	-3.3239	-7.5209	-8.2896	-0.8388	-8.0546
3808.0247	11.9097	7.8654	6.3308	4.2730	11.9690	8.2768	8.8934	8.0150	10.5618	16.3863	12.4914	8.5398	-16.8685	7.6578	10.7573	4.8364
3816.0247	6.9829	1.4423	7.5689	-0.5215	7.7451	3.7288	5.4353	-2.4630	8.3399	13.2418	12.3051	3.4826	-15.6660	-0.6160	1.3081	-3.7623
3824.0248	5.5824	-0.6619	7.6606	-0.8474	-5.0192	3.6907	7.0333	6.0611	4.6130	12.4347	10.5531	2.9198	-12.8877	-1.2064	1.0471	-2.2408
3832.0248	9.5625	2.3573	7.2724	2.4729	-4.8289	5.0893	-1.7159	-3.7780	5.4388	15.9953	9.5045	8.5106	1.9996	2.9152	0.3352	3.0275
3840.0249	6.5836	-4.0912	7.2101	-4.4231	-1.2401	-1.5250	-13.1877	-30.7601	3.2318	14.2248	6.3193	3.4162	-2.2064	-11.0819	-9.8533	-9.4433
3848.0249	3.7745	-3.2727	14.9981	-2.8630	9.4252	3.9344	2.3971	2.2551	0.1241	14.4201	3.9136	0.8485	2.2472	-7.5751	-3.1127	-7.2197
3856.0250	5.7393	4.2008	20.7792	6.1829	15.1875	10.3060	15.8389	14.2781	5.1342	17.5344	9.4921	9.1756	9.6532	10.6172	8.4827	8.3073
3864.0250	9.4855	0.9444	21.4785	1.0017	10.6447	2.3343	18.5551	-10.7290	6.2205	13.8846	10.0682	7.3804	-1.2731	-1.6558	7.0816	0.3139
3872.0251	8.5460	1.5376	26.0917	-1.3619	18.0630	3.2714	25.6019	21.3806	2.2878	6.9554	6.6556	1.6753	7.6944	-7.0522	12.3461	-1.5846
3880.0251	2.3522	6.5399	28.1153	4.8096	6.7495	5.7494	2.7778	17.9805	5.7108	4.9354	11.4215	8.2581	11.3174	12.8529	17.3987	13.5254
3888.0252	2.0554	2.0633	24.3576	2.5383	-6.8778	0.7250	-8.3377	-11.0518	2.9754	5.2560	6.1440	8.0476	2.0928	8.4522	9.3947	8.8316
3896.0252	-4.4718	-6.2952	12.5199	-3.8768	-4.9083	-1.6913	2.9098	5.1245	-7.7800	-0.1968	-5.1574	-3.0100	10.2984	-8.2692	0.0715	-3.3669
3904.0253	-18.7286	-13.2649	4.6151	-8.2271	-12.0432	-7.2481	-11.6167	-4.6539	-13.6123	-10.3419	-10.2516	-10.1941	13.8225	-12.3892	-9.0528	-8.0469
3912.0253	-17.6222	-13.5568	13.1302	-8.3268	-1.7182	-9.6111	-10.3854	-8.9121	-17.9951	-17.5325	-20.5045	-14.2171	9.3986	-14.9226	-13.4324	-11.1758
3920.0254	-8.3650	-9.1671	16.6314	-4.4817	-3.2654	-6.9243	-6.6867	-6.7193	-16.7691	-13.8348	-21.7067	-10.0335	1.8366	-10.6340	-11.8884	-6.6822
3928.0254	-4.5831	-7.8449	15.8418	-3.0217	-18.7934	-5.4634	-22.4687	-35.3982	-7.9803	1.7501	-7.9351	0.6739	-10.6089	-4.1267	-9.0335	-1.7898
3936.0255	-10.9420	-11.1572	14.2271	-6.2242	-6.1532	-5.6644	-19.5474	-28.4967	-10.4617	-0.4221	-11.1570	-5.2696	-5.4882	-9.2933	-11.3304	-8.9336
3944.0255	-17.2878	-15.5027	6.3449	-8.6974	-9.2906	-10.3011	-22.2303	-12.2199	-20.3683	-19.3672	-28.5886	-17.7624	15.9731	-13.7291	-24.8543	-18.3357
3952.0256	-4.3046	-9.4810	17.7024	-3.7497	-7.9234	-6.7491	-21.6053	-26.0776	-12.3327	-6.8968	-20.5542	-6.6597	19.8936	-6.5146	-19.5233	-12.1045
3960.0257	3.9100	-2.2776	31.2896	0.4416	4.8472	1.0809	1.1031	-18.4734	1.3040	11.4496	2.5028	5.5611	5.7150	1.4842	1.7413	-1.2133
3968.0257	-0.5785	-1.6626	25.3746	2.1989	-11.9655	1.8645	10.5339	17.4741	1.3563	-0.0223	6.0655	1.1356	17.1178	9.4080	1.7281	2.2942
3976.0258	4.9539	2.6906	23.8860	4.6649	-8.8714	2.9717	3.1101	22.3298	2.3404	-2.0308	4.4613	3.4195	40.2522	11.4934	0.0648	5.0744
3984.0258	9.8869	2.4032	24.3209	-0.4643	5.3151	0.1917	-2.3013	-0.6049	5.0203	5.4040	7.6335	5.9448	39.9589	-2.8364	4.9729	-0.8208
3992.0259	12.2004	3.0640	26.2992	0.7362	8.9315	2.6067	14.3080	16.6664	4.7802	6.2384	8.8112	5.6943	47.0552	-3.0825	7.3423	0.0443
4000.0259	10.1356	8.1175	26.4138	7.3828	14.8407	8.1831	19.0536	21.6475	8.2043	11.3609	15.3371	13.5219	54.5765	9.9265	16.0045	14.4487
4008.0260	-3.2417	1.5015	10.4264	0.5812	-4.2731	-1.8341	-10.8335	-10.4920	5.7268	0.9872	12.9450	8.6082	46.9542	3.9551	10.5645	8.9015
4016.0260	-9.5806	-6.5386	-2.5280	-6.0560	-14.0770	-11.0410	-19.0639	-12.3989	-4.6376	-18.2444	-4.6886	-6.0328	54.9279	-8.9810	-8.2633	-7.0864
4024.0261	-9.1301	-11.3795	-6.5365	-9.3313	-10.0035	-13.8334	-13.9317	-22.2796	-11.3296	-18.2180	-13.5877	-9.7002	54.4725	-21.6252	-16.1896	-14.0759
4032.0261	0.2144	-5.6815	0.8704	-4.3363	-11.2174	-6.6826	-7.7805	-16.0079	-5.2539	-4.2740	-4.7660	-1.1868	34.4242	-12.4915	-8.3859	-5.8326
4040.0262	15.1599	11.8198	12.7902	11.4587	9.3331	10.5016	14.6299	22.0743	7.6234	10.7791	8.4089	13.3067	29.4990	16.8647	9.4383	16.4114
4048.0262	8.5191	8.1049	3.5744	7.4251	8.0973	5.5596	7.8664	7.5560	4.9080	6.4739	5.9322	10.9894	34.9827	9.1742	9.4375	13.4353
4056.0263	0.0419	-2.9507	-3.8407	-2.8047	-8.8324	-5.9041	-9.6491	-10.1754	-4.1267	-7.0584	-6.1480	-0.8667	43.2363	-8.2692	-4.8909	-3.8807
4064.0263	2.9220	-3.4778	-4.7391	-2.0172	-3.7641	-4.9386	-7.2526	-19.4366	-3.6833	-1.7735	-8.7533	0.5507	50.1241	-8.5358	-8.1433	-7.1739
4072.0264	-0.6938	-8.5436	-8.4439	-6.4305	-7.6133	-6.8211	-8.7115	-26.1082	-5.1210	1.6092	-6.8477	-1.3822	49.7029	-16.9793	-10.9620	-13.0373
4080.0264	6.6322	2.5075	14.4692	2.4603	8.6606	5.0078	12.1988	29.7897	1.1341	2.1938	2.5326	0.9742	39.9423	1.8890	-0.2788	-0.1611
4088.0265	17.0764	18.4074	30.6168	16.4423	30.4166	17.1185	32.4577	35.6862	15.0761	17.5391	16.9685	18.7925	18.4420	29.5952	27.5770	24.7888
4096.0265	3.6558	5.6148	8.3255	5.1797	5.1992	3.7722	-0.1093	-27.8054	9.5623	18.0033	10.6251	17.0322	17.5830	12.2172	23.3928	12.7312
4104.0266	-12.1417	-12.0574	-8.1100	-10.9916	-13.1787	-10.2348	-28.6500	-32.9059	-7.8121	-4.1340	-9.7951	-6.7413	25.5494	-17.1375	-8.4748	-16.1179
4112.0266	-14.5220	-14.8793	-7.2734	-13.0438	-7.0872	-12.9018	-10.3367	-10.0913	-15.0994	-18.9945	-18.9458	-18.1837	10.7835	-24.5831	-16.8085	-21.8907
4120.0267	-12.8064	-7.4472	-1.3442	-2.1415	-5.0138	-4.7550	14.2733	14.6420	-13.2223	-16.5651	-16.1512	-10.0477	15.3798	-4.2480	-3.0941	-2.7224
4128.0267	-9.6078	2.5698	9.2262	9.7596	0.3723	6.6173	15.7457	37.1237	-8.2294	-8.7194	-9.6783	0.7486	26.8484	20.5244	5.8225	17.2829
4136.0268	-9.0098	2.2236	10.7288	6.1111	2.5958	2.6461	7.4306	17.0379	-5.3767	-8.3749	-6.4969	0.9869	7.6865	14.6610	9.3989	14.1383
4144.0268	-9.1561	-2.2728	6.0361	-0.6242	-4.7085	-1.9074	7.7129	3.0486	-4.0371	-5.2705	-2.8080	-1.1812	-11.2349	2.8703	12.2333	5.1286
4152.0269	-2.1093	-0.0864	7.3613	0.5495	-13.4609	2.3766	4.4385	7.8356	1.1958	5.8561	7.8432	3.7504	-22.8620	4.9358	11.1464	7.4285
4160.0269	1.9760	1.4891	8.4094	-0.1990	-9.3504	1.5191	-4.4795	0.0002	4.4983	5.9857	12.0643	3.7831	-31.2102	2.0921	4.7465	5.4794
4168.0270	-1.3467	-0.2981	4.7843	-2.8001	4.4784	-1.7154	-3.9045	-4.0151	3.1491	-1.6501	7.0304	-2.4525	-26.6798	-3.6248	-1.2879	-2.1486
4176.0271	0.5672	-1.2922	-0.9086	-5.4839	2.9627	-5.7966	-13.6105	-12.8780	1.2966	-6.4664	0.9994	-4.5910	-7.8720	-10.4115	-5.4122	-8.1426
4184.0271	2.5836	-2.8518	-5.8960	-7.3796	1.5512	-8.3426	-22.6420	-18.1758	-3.8162	-9.7326	-8.6657	-6.9429	7.8482	-17.5456	-11.9696	-12.9735
4192.0272	0.3493	-1.9740	-4.2948	-3.0767	11.3488	-3.8523	-7.2144	-12.0252	-4.5391	-5.9219	-10.0430	-5.5644	-1.0873	-10.0625	-10.0756	-8.0303
4200.0272	-3.2876	-3.9436	-4.3312	-5.2528	1.4034	-8.0171	-19.6058	-32.4921	-2.1396	-7.0898	-6.5119	-4.6152	-7.0137	-9.6244	-9.2017	-9.1231
4208.0273	-12.2917	-12.0326	-11.5919	-13.2579	-12.3091	-14.8538	-41.6147	-36.7183	-9.2495	-17.5960	-14.4734	-15.4162	-7.5671	-21.0371	-22.8948	-21.9899
4216.0273	-9.2793	-4.9908	-7.1656	-1.9814	-3.0583	-3.6424	-12.4294	-2.4170	-7.5474	-12.6083	-12.1374	-10.4686	-15.3856	-1.2308	-17.4313	-6.8615
4224.0274	1.5846	4.4142	1.1604	8.2062	-2.0187	2.8090	-3.4735	-14.2532	2.8674	1.4849	-0.2599	6.1435	-9.8286	16.7926	-4.0940	10.5023
4232.0274	-5.4524	-5.2772	-0.7755	-1.7741	-10.7657	-3.0163	-22.8619	-31.1731	-1.6136	2.6252	-2.2537	-0.6333	-13.5602	0.3764	-13.4072	-4.3658
4240.0275	-7.6167	-4.5125	6.6172	0.9993	-5.1538	4.2771	5.6361	21.2320	-6.6327	0.5174	-4.3851	-5.5651	-21.2018	4.9387	-8.2816	-0.2255
4248.0275	1.3726	5.7698	14.3572	11.5364	-5.2206	13.8614	26.4746	50.3762	-2.8613	7.8790	1.2705	5.9577	-13.3477	22.5059	10.1941	20.0425
4256.0276	-0.0878	3.4703	10.7638	6.4086	-5.0153	9.9943	5.9616	21.9503	-0.4005	12.8947	4.2841	7.5333	-13.8750	14.4612	10.8671	14.2805
4264.0276	1.1214	2.4324	14.2234	1.1378	11.2369	3.7017	3.8128	10.9371	1.5525	3.5387	1.9486	0.7423	-11.4378	4.0123	6.8976	1.9594
4272.0277	2.6039	3.5358	16.0246	1.0301	10.8416	2.5044	8.9972	12.8784	4.1813	0.7780	5.8448	0.6598	-14.1274	4.0958	9.2015	2.3925
4280.0277	-2.9772	-0.2120	8.6674	-2.1362	0.6623	0.8540	-3.3856	-5.7855	6.1855	6.7171	13.3738	2.0177	-30.9868	1.2082	7.0968	1.3126
4288.0278	-2.0435	-5.6155	3.4161	-9.5509	0.6482	-7.6628	-13.3355	-20.1861	1.9542	-4.7196	3.9962	-8.8533	-40.2852	-15.1283	-9.5782	-15.6044
4296.0278	-2.9389	-8.5159	-0.1422	-13.4589	-8.3984	-11.4520	-23.1765	-19.9080	-1.2404	-11.7278	-1.4916	-15.4930	-52.5050	-20.8908	-17.4425	-23.4819
4304.0279	-4.6571	-7.5898	-0.9079	-10.8910	-9.6630	-9.6460	-30.1043	-32.4151	0.4243	-5.8110	-1.2800	-10.6098	-48.4147	-13.3189	-14.0535	-19.4765
4312.0279	0.7500	-10.1964	0.7936	-10.7015	2.8015	-10.4303	-7.1742	-27.0660	-5.0247	-7.7824	-13.1294	-13.6699	-10.0133	-21.2890	-20.4509	-27.6615
4320.0280	1.0545	-8.0019	4.6682	-5.5290	-1.5769	-3.2922	20.1202	10.5599	-5.8670	-2.7862	-6.6870	-8.3273	17.2946	-14.1733	-8.7317	-15.2492
4328.0280	2.7397	-0.7095	8.9034	0.2091	-6.2082	-1.3323	9.2550	7.0788	-1.8973	-3.6256	-1.5777	-0.6566	6.1706	-0.9403	0.6491	0.2435
4336.0281	10.5317	0.0634	8.1689	-2.5812	5.3162	-6.4478	-4.7307	-18.0607	-1.6237	-8.5936	-8.5580	-4.7261	-11.5657	-10.6484	-12.7349	-9.7309
4344.0281	11.7229	2.8659	10.9544	1.7805	10.2913	3.1667	8.9736	-6.9727	4.3966	11.3709	7.8789	5.7015	-13.8109	-3.6939	-2.3038	1.8246
4352.0282	12.0594	5.3108	16.4713	5.9420	9.5708	9.3034	25.2815	15.1057	4.4187	17.1757	12.3428	9.5551	-21.6310	3.7840	6.7110	11.5654
4360.0282	15.4743	8.9028	20.4241	7.8121	18.6072	11.0919	36.5002	44.2888	3.2910	7.2174	7.2148	3.3247	-28.8457	6.7480	4.7064	10.1511
4368.0283	12.6417	15.3436	25.8555	14.5529	25.5500	16.4146	35.8858	48.9989	8.5484	10.4886	15.7439	11.1651	-28.3218	22.7491	15.8783	25.8107
4376.0283	6.2081	6.9138	18.0944	5.8964	14.7313	4.9920	11.2923	11.3144	2.1992	1.2293	5.7232	4.0511	-33.6401	6.9886	3.7718	12.9684
4384.0284	4.7802	-0.8184	6.8068	-3.1184	1.3613	-1.9758	-6.7785	1.3927	-1.7763	-4.4530	-0.3697	-6.2208	-38.3362	-9.0266	-13.5568	-5.7803
4392.0284	10.8532	6.4526	18.8050	6.3154	7.4037	8.2308	5.3654	15.9663	3.5769	8.2672	9.1153	4.2405	-43.6549	7.7322	-6.4125	10.0102
4400.0285	15.5937	11.8861	30.6300	10.1479	18.8651	10.0244	10.9524	12.0036	7.1042	10.9084	13.4898	11.1234	-40.4950	12.4358	3.9384	19.5769
4408.0286	7.0394	8.3340	21.8360	4.4858	12.6614	2.8219	-5.6919	-0.6357	6.7756	0.2225	11.5831	5.2515	-36.9451	7.4941	2.9276	12.2918
4416.0286	-1.3781	1.5063	17.1365	2.2007	4.9137	-2.4839	-2.2539	-3.1727	-0.3978	-12.2797	0.2457	-4.0441	-35.9767	5.0787	-9.1353	4.2558
4424.0287	6.0511	4.6360	20.3453	3.7479	11.1584	0.1252	10.1569	8.7731	1.8538	-8.1390	4.0751	-0.3476	-16.2247	3.1720	-4.0363	6.6132
4432.0287	11.7591	6.0133	15.4309	2.1523	11.5053	0.7644	5.4520	6.7623	3.5408	-2.4031	4.9199	1.7362	-11.6531	-1.8158	-1.2698	3.8156
4440.0288	7.9840	0.0688	16.6512	0.3243	8.6066	-2.9008	15.1780	0.6586	-2.8550	-8.1515	-5.8954	-4.5588	-17.0143	-5.6264	-8.8839	-3.7803
4448.0288	6.5180	9.1953	26.5763	6.5652	16.7212	4.4094	20.2384	12.6564	9.0182	0.9157	15.1052	7.4841	-21.1775	11.9010	15.7979	15.6797
4456.0289	1.4865	9.8399	21.8980	4.6337	13.7913	3.4712	5.3452	14.4637	9.5521	-2.5022	17.4852	6.0214	-30.8595	12.1623	18.6503	17.2305
4464.0289	-2.2900	-1.4305	19.2432	-2.5805	4.7435	-5.6613	9.0568	14.2204	-4.2750	-18.6250	-3.0152	-8.6582	-8.5838	-5.7455	-2.8595	-1.7547
4472.0290	3.5873	6.6270	32.1735	2.4302	9.8274	-0.7025	4.0658	8.9408	6.8984	-7.3223	13.3341	3.9319	-4.5661	6.3665	12.4075	11.2009
4480.0290	-2.4876	4.2254	25.2735	-0.5821	-2.1417	-4.1922	-21.6687	-12.1053	8.1774	-7.9216	14.9653	3.4104	-14.9918	6.8868	9.0072	8.6454
4488.0291	-17.7396	-12.5871	4.2398	-11.1543	-29.4010	-16.1443	-27.0714	-10.6134	-10.2976	-29.4937	-9.8468	-16.7312	4.7528	-11.9551	-15.5856	-13.8581
4496.0291	-17.9322	-11.2701	5.2790	-10.1080	-27.2158	-17.1584	-26.2258	-7.2716	-11.5677	-36.2828	-15.5211	-19.3810	0.4247	-8.8015	-15.5644	-14.1442
4504.0292	-12.2794	-7.1979	11.8631	-8.2271	-11.5319	-17.0816	-28.4373	-16.4969	-6.1368	-36.8450	-13.7600	-17.9431	5.2815	-5.9926	-17.6954	-15.6906
4512.0292	-7.1977	-3.9750	10.2457	-4.8164	-4.1118	-12.2727	-13.2373	-4.7749	-3.9713	-30.2909	-10.5834	-14.1885	9.3187	-3.3063	-13.7132	-11.4770
4520.0293	1.5113	7.3375	17.9208	4.4887	11.4108	-2.7468	4.6079	4.2973	3.2317	-17.6891	-4.0464	-2.2868	-18.5459	13.2601	8.6676	6.1474
4528.0293	-0.0564	9.7211	21.2877	5.8094	17.4559	-1.2789	6.5022	3.4244	6.4948	-15.1279	-0.9110	0.9693	-16.8076	18.7311	19.5771	10.0269
4536.0294	-8.9085	2.0156	2.6165	1.5570	3.3947	-2.2772	4.4668	8.8530	-1.7893	-14.3727	-6.3809	-3.9062	-10.6149	9.5523	12.1521	5.1716
4544.0294	-8.7430	0.4006	-15.9593	1.8721	0.0851	-0.1376	7.5802	10.2524	-6.6925	-8.1213	-13.0093	-2.3712	4.6309	5.1302	10.8135	5.1825
4552.0295	-4.3575	6.3274	-26.7948	2.3551	6.4724	1.7160	2.6002	16.2463	0.2957	-6.0054	-7.8958	0.5477	15.5407	7.6351	20.3517	5.7366
4560.0295	-1.4314	8.3764	-45.8708	0.2760	3.7321	1.4117	-2.2464	17.3219	6.1600	-6.0208	-2.9237	-2.4713	-12.3590	5.9083	17.5844	-0.2707
4568.0296	2.4219	9.9948	-59.7658	3.1604	0.7596	5.4100	8.4589	9.7778	12.6482	7.3715	5.0705	4.4214	-14.2776	10.7732	21.6074	1.9798
4576.0296	4.0058	14.9943	-64.4192	7.7421	-0.1867	10.9038	7.5055	11.8354	17.2531	17.5602	11.1702	13.4345	-6.4968	20.9603	34.0085	12.3350
4584.0297	0.9742	8.5602	-80.6942	2.6089	-7.5344	3.7163	-7.5926	-5.1452	8.6044	8.4388	-2.9220	6.0295	9.8588	7.1793	16.5690	1.1810
4592.0297	0.4346	1.1049	-88.2711	-2.1347	-6.7648	-1.4987	-1.3574	-23.7119	4.4168	8.0885	-7.8714	1.8238	25.5950	-7.8053	3.0541	-10.5778
4600.0298	4.7554	6.7595	-75.2033	1.4606	1.9061	5.2581	9.0653	-2.3202	9.6732	14.7717	2.2456	5.7046	3.0843	0.0091	12.9029	-2.4350
4608.0298	3.9726	6.8022	-71.0449	1.1989	-10.5783	4.1507	-5.1827	0.6972	9.9343	10.7012	4.1571	4.9770	5.0939	3.0211	8.8505	-1.4826
4616.0299	-1.0198	-1.1154	-69.6334	-3.1439	-22.9547	-1.3700	-14.8616	-25.6234	6.1702	11.0444	2.5493	2.9207	2.5060	-4.9578	-2.3362	-7.9431
4624.0300	-4.7475	-6.1039	-60.2505	-7.3304	-8.0101	-2.1368	-3.2501	-15.9033	-1.6124	9.5700	-2.9202	-2.5792	7.4289	-18.5340	-4.4790	-12.8298
4632.0300	-5.6104	-4.1163	-52.9258	-6.4419	0.1133	0.5512	7.3414	14.8976	-5.1575	5.2522	-3.6536	-3.3938	31.7667	-19.8010	2.8795	-7.3509
4640.0301	1.4972	3.7763	-42.1263	2.0707	-5.3771	7.4461	7.7310	17.6258	0.7602	13.4648	3.7407	5.6316	-5.0065	-1.2794	9.2754	7.7179
4648.0301	-0.1222	-0.9735	-35.8460	-1.3697	-7.2620	1.5820	1.2426	-4.1083	-1.2826	8.8088	-0.4340	1.9471	-6.4930	-7.4789	0.1599	-0.2494
4656.0302	-15.7725	-9.6209	-32.5314	-8.9054	-5.9839	-7.9628	3.7223	-9.5180	-7.2210	-7.2268	-3.7958	-6.8864	18.0353	-18.9459	1.2399	-7.3225
4664.0302	-22.6626	-7.6807	-25.2201	-4.7108	-1.3066	-3.3587	12.3504	2.9067	-8.1737	-5.2919	-0.9027	-3.5277	7.6967	-8.5512	12.2817	5.1368
4672.0303	-23.2824	-13.1611	-28.7391	-9.1505	-9.1040	-6.9453	-1.0951	-4.8325	-14.5499	-6.8851	-10.3663	-7.5717	30.4833	-18.7107	1.6059	-4.6441
4680.0303	-18.7293	-13.3340	-24.7012	-11.5577	-13.5021	-11.0948	-12.1989	-20.8884	-12.4375	-9.7037	-10.7127	-9.1373	16.3889	-22.2340	-3.5379	-10.5500
4688.0304	-11.1828	-6.5747	-14.0835	-6.5738	-1.9418	-6.5063	-3.9304	-25.5405	-3.1697	-0.9970	-0.3239	-1.8384	-7.0407	-12.1871	4.7824	-3.3601
4696.0304	-11.7890	-9.2361	-18.4177	-9.5566	-3.7281	-7.3399	-2.5633	-7.6954	-6.1682	-6.5146	-5.0646	-8.8570	8.5002	-17.7157	-2.3820	-12.4549
4704.0305	-3.8681	-0.1381	-15.8643	0.4160	-4.0765	2.8733	-0.3205	14.5518	0.1440	0.8554	1.5997	-1.9771	-1.6714	2.5196	-2.6132	0.0176
4712.0305	0.0657	0.8790	-16.7362	3.9066	-5.9518	5.9611	-3.9202	-10.4639	5.6693	17.0668	10.4762	9.3640	13.2671	7.0712	-2.0079	5.9181
4720.0306	-5.7110	-9.6640	-18.1542	-7.6639	-13.0645	-5.5919	-12.3627	-16.3935	-4.8909	0.1634	-3.9005	-6.1555	14.6458	-15.6125	-15.8765	-14.4189
4728.0306	4.0767	3.8199	0.0935	3.4400	2.6807	4.1418	2.1367	16.2146	2.8998	-0.5697	2.0584	-1.4754	-17.4906	7.4026	-5.9722	1.1047
4736.0307	3.1660	3.1485	-5.7311	5.5734	-1.3189	6.0446	9.5624	2.0536	6.1325	10.9868	9.2144	7.0048	-0.3722	10.3921	0.7955	6.8511
4744.0307	-1.7662	-6.9539	-16.4455	-4.6998	-11.4261	-1.8304	2.4194	-1.3912	-3.7986	3.7606	-1.4371	-3.3204	15.8914	-12.1548	-10.0037	-9.5191
4752.0308	11.2667	5.4541	-1.2844	3.2392	5.9977	9.8350	3.7286	15.5905	7.2504	20.1983	13.0131	8.9438	7.0016	2.0495	3.5479	4.3985
4760.0308	10.3241	1.9781	-1.5204	0.6717	-4.8245	7.7757	-0.3701	1.8732	6.1550	24.6465	13.9064	10.2256	-1.2869	-2.2260	4.1077	2.5475
4768.0309	11.1601	0.6356	2.3209	-0.3209	-12.8151	2.1690	-6.0249	3.6786	1.0090	8.0925	2.4088	1.9862	-7.6724	-3.5455	-7.6910	-3.1573
4776.0309	16.2146	9.5472	16.4505	8.0046	0.8409	9.4853	-3.0320	2.7027	11.5199	18.3263	16.0233	13.5680	-7.2243	14.0010	2.9123	11.3628
4784.0310	8.0197	2.1351	16.8903	5.2676	-1.4634	9.0097	10.8197	9.5915	2.8920	19.2883	11.5770	10.3669	1.2199	5.7701	1.5486	9.9820
4792.0310	15.2413	8.5909	24.9400	12.0865	9.1004	13.7235	13.1633	22.9093	2.1376	18.2988	7.3876	14.2716	21.1923	13.9092	-0.0608	18.5700
4800.0311	14.3731	8.3470	21.9215	10.6865	7.4672	11.3921	-12.7913	-8.6412	4.8431	22.5557	8.3577	17.2917	14.9310	13.9562	-3.7820	16.8605
4808.0311	3.7566	-5.0489	13.9941	-0.4891	1.7993	1.8721	-7.9104	0.2392	-10.6346	4.0416	-12.1157	-3.4026	4.4833	-8.2522	-21.6012	-5.6400
4816.0312	16.6671	7.6762	25.9207	8.9703	27.2211	11.0890	19.1447	20.6110	1.2900	12.6841	-0.4297	7.0632	12.6806	6.9649	-3.5103	7.0711
4824.0312	11.2686	6.2209	15.9342	7.2342	15.1538	10.6398	5.6959	-7.1556	6.9149	25.4154	9.8349	15.0499	4.7528	9.4875	8.2486	10.6565
4832.0313	-5.8199	-12.2516	-4.1940	-5.6159	-8.9324	-1.4487	-10.8972	-2.0683	-16.8697	1.8058	-21.1909	-9.2359	16.4628	-14.9985	-22.7002	-14.7855
4840.0314	4.0727	-8.3816	-0.3728	-1.2992	-1.9310	0.2779	-5.1197	-9.7520	-13.1036	4.5818	-21.3111	-6.1915	13.7352	-10.6168	-29.2072	-14.3793
4848.0314	7.6407	-2.7845	5.2210	3.1217	-13.6312	3.5930	-2.3434	-18.5328	-0.9278	15.5462	-1.7116	5.2472	-12.1799	3.4804	-13.6467	-1.6267
4856.0315	-3.1262	-5.2966	2.9209	0.3718	-26.0073	0.0756	-14.5215	6.3298	-8.4563	-2.0571	-9.3291	-3.0060	9.7251	3.2343	-14.3499	-1.7187
4864.0315	-4.6764	-8.5370	-0.2953	-2.1335	-21.7406	-4.1621	-23.9292	-19.5719	-11.3377	-2.8311	-16.5015	-4.1760	15.2132	-3.4195	-20.3565	-7.4902
4872.0316	-0.3173	-6.4702	5.4676	1.3142	-9.2871	0.8378	0.0322	-16.2107	-7.0023	7.1160	-9.9850	-0.3058	-4.0284	0.5708	-15.4499	-4.2925
4880.0316	-4.0752	-2.8869	8.2930	2.9308	8.6228	4.6350	16.7196	22.3311	-9.1055	-0.9921	-10.7670	-4.6919	-1.2040	2.6323	-7.2163	0.8489
4888.0317	-10.2029	-7.3828	0.0742	-2.8734	9.5257	-1.6387	9.1571	5.5323	-13.6716	-6.7412	-17.1918	-9.3681	-7.1631	-8.8179	-7.1487	-5.3438
4896.0317	-0.2712	2.2181	8.5457	5.0717	12.7856	6.8445	17.9569	20.9050	-2.9510	3.7760	-4.0877	0.7003	-9.4563	8.0655	4.1044	6.3747
4904.0318	10.2067	15.7802	16.0530	16.6744	14.2668	18.5195	19.8958	46.8805	8.2590	13.7537	10.4992	13.5843	-6.3407	32.1458	16.2220	26.1399
4912.0318	10.2735	11.0838	6.6307	12.9403	5.7490	12.2888	10.9943	17.2106	5.0679	13.1287	6.1762	13.1808	-4.3998	21.1715	7.8454	20.7916
4920.0319	13.7774	10.0543	8.8229	8.7825	13.7408	8.6641	10.0445	3.9207	7.0255	13.6665	8.4457	12.3828	-3.2003	10.4109	7.5981	14.2313
4928.0319	10.9782	8.1739	9.9410	4.3784	6.2375	5.9856	0.4875	5.2347	6.7491	11.0068	10.0958	9.4138	-13.6921	5.8018	10.6749	10.5607
4936.0320	1.8584	-1.3744	1.9329	-3.3090	-7.8739	-3.5028	-8.5363	-8.3028	-1.4013	-1.3531	-0.6869	-0.4893	-5.9534	-6.9656	0.3431	-2.2940
4944.0320	1.0777	-2.7748	4.4082	-4.4416	-0.4390	-5.0661	-5.7195	-13.1834	-2.4839	-2.7825	-4.0440	-1.7180	8.5216	-10.1154	0.0825	-6.0099
4952.0321	4.3607	-1.3140	10.3264	-0.8527	-7.7755	-0.7944	11.1858	-5.9082	-0.8980	7.0640	1.7089	5.6473	8.2912	-4.2663	11.5497	2.6799
4960.0321	3.8367	-1.1673	12.7284	-1.5710	-7.8028	-2.3892	19.5327	-5.1590	1.1272	5.1472	7.1438	6.4595	8.3821	-5.9535	17.0258	4.7199
4968.0322	-3.7595	-2.8720	14.3877	-7.4574	10.4927	-8.0805	4.1640	-9.8507	0.2222	-8.6897	2.5516	-3.6558	4.0808	-13.5405	11.9820	-5.6357
4976.0322	-7.4670	-4.7156	16.6741	-8.9527	9.9806	-10.3888	4.7458	-0.7188	-2.5191	-18.3970	-4.1280	-10.5336	4.5875	-12.8926	8.8333	-11.4049
4984.0323	-0.5289	-1.7532	17.8708	-7.1405	5.5815	-9.9397	8.0912	1.8183	0.7639	-17.6533	-1.0720	-7.6504	10.8687	-10.7927	10.0838	-9.7267
4992.0323	5.1693	0.9421	16.2419	-4.5634	4.6552	-6.4923	-0.1290	-5.4179	4.2204	-8.5343	3.2341	-2.3982	6.9012	-7.3816	6.3218	-6.8583
5000.0324	5.9978	3.8744	16.3317	0.8677	3.3469	0.0458	3.5895	-2.3048	8.6680	1.7990	10.2883	3.4908	-6.9121	5.1065	7.9927	0.8917
5008.0324	-0.2400	1.7552	12.8468	-0.5307	3.3551	-0.9782	0.3773	-0.6132	5.1295	-2.0063	7.2457	0.3322	-12.9417	3.4537	6.8019	0.8696
5016.0325	-10.3139	-6.2501	6.1861	-3.6053	-4.6310	-6.0676	-1.6926	-0.8188	-7.7720	-13.8926	-8.6573	-8.1925	2.5315	-4.4131	-5.3311	-4.2621
5024.0325	-16.1156	-10.4567	2.3464	-5.4575	-9.1187	-8.8905	-7.8371	-15.5580	-10.5231	-14.3790	-11.3584	-8.7924	12.1671	-7.1425	-8.6993	-6.3676
5032.0326	-19.2918	-15.9129	1.2144	-13.0546	-10.3601	-14.8580	-16.7340	-27.8041	-14.3962	-17.7163	-16.0182	-14.4305	6.8450	-21.4231	-10.2711	-16.9056
5040.0326	-12.3094	-13.2069	13.4463	-10.5821	-7.8384	-14.5406	1.3193	-13.7330	-14.4989	-23.0577	-19.8934	-16.1029	-1.1754	-18.0909	-7.4523	-16.8068
5048.0327	-5.2903	-4.7542	23.1350	-7.7422	-0.7242	-10.5843	-19.5793	-27.6920	-1.1115	-12.0272	-5.4294	-6.6423	-14.4298	-6.5626	2.6413	-11.1763
5056.0328	-11.2237	-13.1254	11.8153	-16.2173	-13.8887	-14.6673	-42.2959	-44.1183	-4.6087	-8.0174	-8.1518	-11.7576	-15.9535	-19.4115	-6.7421	-25.1173
5064.0328	-6.5754	-15.1798	9.2777	-8.8291	-21.7275	-10.4012	12.5723	-20.2829	-8.9983	-6.4632	-14.0218	-11.1788	-6.2657	-12.2947	-8.8275	-21.4713
5072.0329	0.4512	-3.5810	16.3425	1.5200	-2.5366	1.3033	27.6006	-6.9878	1.6013	9.7630	1.6359	4.0175	0.5953	5.3647	10.2431	-1.2227
5080.0329	-6.4294	-3.0593	12.0800	-2.4698	7.1608	3.3164	2.7473	12.8399	-2.0010	6.4996	0.8205	-1.3333	0.6758	-0.5714	8.2195	-2.2440
5088.0330	-2.5899	-0.1313	12.4515	1.2559	8.2890	2.5187	23.4700	33.3510	-3.3803	-7.5417	-4.4363	-6.7487	-10.4772	4.0147	3.3550	-0.7354
5096.0330	4.7291	5.2337	14.9154	3.0032	11.1028	0.6172	20.8781	7.9090	5.9344	-3.4424	5.8273	1.6639	-18.4818	6.6615	12.3609	4.9561
5104.0331	1.9741	0.4845	8.1676	-3.2945	4.0174	-1.5437	-3.8334	-3.6540	3.2351	1.1048	5.9644	-0.3281	-15.6805	-5.1915	4.4486	-2.5508
5112.0331	1.4426	-1.0709	4.8383	-1.9369	-3.1180	-0.4383	-6.5357	10.8497	-1.3681	-3.6093	0.3334	-4.1886	-1.1436	-3.9359	-8.8494	-4.1690
5120.0332	-3.2691	-2.5896	6.2053	-3.4748	-5.4976	-7.1061	-15.5410	2.6381	-4.2716	-19.0646	-4.9310	-9.0178	10.2128	-5.9282	-15.0207	-5.6546
5128.0332	-7.2904	-3.8263	8.0397	-5.5012	-3.7238	-10.9559	-22.9029	-5.4477	-4.8722	-26.8927	-6.3724	-13.0521	-1.7626	-7.6423	-18.5755	-8.1275
5136.0333	-1.5212	1.5394	4.8328	-0.5135	0.1436	-4.5274	-20.2388	-4.5595	1.8488	-14.5728	2.0006	-4.9104	-4.3018	1.3141	-13.4881	-0.9286
5144.0333	-1.4632	-1.2761	-4.8001	-3.0765	-7.5315	-7.3298	-27.2767	-14.9402	-0.3661	-14.1794	-1.4012	-5.3232	10.6470	-5.2520	-17.6277	-5.4040
5152.0334	-8.2011	-7.1833	-7.1595	-8.0246	-13.9471	-11.5254	-39.4332	-18.4200	-5.6910	-21.0817	-7.8842	-13.2691	4.9998	-11.9895	-28.0150	-14.4509
5160.0334	-6.9848	-1.8093	-3.4236	-2.1819	-2.3405	-4.9301	-19.9692	1.4753	-1.8448	-17.6861	-3.2339	-10.3230	-9.4257	-0.1542	-18.7666	-5.7728
5168.0335	2.7579	6.1195	1.4932	8.3716	3.1811	2.4257	16.6345	17.4426	1.3607	-10.6390	-2.3582	-0.1320	-3.1901	15.1724	-2.3353	9.4513
5176.0335	3.7802	6.4703	7.4566	9.8101	-4.7950	4.5685	5.5898	2.3167	2.8853	1.1062	1.8209	8.3819	3.2556	19.2074	3.9346	15.5714
5184.0336	-4.0786	1.8252	9.0993	2.3516	-0.2173	-0.2020	-9.3852	-13.3160	2.9840	0.5496	6.5136	5.3656	-1.4033	7.6582	5.4170	9.3418
5192.0336	-6.1063	0.3270	10.6844	1.2378	1.2888	-1.8696	12.5978	5.1850	-0.5484	-7.4630	1.9120	0.6414	3.3387	4.7097	12.0114	7.5723
5200.0337	-13.3104	-2.3497	4.8359	-0.3032	-14.3014	-2.6820	6.8145	25.1210	-8.0461	-16.3776	-6.9163	-5.8358	-3.9180	5.8765	11.4207	7.2065
5208.0337	-22.9895	-8.2255	-3.3627	-7.6580	-12.6592	-12.7533	-10.6828	11.2909	-15.1210	-36.0752	-19.2584	-19.1259	-16.0567	-6.3330	-1.7173	-5.0211
5216.0338	-18.2938	-6.2879	6.9484	-6.0120	-3.4493	-14.2625	-5.4993	-6.9963	-11.0015	-34.0054	-17.5381	-14.4400	-3.3037	-4.5542	2.7389	-4.2676
5224.0338	-12.9505	-1.9016	12.7657	-3.6105	-6.7356	-9.5518	-10.7615	-0.7666	-6.2447	-24.5511	-8.8010	-7.6102	-6.8045	0.9301	10.0618	2.6897
5232.0339	-12.0677	-1.2988	11.3662	-3.5774	1.7306	-9.0309	-8.5628	5.3746	-6.8845	-27.2179	-9.0138	-10.2549	-10.4903	-2.0174	3.7813	1.5854
5240.0339	-6.9486	1.3734	22.4907	1.6666	9.7662	-3.0798	3.9265	-7.1256	-0.7258	-9.1993	-0.0507	1.6194	-0.9510	6.3902	13.2858	9.4755
5248.0340	-0.0378	2.7331	21.2374	-0.8856	2.4493	-4.7546	-11.0478	-19.6366	2.9201	-5.3418	2.3293	3.0162	-15.8404	2.6490	13.0918	4.9647
5256.0340	2.7885	0.1586	11.1142	-5.4970	-6.4977	-10.3040	-25.4560	-16.5920	-0.8123	-17.3974	-5.3132	-5.9333	-5.9720	-8.0668	-4.4781	-7.0580
5264.0341	4.1820	0.4263	14.9497	1.2278	-14.0817	0.0545	-7.5506	-0.8131	1.0282	2.1925	4.3690	4.3305	12.1098	3.3474	-0.5113	3.8777
5272.0341	14.8093	7.0945	23.2378	8.8251	-5.3717	9.7001	12.3641	6.8968	9.3284	19.6575	14.7881	14.4499	-2.5591	15.9183	7.7446	12.8008
5280.0342	17.7019	9.6392	28.8809	7.6558	9.2498	6.7245	7.2847	-4.9270	13.8285	14.7703	14.8113	12.8351	-3.5815	14.8604	8.1958	7.7803
5288.0343	7.7162	5.3012	25.2362	1.7463	8.4258	0.5609	-7.2821	-15.3581	11.3108	5.4589	12.6015	6.4547	-9.1994	7.8603	6.7707	1.9327
5296.0343	9.5054	6.2844	21.0010	2.0789	10.4913	-1.2532	-4.2334	-17.5490	13.4368	0.3572	12.9316	4.3732	-12.3954	7.9441	2.2525	-0.4038
5304.0344	8.9454	5.8738	24.6149	4.0537	13.8960	0.7525	15.9129	-5.9092	13.8707	1.9294	14.8739	5.7295	6.3966	10.6852	7.1509	1.5028
5312.0344	7.7290	6.8681	28.0624	5.3107	16.6715	6.2411	29.7471	32.0946	7.4587	1.8811	10.3102	3.5296	4.2583	10.9515	14.4388	6.6412
5320.0345	19.0752	18.4956	35.6276	13.5746	25.9285	13.8651	25.8185	42.3660	14.5696	8.3313	16.4173	12.7259	-4.8286	25.3695	22.0805	20.3579
5328.0345	11.0042	15.5860	29.4889	10.5967	19.0960	6.1812	12.7392	7.5175	17.7728	2.7759	20.1575	13.3168	-6.8856	24.7272	23.6531	19.2896
5336.0346	-2.6472	3.1561	12.4143	-0.1930	0.8488	-5.1511	8.1955	5.3137	5.7553	-15.2154	5.9429	-2.1502	-2.9165	6.2470	13.0086	2.7085
5344.0346	2.5336	5.9024	12.9971	3.3653	-7.6260	1.2158	15.5082	24.8652	7.9921	-5.6747	10.4972	2.9418	4.9996	13.4278	18.5697	7.6698
5352.0347	5.3833	10.4825	4.9696	5.6016	-2.5613	3.2187	13.2284	16.0043	14.4388	0.4601	17.8295	9.0438	1.9245	17.5116	25.4683	13.0179
5360.0347	6.5405	13.1861	-14.2798	4.5239	10.6434	1.2508	2.0201	9.6123	14.0300	-5.8644	11.7649	5.5553	2.1130	11.6872	19.0288	9.3974
5368.0348	4.2896	13.6032	-24.8009	6.7452	10.3913	5.3772	0.0981	7.7882	15.3664	2.4654	13.8110	8.5995	-2.5484	16.9684	18.7885	12.2519
5376.0348	1.3976	9.3601	-40.0931	5.3788	4.5092	6.7045	1.3681	7.0106	11.2297	8.5136	9.4646	7.4751	1.9867	12.5442	13.3446	8.2588
5384.0349	8.1082	13.0567	-44.0152	10.8193	8.0137	15.4090	7.0578	22.4221	10.8932	21.6765	9.6230	14.0940	18.1599	17.7235	13.3615	14.9292
5392.0349	4.9516	12.4101	-36.4421	13.3968	8.6765	17.8295	15.8117	21.3905	10.3313	26.2785	11.0206	17.2362	12.7781	23.7497	18.2790	20.5710
5400.0350	2.1423	5.6375	-37.4520	6.3416	10.5809	8.5135	11.5204	6.3409	1.5971	13.0790	-4.4829	7.0714	17.0083	7.4756	8.4137	6.5349
5408.0350	7.5085	7.9421	-32.7690	8.1849	10.7994	11.5920	6.9787	-0.0642	4.4140	22.5497	-0.7239	12.5586	11.1547	10.1192	10.1891	9.5990
5416.0351	-0.7707	4.0377	-27.8887	5.8004	4.3449	9.9926	7.9918	-7.0935	5.8903	23.6463	6.2478	11.6601	-10.7718	11.3594	13.9521	9.6853
5424.0351	-7.9721	-6.4427	-31.5817	-5.1157	-2.1139	0.0452	0.5227	-1.1740	-6.9124	5.7563	-10.5546	-4.6330	5.0603	-10.6507	-0.0720	-9.6915
5432.0352	-5.6416	-7.0207	-29.9893	-2.9840	-6.2185	3.5721	-0.6885	8.4687	-10.8676	9.6438	-16.5137	-4.2941	16.5401	-8.1610	-6.0538	-9.7920
5440.0352	-3.9668	-1.0559	-18.9357	5.3282	8.6563	11.7774	11.9653	6.0903	-2.4053	22.6896	-6.0206	5.7128	8.5750	9.8215	3.5694	2.2561
5448.0353	-4.4354	1.1142	-11.2467	4.4687	13.7208	12.4194	6.6722	8.9169	0.6939	23.4074	-0.0705	6.7525	-2.0054	10.6291	10.3471	4.6759
5456.0353	-11.3619	-7.0961	-19.7857	-3.9396	-13.7205	0.4560	-15.9950	0.8466	-8.0502	2.5290	-10.0958	-5.9523	-8.5236	-2.8530	-7.0338	-7.0600
5464.0354	-10.0935	-11.1055	-23.9494	-6.8057	-14.8438	-7.6370	-10.5601	-11.8625	-11.8709	-10.4612	-17.3898	-11.7776	13.3491	-13.8562	-20.2056	-15.4621
5472.0354	-0.9270	-4.3501	-18.1885	-1.0702	3.7428	1.6984	10.5596	6.6462	-7.6460	3.8993	-10.0435	-2.9953	20.4478	-9.4733	-8.7684	-5.6692
5480.0355	1.2229	-2.7115	-17.8978	0.9639	4.4361	5.3703	9.7679	24.6043	-9.1807	3.5224	-12.8680	-4.9883	18.5389	-5.9509	-14.2628	-5.4893
5488.0355	6.6182	0.7144	-9.2098	2.3546	9.9617	4.1958	2.3854	10.9978	-2.6665	3.1902	-7.3048	-1.9997	22.4415	-2.4692	-16.1374	-5.4528
5496.0356	9.7779	5.2476	-5.8102	4.5314	5.6116	8.1129	-4.8128	-2.9954	7.2190	18.9279	10.4187	9.9625	5.1875	4.5604	-2.1364	5.2705
5504.0357	6.5577	-1.1555	-17.2264	1.4714	-7.1789	7.1743	-4.7941	1.9973	0.3532	19.5514	4.9534	5.7767	16.5338	-3.8850	-13.0396	-0.8617
5512.0357	4.6131	-5.1100	-18.9710	0.3909	-3.6980	6.6942	2.0601	5.0839	-7.2005	18.5042	-4.2083	2.8627	32.8855	-10.9869	-18.7755	-3.9386
5520.0358	-2.5533	-5.8213	-18.6258	-0.3760	-6.2632	4.9542	-6.5026	-0.3566	-9.4958	14.5035	-6.0490	2.1896	19.7022	-8.9961	-13.6870	0.0593
5528.0358	-1.9796	-4.6895	-12.9327	-0.0766	-2.1612	1.6497	1.6333	1.4626	-6.6732	3.8102	-5.2362	-1.8197	14.4580	-6.6871	-15.6300	-2.4675
5536.0359	6.4335	3.9428	-0.6514	5.0097	15.6452	5.8645	16.0825	-0.1241	4.6958	10.9573	6.8360	6.3779	-0.4549	3.5001	-0.0964	5.6988
5544.0359	3.5411	2.9784	-1.9908	2.5317	15.5537	6.8902	-0.4689	-6.8778	4.9498	17.3767	6.7929	7.2541	-3.6827	2.6208	3.3452	3.1550
5552.0360	0.7335	-2.5022	0.0049	0.0621	9.4793	5.0406	-0.6970	1.2160	-1.0905	11.8622	-1.3500	0.0950	8.7882	-1.7591	-9.0150	-5.7941
5560.0360	0.1705	0.8356	3.8826	4.8826	2.2329	5.9503	2.5903	1.0414	1.6063	9.8775	3.0852	4.9147	5.9065	9.5793	-3.2984	4.9684
5568.0361	-7.4016	-5.7516	-6.0034	-0.3405	-14.2452	-0.7168	-17.4285	-17.2493	-3.3864	3.7984	-2.6165	0.6486	16.2662	2.1830	-12.0353	-1.8270
5576.0361	-10.6821	-14.8437	-9.5438	-7.5429	-18.2217	-7.2588	-18.2370	-16.8800	-14.5101	-6.9010	-17.9094	-12.1537	18.2556	-15.0664	-29.8299	-18.1686
5584.0362	-2.8830	-6.9196	-2.5510	-1.9963	-11.0456	-1.2328	-15.8269	-4.3504	-11.3564	-1.4532	-12.8800	-5.3708	5.5462	-7.6409	-22.0438	-5.8727
5592.0362	4.3059	-2.1811	0.8476	1.2836	-8.3503	3.0536	-17.8444	-8.0813	-4.7998	9.4770	-2.5361	2.9982	7.0549	-3.2833	-18.2663	0.8271
5600.0363	2.1663	-6.2013	-0.7958	-1.9227	-3.3307	-1.8514	-6.1667	-4.6637	-9.5109	-2.4749	-12.1237	-6.5302	6.1057	-10.8882	-26.1031	-9.4843
5608.0363	8.3078	2.8546	6.3390	3.5538	4.8356	3.5548	-2.7216	17.8842	-3.8945	-3.1026	-6.8446	-2.6764	1.7692	0.8522	-16.0264	0.1031
5616.0364	18.4487	11.7269	16.4472	9.3185	4.8215	12.0134	-3.5588	13.5178	11.6356	19.0005	18.2501	14.0274	-7.4671	13.9470	0.3863	14.3815
5624.0364	9.0495	1.4666	7.9721	-1.0171	0.1432	0.9175	-5.4421	-12.4860	7.3386	10.9590	13.7078	5.7609	-4.6255	-4.7040	-2.9650	-0.7512
5632.0365	5.1459	-6.2145	2.0201	-10.3440	-5.0434	-8.6647	-14.7601	-14.4465	-0.7070	-4.7076	-0.0730	-7.5468	10.4651	-22.4901	-14.5770	-19.3065
5640.0365	11.1485	-4.1052	8.3443	-8.0712	-9.5084	-7.1173	-11.4357	-14.4716	2.9952	-1.8550	3.4276	-5.7246	-5.8271	-17.2297	-16.2476	-18.6257
5648.0366	8.4252	-1.4142	9.9110	-4.9488	0.8519	-5.7977	4.8379	-9.0532	5.6277	-4.7749	6.8056	-5.0162	-18.6583	-10.5525	-8.8273	-12.4261
5656.0366	13.6404	5.2878	8.5955	-1.0440	5.7681	0.4496	3.5979	8.8427	11.1284	1.8884	15.1659	1.2918	-2.4480	-3.7346	-1.1842	-4.3740
5664.0367	10.6213	-0.0013	-2.2554	-6.0861	-6.0089	-4.3664	-13.4276	-9.7022	6.8940	1.5788	9.5443	-0.9169	6.0340	-13.4563	-7.7292	-11.6808
5672.0367	-1.1789	-9.0783	-5.1914	-12.6465	2.6299	-11.8261	-0.3433	-14.8111	-3.4761	-11.5108	-4.2823	-12.7792	1.9361	-27.4547	-11.9592	-22.6722
5680.0368	6.6592	0.5377	5.4862	-3.1746	6.1303	-1.2608	16.5129	3.5238	5.5653	2.5466	9.6416	-0.2759	-10.9939	-8.5351	5.3828	-4.8462
5688.0368	4.0828	-3.5175	-6.7928	-7.9145	-14.4916	-7.1353	-5.1441	-30.2524	6.2204	6.2324	10.2470	2.2385	-15.3894	-14.0411	6.4787	-8.8866
5696.0369	-4.3597	-15.1441	-16.1616	-19.3827	-11.7219	-16.8170	-7.8084	-30.0159	-6.5531	-9.9802	-9.4646	-16.1951	-7.8468	-37.4874	-10.0404	-32.9367
5704.0369	8.3648	0.6352	-3.4960	-2.1327	-2.0831	1.2589	10.3817	19.5473	0.2451	0.8873	-2.1345	-4.3388	-12.7739	-5.8194	-1.0982	-8.4046
5712.0370	7.8134	7.1280	-4.5554	6.4757	-4.8513	6.2887	8.3324	5.3841	7.0622	10.6331	9.3188	9.7428	-12.6386	11.7706	10.2432	11.9095
5720.0371	-6.6576	-5.8568	-12.5491	-5.8568	-2.1579	-5.3674	7.9631	-9.2448	-3.0606	-2.9562	-0.4743	-3.8782	-1.6744	-12.8800	2.1196	-5.5803
5728.0371	-10.3252	-6.5519	-16.2511	-6.6475	-8.1284	-6.8710	1.8918	9.1927	-10.7593	-15.2082	-12.3069	-10.8260	-0.0206	-13.5793	-1.3734	-6.5646
5736.0372	-7.4236	-5.7915	-18.1355	-6.1728	-15.4892	-8.8506	-11.9678	-3.8689	-11.0328	-16.6341	-15.1131	-9.3677	2.9184	-13.0776	-6.4060	-6.3393
5744.0372	0.3527	-6.4737	-9.4529	-7.0656	-10.9823	-7.0777	-6.0921	-6.5185	-7.4926	-7.3268	-9.1186	-7.4607	5.9447	-17.9549	-11.4266	-11.7710
5752.0373	4.2576	1.7863	0.3211	1.2835	-0.0748	1.7121	12.2959	9.0626	0.0579	2.7940	3.2811	2.9904	0.4634	-2.0900	4.9252	4.9983
5760.0373	1.1789	4.4487	0.9425	3.5405	7.6194	3.0908	18.7041	5.7032	4.4201	5.2999	11.2502	8.0277	2.7860	3.1130	15.6132	13.1922
5768.0374	-0.7827	-1.9827	-6.3942	-3.1524	-2.7899	-2.5309	-1.9671	-10.8447	-0.0520	2.9523	3.5536	2.1959	10.2516	-8.6764	3.3077	-0.3728
5776.0374	-5.7676	-9.5775	-12.5089	-9.5133	-12.0253	-9.9604	-20.3517	-40.0918	-5.8665	-0.5808	-7.4472	-3.2166	10.1535	-19.0868	-6.3827	-12.7664
5784.0375	-10.9202	-15.6799	-9.4573	-12.7436	-13.4803	-12.3238	-11.9541	-37.7603	-10.2929	-3.8715	-11.0341	-9.1092	10.2162	-25.0178	-12.5052	-19.8740
5792.0375	-3.4656	-9.9070	-0.0069	-6.4701	-10.4690	-3.6437	5.2286	3.0541	-9.1106	-1.2769	-7.2795	-7.7121	6.5948	-15.3754	-11.9958	-12.1086
5800.0376	8.5134	3.5567	11.0754	5.0348	5.0253	7.0692	19.1509	13.8739	3.3280	11.5468	7.2134	6.2356	-5.3883	5.5159	3.1684	6.6658
5808.0376	6.3288	6.4614	14.2601	9.6944	4.7707	9.8491	17.1895	10.4394	6.8157	13.9717	10.2712	10.8792	-5.1833	18.5930	7.8314	14.1340
5816.0377	1.3140	3.7320	14.1338	7.2246	0.4410	5.5797	3.0577	10.3279	-0.2290	3.1209	-0.9308	5.7195	14.6560	14.8052	3.0830	10.7403
5824.0377	-0.4494	-2.7719	12.0528	-2.7410	-0.5859	-4.9812	-16.6999	-19.7421	-4.2658	-3.2121	-7.3058	0.4817	29.4616	-6.0690	-2.1410	-3.2932
5832.0378	-5.6456	-10.9018	6.8624	-8.7343	-18.9826	-9.6063	-27.5504	-27.4696	-11.1582	-5.7628	-14.6871	-6.2795	18.1949	-15.2806	-12.1446	-13.5338
5840.0378	5.5347	1.3147	19.7298	5.0902	-9.2457	4.7224	-0.5452	4.8749	-3.7069	6.7014	-5.4870	4.6297	-8.0000	9.7225	-0.1707	6.6894
5848.0379	15.0940	12.2299	28.4552	12.8019	6.1628	10.7202	16.8041	8.1585	8.9960	14.7308	10.5002	15.8516	-20.4127	23.2780	16.3523	21.1759
5856.0379	4.7791	3.3681	19.5822	3.6032	-2.7695	1.1822	4.1139	-2.3911	0.6826	2.1964	2.0413	6.1122	-10.6371	6.3887	9.2681	9.8487
5864.0380	7.4801	3.7663	23.7757	2.5818	11.5797	3.1399	0.9725	-7.3483	0.6142	9.6810	1.8184	8.2327	-1.4486	0.9592	10.1283	7.9671
5872.0380	8.9784	1.5819	19.5030	-1.7964	9.6251	-0.8441	-9.1996	-22.9203	2.7210	9.5653	2.8207	6.0455	-2.9814	-6.5877	5.2383	-1.0167
5880.0381	3.3068	-3.4380	14.6097	-5.3885	-4.3378	-6.0236	-4.6319	-0.7586	-5.7286	-9.4585	-7.9346	-7.1963	-12.2529	-11.8935	-5.9736	-8.8556
5888.0381	9.6561	11.2324	31.4594	10.2000	10.6961	10.4533	15.4648	24.4699	6.0416	7.6914	8.4458	8.7754	-44.3500	21.0404	16.1714	18.9100
5896.0382	-1.5789	5.9143	21.5693	7.3059	-1.8619	6.2124	-4.6812	-15.5574	7.1775	12.2657	10.6566	10.7612	-66.0816	22.8656	16.3906	17.9071
5904.0382	-13.0844	-13.4618	5.7868	-9.4994	-11.5596	-10.9854	-17.6385	-28.4498	-13.0176	-13.3925	-17.8683	-15.1646	-43.6495	-13.6271	-18.8948	-16.9820
5912.0383	1.5917	-0.2441	22.6987	2.5557	9.4293	3.8761	0.7938	13.6269	-5.2576	-1.4854	-9.2298	-5.0535	-24.7839	5.4089	-10.4074	-1.9955
5920.0383	7.8904	12.5279	27.4685	15.7315	4.3973	14.9437	7.5512	22.1375	8.0553	14.6177	10.8292	15.5952	-8.3815	33.5641	13.1121	25.6269
5928.0384	4.7183	6.4579	18.7381	11.7638	0.7931	8.8519	15.6358	24.5974	0.3837	3.0322	0.3521	7.9563	22.9561	21.4717	3.2628	16.5393
5936.0385	6.5343	9.9740	21.7026	15.8806	11.2674	14.3781	22.2273	38.5908	2.6068	6.9210	1.3454	9.7830	28.8825	29.6241	4.8695	19.7277
5944.0385	6.3276	10.8901	20.4826	15.0863	3.0081	13.7368	6.9138	15.7503	8.9385	15.9981	11.6537	17.3533	26.4059	31.8804	12.7376	23.4837
5952.0386	3.4692	0.1414	13.8785	1.3251	-4.9352	1.8210	-12.6603	-3.1920	1.0645	5.6085	0.8968	3.8619	25.2487	4.3539	-3.2253	-0.2648
5960.0386	0.7201	-1.2719	15.6708	-0.5101	1.7668	1.0922	-14.7168	-4.0872	-0.4126	2.7954	-4.0480	-1.4226	2.9891	3.4771	-5.8658	-6.0583
5968.0387	-3.1789	-0.5188	18.7601	0.6516	6.2637	0.1156	-6.0977	-15.1215	2.6864	3.0881	0.6430	1.6192	-8.5208	7.8624	4.3206	-0.7178
5976.0387	-10.2158	-5.9185	13.0616	-5.2333	-2.4484	-6.5328	-9.9397	-5.2154	-4.0116	-12.6325	-6.4728	-8.7530	0.1292	-2.3408	-2.5645	-8.9273
5984.0388	-8.6350	-3.3313	11.9296	-1.0410	-2.6486	-2.4966	-6.3817	10.1783	-5.3782	-12.5934	-8.5522	-7.6663	6.3248	4.2495	-4.7744	-3.6382
5992.0388	-2.5103	1.5433	23.9436	6.2386	12.9021	3.4699	22.6153	18.8455	-3.1814	-5.8336	-4.6262	-0.7298	3.0671	12.0519	2.7813	7.7728
6000.0389	-2.8757	7.4602	32.4780	10.7236	19.8678	5.3638	32.1042	36.6274	-0.2288	-13.3158	1.6943	0.8648	-5.0416	20.9291	10.4722	19.6646
6008.0389	-2.7491	10.7150	21.3692	11.5035	11.3159	6.4928	5.4329	18.6077	4.2409	-5.5962	8.9693	8.2614	-10.0013	24.5090	13.3504	26.7142
6016.0390	-10.6313	-3.9475	6.2411	0.9242	-4.7201	0.4354	-6.2130	3.8058	-9.9898	-4.8533	-8.3497	-3.3503	-17.1737	2.6096	-5.5422	6.1552
6024.0390	-12.9455	-4.9477	14.5397	1.1190	1.4374	-0.4506	9.4408	22.7856	-13.8558	-15.4312	-12.8973	-9.9493	-22.4330	2.0814	-8.3124	4.9180
6032.0391	-3.4778	6.6107	18.0165	4.6740	14.7279	-0.9923	4.7207	-6.0785	4.4598	-8.2308	11.0205	5.4696	-22.8721	8.5168	12.4522	18.9154
6040.0391	-12.3824	-6.8954	-0.4850	-9.7585	-1.9212	-14.3556	-10.9156	-29.5902	-2.5279	-18.7613	2.0478	-7.9783	-14.2302	-17.1411	-1.2133	-5.7186
6048.0392	-21.2467	-13.0221	-2.0998	-11.2103	-4.9580	-15.4115	-5.8089	1.3623	-13.9251	-34.4559	-14.5795	-21.7157	6.6568	-18.2605	-16.6414	-15.1465
6056.0392	-19.8250	-5.9896	1.7982	-4.7111	0.9133	-11.0707	-13.0661	-1.2191	-10.0271	-31.2386	-12.4102	-14.1712	6.3857	-3.8650	-8.0821	-2.6821
6064.0393	-23.0677	-11.7183	-0.6851	-11.4560	-8.6473	-18.8368	-29.5353	-20.6640	-13.8309	-39.0855	-20.8058	-21.8413	-8.9264	-13.3549	-16.1379	-15.3900
6072.0393	-20.3140	-10.1854	8.0249	-11.2412	-3.9912	-19.1196	-23.5699	-12.6228	-10.5204	-42.7077	-16.4196	-23.2621	-7.4984	-12.4446	-16.8930	-16.7864
6080.0394	-18.5040	-7.3121	7.8652	-8.3661	-13.6169	-17.8136	-14.9578	-6.5030	-7.7676	-40.9638	-9.3822	-17.5501	-5.1558	-7.1332	-6.9147	-7.1422
6088.0394	-13.4848	-8.2775	5.9955	-9.0146	-21.5172	-19.7537	-14.4316	-13.3704	-9.5785	-41.2584	-13.9302	-18.2282	-12.6147	-10.7377	-11.3594	-10.4751
6096.0395	-6.4878	-2.1988	8.5214	-7.4209	1.0486	-16.0445	-15.6284	-24.5001	0.9381	-30.4502	-2.6147	-12.0795	-20.0464	-8.7564	-5.7525	-9.4316
6104.0395	-8.0502	0.6557	1.4808	-6.2259	9.8838	-12.2502	-5.7010	-2.9916	2.6303	-29.7541	0.0671	-12.0661	-11.6075	-6.1477	2.6787	-6.6153
6112.0396	3.0916	10.2597	2.0224	4.5576	20.8987	-0.1462	18.1670	33.5587	4.6111	-21.0319	0.9428	-4.6511	-1.4379	8.1188	8.6173	7.1025
6120.0396	9.8129	19.8518	-7.7919	13.0177	27.4821	9.9069	17.3321	23.5861	16.6841	1.0677	17.2494	11.8356	-12.4794	23.7596	21.8628	23.7153
6128.0397	4.0866	14.4908	-31.0525	6.8059	13.4509	4.1956	-0.8039	4.1468	14.8724	-0.9669	12.4257	7.3920	-13.2948	15.3333	16.6896	13.1150
6136.0397	6.8151	12.7114	-42.3080	5.4640	13.0078	4.6640	1.8765	8.0480	13.0904	1.0347	8.8711	4.9117	-4.0811	9.3286	8.7826	6.5739
6144.0398	3.3702	11.1454	-61.9748	7.2746	0.2882	7.6242	6.2895	2.3093	14.1559	11.9019	16.0230	11.0534	-2.9324	11.3411	10.2109	13.3033
6152.0398	6.7141	7.0516	-74.0457	4.0805	-8.6544	3.9505	5.5365	-3.0406	8.0567	9.2236	5.2979	6.7939	7.1726	0.3583	-0.0372	4.1717
6160.0399	19.7628	14.8113	-61.0761	9.1480	5.4664	13.9586	14.5936	18.3193	14.2567	24.1895	12.4605	13.9600	4.2378	7.3132	7.5770	9.3384
6168.0400	17.9992	22.3896	-54.3864	18.1765	4.0133	26.6090	20.7378	37.7981	23.4165	41.8440	29.6890	26.6954	-12.6647	31.7783	27.1197	29.2819
6176.0400	9.7873	13.9673	-53.8593	9.7696	11.1763	15.3688	14.4959	13.3742	16.1519	26.5324	16.1300	14.9671	-12.0242	15.8975	17.2909	13.2849
6184.0401	-3.3417	-2.4591	-54.5599	-7.5062	12.5740	-3.1005	1.3663	-22.9081	4.1581	7.1157	0.1437	-3.1549	-6.7486	-17.5290	2.3602	-14.4602
6192.0401	-6.0223	-5.5347	-50.2989	-7.1071	-0.4648	-2.1889	3.8384	-12.7765	-0.4025	6.8724	-3.6122	-4.6183	-5.2253	-14.9780	0.2129	-14.0513
6200.0402	6.7906	3.9110	-34.1322	2.5284	11.5819	8.5285	21.4789	14.7229	4.8719	16.0431	2.1131	2.8469	-8.5342	-0.1049	4.5870	-2.4936
6208.0402	6.7432	6.6841	-25.6386	5.2721	4.4090	11.8395	18.2043	15.6247	10.7523	23.2116	14.7326	9.8102	-15.7043	9.0831	12.5326	6.8377
6216.0403	4.7466	4.9064	-20.2753	6.6285	-12.4084	10.7581	7.3309	10.8910	8.3641	20.9373	11.3937	10.3892	-9.6595	15.3450	7.8319	8.5205
6224.0403	4.4706	4.3586	-18.6432	5.2014	-2.6078	7.8884	0.7536	0.8357	6.5246	16.1245	7.1787	8.1912	-1.6025	9.9724	2.2147	5.5163
6232.0404	-4.0648	-0.7891	-29.4026	-0.8467	-4.9672	1.2503	-16.2947	-25.5852	4.1823	13.1901	6.8825	6.3979	2.9194	-1.2639	0.0730	1.4524
6240.0404	-6.9786	-7.9967	-26.5236	-5.6567	-4.4511	-4.2194	-6.2995	-19.4790	-6.1674	1.4369	-8.8303	-4.6859	11.7318	-13.4380	-10.2725	-11.1826
6248.0405	-0.9662	-3.7673	-9.9158	-2.6317	5.4035	0.1298	17.2596	16.9359	-6.1614	-2.0987	-8.0437	-6.4430	8.2147	-9.8341	-3.9106	-7.6100
6256.0405	12.0502	7.7497	-2.2910	5.9303	0.4792	10.1321	8.8593	17.3412	7.2371	18.5114	12.3190	11.5471	1.6676	7.3593	9.9245	10.9194
6264.0406	12.2506	3.7871	-4.9183	3.5765	-6.2719	8.0265	3.5190	-0.2129	7.1662	23.7057	14.5093	12.9693	9.8262	1.2782	3.2583	6.7737
6272.0406	-1.0638	-4.1950	-5.5391	-2.2219	-9.7455	0.7810	4.9015	1.4675	-0.5074	8.5378	8.0065	2.9504	19.6739	-7.6699	-1.9456	0.0421
6280.0407	3.9539	2.4747	5.0059	3.8031	-0.1987	5.7726	0.1187	0.0338	4.2421	14.2393	10.3376	10.0094	22.9804	5.0364	3.8511	8.4497
6288.0407	9.2945	5.8144	12.0498	5.4453	12.5296	8.5328	6.6946	-2.3561	8.9204	20.7137	13.8573	13.2079	14.0474	7.6140	9.4175	8.9077
6296.0408	3.3536	2.3597	10.2452	-0.1163	10.5966	4.3182	5.4006	5.0080	5.9080	12.0748	11.2347	5.8452	6.1046	-0.1650	11.4378	2.3679
6304.0408	3.7681	-0.3861	9.1148	-1.2624	5.2414	5.1048	-0.2127	0.1517	3.9643	18.0842	8.1399	6.2815	14.2105	-2.0792	7.7693	-1.8924
6312.0409	-5.3273	-9.9585	4.3575	-7.1580	-4.1062	-0.7838	1.2837	-14.7785	-1.2422	15.5262	5.0954	1.0962	20.6345	-12.6118	0.8219	-10.8420
6320.0409	-17.6211	-16.6881	3.3782	-14.7909	-6.1898	-11.4667	-3.4252	-6.6623	-10.1839	-11.2517	-6.6736	-14.6769	27.3847	-24.3228	-7.1586	-21.7170
6328.0410	-10.8248	-9.5309	8.7023	-9.3704	-1.7413	-8.7469	-4.5530	6.8660	-8.0012	-16.7409	-9.9128	-13.7127	27.2591	-13.6055	-6.4560	-16.5286
6336.0410	-0.9840	-3.0998	8.3179	-3.1765	-4.0466	-3.6250	-3.6170	-7.4595	0.0230	-2.2719	-1.0068	-1.9227	11.9852	-3.1342	-0.0179	-6.5425
6344.0411	-2.0343	-5.7591	6.4283	-6.1028	-0.2989	-4.1366	-6.7709	-11.3281	-1.9674	1.1438	-0.5577	-2.5136	19.1394	-11.6505	-3.0794	-9.7347
6352.0411	-2.2668	-4.9049	8.1627	-3.8265	-1.1185	-0.7393	-14.3059	-2.3646	-3.8466	3.3815	-1.0862	-1.0409	32.3310	-8.2240	-7.9960	-5.8989
6360.0412	4.1678	-0.1882	11.9400	2.1181	-4.4250	2.3528	-18.7679	-16.6339	0.9105	10.4311	1.9609	6.6457	19.9234	3.4634	-8.0239	1.8141
6368.0412	0.0301	-4.5313	7.4603	-1.9070	-6.1679	-1.8696	-12.0172	-26.9153	-0.4860	8.6719	2.5336	4.2235	13.5984	-4.8728	-6.5961	-2.3295
6376.0413	-11.2422	-13.4845	-7.0276	-10.7316	-21.1937	-10.3899	-20.3341	-24.7526	-9.2548	-5.3819	-3.8350	-6.6875	21.8098	-21.1848	-14.9147	-12.0981
6384.0414	-2.4994	-10.9847	-5.8019	-9.2082	-17.4557	-8.7617	-18.7824	-9.9245	-9.7755	-9.0317	-9.5925	-10.6099	23.9757	-21.2158	-25.8478	-17.6250
6392.0414	12.2193	2.3914	5.1235	4.1155	-4.4522	6.1205	8.4250	17.2478	2.1258	9.5975	5.6438	4.5242	19.2128	1.5639	-9.9060	1.7548
6400.0415	7.5272	3.9107	1.1932	6.1617	-11.5985	7.3889	2.4050	11.2334	2.7845	13.6165	9.6449	11.0236	21.5116	7.6436	1.2666	12.5383
6408.0415	1.6403	-4.4345	2.0142	-4.8877	-1.6871	-3.3337	-8.5361	-6.1042	-5.0369	-0.3127	-5.6094	-3.0271	18.3686	-13.1667	-7.7840	-8.4851
6416.0416	8.1917	1.0759	12.8229	-4.0781	13.8063	-2.8967	6.6938	-6.7756	4.9595	1.2788	5.2743	-0.2986	-1.9841	-10.4355	5.0046	-7.4608
6424.0416	6.5489	2.7484	9.8484	-2.8819	7.4918	-3.8534	8.5520	-11.9526	10.1103	0.7767	12.7598	3.1582	-1.6008	-4.6587	12.5186	-2.8548
6432.0417	-6.7700	-6.3923	3.1000	-7.6847	5.1609	-6.4841	10.8558	3.6457	-2.0493	-9.1369	-1.8469	-8.6883	14.9853	-12.4547	3.0292	-12.8100
6440.0417	-9.9316	-2.8632	5.3834	-0.4580	4.6091	0.7141	14.1750	19.1908	-4.8896	-5.0724	-4.3791	-3.8834	10.7847	2.2584	8.5401	1.2113
6448.0418	-5.6397	-0.5949	2.9552	2.1439	-5.9906	1.7396	-0.6817	2.2804	-2.4410	0.7757	-3.6409	1.1658	-4.9828	8.6340	5.9214	4.8179
6456.0418	-5.9666	-4.9170	-2.4655	-3.8628	-13.3666	-2.2480	-10.8914	-0.8981	-2.8917	-2.3783	-3.3457	-5.4656	-13.8628	-1.5823	-4.8212	-7.0403
6464.0419	-7.0176	-5.7713	-0.9195	-3.2308	-8.6859	-2.3149	-1.0279	2.2052	-3.4573	-3.9484	-1.9000	-5.9426	-5.8208	-2.9157	-7.1199	-6.0803
6472.0419	-8.7163	-9.7444	2.4816	-5.2820	1.5498	-4.4536	18.0406	-5.9194	-5.5270	-2.7961	-4.5008	-7.3773	-0.2806	-10.0939	-4.8591	-10.8497
6480.0420	-5.3840	-3.9015	7.8211	-4.2670	0.4968	-2.6404	13.2839	5.0159	-0.1040	-2.6130	1.6740	-4.2913	-10.9551	-3.8099	9.0665	-5.4858
6488.0420	-0.7283	2.4456	9.2171	-0.0900	-13.7794	-0.7586	-10.2699	4.5428	4.7338	-3.2567	4.5682	0.3599	-18.1267	9.7681	9.9250	1.7452
6496.0421	-8.1872	-7.7553	0.5348	-6.1933	-17.0134	-6.4197	-6.5431	-10.0799	-1.8767	-6.6718	-4.2290	-8.2206	-14.9398	-2.5637	-3.6660	-12.9446
6504.0421	-8.7597	-6.8539	2.8919	-4.8443	0.9504	-5.6881	20.5690	7.8517	-5.4472	-12.1950	-9.6781	-10.3997	1.6438	-5.3642	3.6183	-11.0876
6512.0422	2.3358	3.6035	16.5011	4.3375	11.5104	0.4959	29.0911	15.3188	-0.8960	-7.3403	-6.9375	0.3498	9.5659	8.3055	15.7226	4.7956
6520.0422	5.9405	6.3969	20.6235	5.7987	8.0323	3.7469	10.0972	2.3731	4.7554	3.9023	1.5118	6.9643	-2.7325	13.7186	15.7150	8.5598
6528.0423	7.8013	9.8305	16.3283	6.6802	8.1446	5.6779	-2.6475	9.4874	8.3755	3.0906	5.4416	6.4528	-10.0609	17.5250	11.6291	9.0949
6536.0423	4.8907	4.3895	1.7927	1.3553	2.4196	-1.6523	-5.5586	-5.4396	5.5490	-5.9025	-0.3630	-1.2247	-14.3412	6.4009	-0.0836	-2.5203
6544.0424	-1.3005	-3.7436	-12.5654	-5.9130	-3.7901	-7.7782	-14.0056	-20.1368	-0.2193	-9.4280	-7.8323	-8.4055	-8.5127	-8.0559	-10.1701	-15.5856
6552.0424	2.1456	-2.0056	-15.1314	-3.5739	-3.1667	-4.6673	-14.1102	-10.3062	-1.5262	-6.8406	-9.5884	-6.5638	8.3968	-6.8286	-13.1509	-13.1632
6560.0425	0.1578	-7.7808	-20.5559	-9.0852	-5.0368	-12.0662	-15.6754	-29.8836	-5.0382	-12.9842	-13.8710	-11.5346	11.9892	-20.6108	-22.0388	-22.4356
6568.0425	0.1716	-8.0883	-17.9925	-10.6955	-1.7533	-11.9734	-15.7712	-18.1296	-7.2458	-16.9292	-18.4171	-16.7240	-0.4758	-22.6244	-23.8225	-27.0005
6576.0426	9.8216	5.7022	-8.0096	4.1499	-2.7052	5.1179	-5.8846	17.9936	2.8140	0.6911	-4.4346	-1.6069	-10.5481	9.1063	-8.5147	-2.9250
6584.0426	6.0218	4.5823	-11.5529	5.6843	-5.3130	4.9255	-5.8037	1.3062	5.4006	5.6847	0.3794	3.6463	4.5983	13.1625	-6.0454	0.9900
6592.0427	0.0093	-3.4337	-12.8189	-0.6951	-1.4244	-2.1855	1.4133	-3.4706	-2.9877	-5.4516	-13.3629	-7.1620	13.7055	-0.3058	-13.5805	-13.3238
6600.0428	0.3085	-0.9686	-10.4707	1.2966	-5.4320	-1.3849	5.8226	-1.7147	-0.0282	-5.1895	-8.6432	-4.3826	-0.4115	5.6801	-6.0326	-7.3739
6608.0428	2.0748	4.4613	-7.8654	2.7181	2.4146	-0.3023	-4.7472	-4.5460	6.6147	-4.8892	-0.1806	-0.8831	-6.6140	10.4231	-0.9200	-2.1508
6616.0429	12.0119	10.4882	-2.0939	8.8988	10.2140	9.1868	3.9637	24.1897	9.2863	3.2515	1.9951	1.9737	-5.6151	19.4707	-4.1881	1.8463
6624.0429	14.4609	10.8925	-5.5319	13.7133	4.7176	13.5740	20.6551	23.8217	10.3661	14.1770	7.7195	10.0893	6.6023	24.2262	-1.7129	10.7387
6632.0430	13.5665	9.9898	0.6567	12.4214	15.0428	13.1678	32.3050	21.8763	8.6852	16.3143	8.1789	11.1808	4.7788	18.3565	5.9665	12.4435
6640.0430	15.3037	10.5565	6.8328	13.3595	8.7722	17.2848	28.4858	31.5050	7.9841	23.6063	9.2441	13.3123	-6.2514	21.8151	8.5347	14.9509
6648.0431	6.1684	4.1362	-4.5659	8.1817	-3.0758	9.3101	7.9080	8.7871	3.5100	14.5557	3.5071	8.6157	10.9508	14.1631	-1.1779	8.1732
6656.0431	5.2321	5.1281	-0.9839	4.5589	7.7537	4.8757	0.7606	7.3121	4.7806	4.0426	2.2681	2.8900	3.0160	8.9910	-0.9346	2.5178
6664.0432	9.2362	8.2522	0.3397	6.9806	-4.5138	7.8144	-10.6536	3.1053	10.6159	12.2486	10.4046	9.1807	-4.9647	17.5560	2.0706	7.3071
6672.0432	8.2906	1.6024	-6.7122	4.6100	-8.4901	4.9039	-8.7723	-5.2731	3.6260	10.8633	-0.4854	4.6503	19.4231	8.7559	-12.8789	-2.7174
6680.0433	17.7108	5.5824	4.2821	8.1376	2.8282	11.8108	12.0245	13.3795	6.5980	21.0618	2.6308	8.1217	10.9742	12.3586	-6.4781	-0.7329
6688.0433	16.4437	9.4939	2.1215	9.5805	-14.6935	12.8807	-9.8922	-8.7141	16.7863	31.8667	18.4727	19.1390	-8.5399	24.0361	8.2549	9.6953
6696.0434	1.7889	-1.4940	-11.3871	-2.2408	-20.8299	-1.1073	-32.1351	-24.0062	7.4760	6.9028	2.9075	-0.3860	-15.5277	6.4804	-11.1078	-11.9792
6704.0434	1.3039	-4.6048	-10.2543	-4.2416	-11.3326	-3.0450	-11.0715	-0.0192	0.6781	-6.5494	-8.1319	-12.8675	-25.5232	-0.9346	-22.0197	-21.8134
6712.0435	8.4565	2.6643	-3.7361	2.3102	-1.0526	2.4466	8.6791	-4.3135	6.3471	5.6563	2.7261	-0.1882	-44.2784	5.9111	-4.4572	-4.3274
6720.0435	2.9051	1.3974	0.8032	-2.7318	5.3305	-3.3015	1.5126	-11.6819	5.5907	-3.2676	2.8247	-3.9316	-49.2632	-1.7207	2.0931	-6.6497
6728.0436	-10.2308	-5.6872	-1.5210	-7.1563	-7.9240	-10.3059	-8.5631	4.4711	-3.9354	-25.5770	-11.5310	-17.0135	-11.1610	-3.7694	-7.9553	-16.4802
6736.0436	-4.5248	-1.7039	1.5850	0.6618	0.4992	-0.8359	4.0738	20.3149	-6.3109	-13.4060	-14.1803	-9.1896	10.6566	4.5668	-6.4758	-5.8248
6744.0437	7.7078	3.7776	2.0342	5.4346	7.7352	9.2829	-12.4601	3.1493	-0.5456	16.6942	-6.0289	7.4260	29.3304	8.0756	-3.0499	2.1087
6752.0437	11.2560	2.3095	-4.0804	9.7159	-9.7726	15.3157	-28.4723	-9.7874	-2.0013	34.5968	-9.4955	15.5376	48.6158	16.5360	-12.0912	3.8690
6760.0438	21.0178	9.0871	11.1466	21.1759	7.5326	32.5787	14.3073	16.0961	1.8386	62.8491	1.6004	29.4007	17.8037	31.2890	2.6787	22.6532
6768.0438	14.8263	7.8943	17.4415	15.7387	25.1446	30.2401	14.8463	1.9028	3.2101	67.6551	9.0691	32.0931	10.5647	20.3356	20.6772	24.7235
6776.0439	-0.1614	-4.6778	11.6234	2.1932	13.1652	13.9839	-7.4538	-13.1361	-12.6747	39.7680	-15.9018	11.6471	0.0089	-0.9677	8.8215	3.6645
6784.0439	2.9909	-1.6292	25.0775	7.0448	10.3127	19.5781	6.3875	5.2148	-11.2939	44.0443	-13.1318	14.2713	-21.9881	10.4299	14.9018	10.7943
6792.0440	-1.0328	-2.0507	27.2528	6.3580	6.4175	18.2692	-9.9274	-14.7657	-7.0193	49.5930	-4.3401	21.2871	6.7327	12.2528	20.6667	14.9575
6800.0440	-6.2026	-13.8329	26.6362	-2.9366	-5.8945	8.2484	-16.7382	-12.9580	-23.0310	30.8580	-26.2917	3.7343	7.9448	-8.2743	-2.6219	-4.7720
6808.0441	-3.0809	-12.0680	39.7980	0.8834	-12.9311	9.9051	-9.0106	-3.2731	-22.2947	28.8070	-24.7719	4.7778	-1.6382	0.2960	-3.5331	0.0954
6816.0442	-5.7773	-7.6312	44.9548	2.6363	2.1908	9.6025	-16.0017	-18.0696	-16.0604	28.5389	-17.1445	9.5461	-3.6907	5.9050	5.6240	7.3746
6824.0442	-4.0062	-8.7843	53.8967	0.8710	24.9224	12.4676	0.9025	7.8563	-22.5651	26.8788	-24.3989	2.5545	-7.0492	-4.2822	1.4634	1.9004
6832.0443	-3.3438	-6.9585	61.0073	7.0323	17.2210	19.5578	-10.0120	-10.1596	-18.7929	48.0105	-16.3085	17.6682	11.6462	9.2751	8.4540	14.8987
6840.0443	-10.8128	-13.9985	55.1756	4.2955	1.9634	20.3813	-34.4781	-48.5654	-22.5786	67.0341	-15.6840	23.8554	-13.4207	6.1719	5.7389	16.1769
6848.0444	-22.2954	-26.7013	53.0182	-3.4323	-3.6289	20.7411	-20.3309	-2.9437	-42.7445	59.2392	-32.3673	6.5569	-16.8746	-13.2217	-9.7517	3.9821
6856.0444	-34.1899	-25.6130	57.6979	2.1423	-5.0088	22.8359	-12.8731	18.1100	-47.5428	49.0795	-33.7126	7.2006	1.8634	-0.3176	-4.0259	19.4012
6864.0445	-34.2656	-20.6193	66.8203	4.7941	7.8436	19.7908	-4.5671	-2.3749	-42.2230	45.1953	-24.0568	13.7774	-17.6512	2.0511	8.9201	32.9017
6872.0445	-31.5613	-19.6804	71.7210	-0.2113	12.8983	13.1083	-1.6456	2.1823	-41.8085	33.0799	-21.5698	10.5984	-2.5869	-10.9869	15.2857	30.3574
6880.0446	20.9117	19.1930	-82.2108	4.7992	39.5072	12.3533	53.5894	52.8246	35.1496	8.0805	18.6802	-5.1572	-9.0989	14.7303	13.7506	-23.1196
6888.0446	15.8959	18.1403	-101.5182	2.1083	28.1226	9.6175	37.1007	32.4406	39.4414	11.3546	26.2935	-2.1607	-11.2086	13.1699	16.5280	-22.6113
6896.0447	12.4257	13.0434	-113.8961	0.4071	12.6539	8.4671	26.7574	15.4904	35.8759	17.0409	21.3240	-1.8724	-12.1802	11.1911	10.2098	-26.6350
6904.0447	10.0476	13.4423	-109.0914	5.5660	9.7190	14.6592	22.7479	14.2190	34.2509	28.3693	17.8843	4.9510	5.2302	23.8280	14.4217	-19.7344
6912.0448	4.2947	8.7528	-99.0734	3.0272	6.5444	14.2096	19.6194	12.1709	28.7456	30.5457	15.9201	3.5872	-5.0731	19.6179	14.3292	-19.6226
6920.0448	-3.3272	4.2915	-97.1367	1.6334	-1.8414	10.0237	14.7705	3.8907	23.2915	22.5612	9.8497	-0.2455	-8.0697	19.0460	9.3836	-20.2825
6928.0449	-10.0161	-2.4473	-97.2985	-3.5328	-13.4751	0.8201	-28.7793	-32.2932	16.5803	10.4573	-7.7970	-8.9034	-2.7368	15.7991	-11.9899	-35.0302
6936.0449	-14.4914	-12.4490	-93.6168	-12.7500	-16.2861	-5.3365	-44.1837	-29.0618	4.3116	-1.2452	-23.9369	-25.6871	-19.3391	-2.6391	-36.8579	-55.2895
6944.0450	-7.2754	-0.8171	-78.9711	3.8100	9.2374	13.6562	19.6250	33.1471	11.0844	12.1745	-10.8427	-14.9423	-14.9445	23.7331	-18.1056	-31.2480
6952.0450	6.4851	15.1899	-66.4856	18.2485	32.1686	26.2221	57.3136	53.0565	25.9321	26.2191	7.6467	2.5192	-18.1858	47.5539	7.8039	-6.5599
6960.0451	6.0630	14.0118	-73.4632	10.3500	32.0153	17.7880	48.9446	46.6012	24.6353	14.5395	8.4503	-3.3297	-33.2288	29.8449	9.8762	-11.9457
6968.0451	2.3138	14.7853	-82.5106	9.2073	32.1532	17.8042	44.5944	41.4440	27.1821	18.3869	15.7430	0.7124	-27.7313	28.0082	18.9373	-6.9747
6976.0452	-5.0181	6.8256	-88.8095	1.2741	14.7759	11.2306	23.7025	11.3527	24.1143	22.7088	16.7398	1.4159	-21.4532	15.2046	20.0571	-12.7727
6984.0452	-18.0045	-7.7797	-89.5879	-10.6983	-11.8780	0.6631	7.1993	4.8000	8.7742	11.1942	0.6882	-11.1778	-13.0476	-4.0966	11.6071	-28.5856
6992.0453	-11.1293	-4.4540	-69.0780	-5.4215	-2.7579	7.0610	16.8068	11.6227	9.5666	21.2473	-1.4510	-5.3249	-5.5136	5.3843	17.8010	-24.2437
7000.0453	-3.5525	-0.3845	-50.9103	-3.4369	9.8827	10.2086	16.1176	3.3970	15.2963	30.9583	5.2082	1.0518	-11.4049	8.4082	23.7297	-21.3498
7008.0454	-13.8481	-6.3966	-50.7412	-8.2440	-2.8024	4.6476	-4.5252	-3.6171	10.3244	20.9388	0.3819	-6.2717	-15.1114	5.1640	14.5329	-27.4568
7016.0454	-21.2614	-13.5253	-49.9093	-10.7338	-4.7420	-2.6235	-13.6229	-26.9287	3.1043	9.0036	-12.9805	-14.1923	-10.0339	1.0666	-3.3927	-36.7253
7024.0455	-17.8510	-13.7106	-43.1487	-9.6474	1.4204	-4.7193	-3.8254	-29.6158	0.8886	2.5080	-19.3665	-17.4102	-15.3875	-0.1754	-10.1953	-39.4413
7032.0456	-6.8091	-6.6027	-33.4997	-5.4283	-6.5484	1.8318	-9.9209	1.3668	4.3302	5.2355	-13.5984	-14.6522	-21.7313	8.0838	-11.1051	-33.2360
7040.0456	-6.6758	-6.9482	-31.1560	-5.8086	-4.3100	3.5083	-10.2728	14.7631	2.4132	4.7298	-12.4269	-16.5106	-18.5465	5.0884	-16.3359	-33.0774
7048.0457	-14.4456	-8.1583	-43.7801	-5.1215	3.3863	1.5254	12.5209	15.8707	0.5168	-1.9375	-13.8818	-18.4105	-21.0193	4.3242	-9.6994	-29.2066
7056.0457	-8.0599	-5.6278	-56.6454	-5.8851	-5.3015	-2.3963	10.7259	13.2919	1.3914	-7.9382	-13.5495	-17.2479	-8.4775	-1.9095	-9.4900	-28.0579
