Time	Fz	Fpz	C3	C4	T5	T4	O1	O2	F7	F8	F3	F4	T3	T6	P3	P4
0.0000	20.5425	15.0153	33.9922	27.8613	11.2770	7.4295	22.7403	24.2800	22.9250	6.8052	19.1840	-44.0323	-20.6624	25.8958	24.8300	25.4259
8.0001	-5.6572	-1.8902	16.2302	-0.7712	-13.0254	-8.4036	-23.7658	-26.1577	-13.0390	-14.6982	-7.7075	18.4107	6.5412	-19.6864	-14.1539	-6.2337
16.0002	0.9551	-4.8802	18.7511	-9.2235	-12.3280	3.8929	-25.9947	3.0246	-11.3343	-3.8021	-3.6033	2.3534	3.6574	-16.0679	-13.9675	-5.6724
24.0004	0.8706	2.4459	21.8226	10.2841	-3.4048	1.1452	1.4359	25.4042	-3.3685	-1.3238	0.4856	-5.7994	-2.7944	3.5895	-4.4235	8.4202
32.0005	-5.6925	2.5644	18.6449	0.0439	3.3487	-1.0982	18.8842	12.1386	-8.6105	-11.1691	1.4193	29.7628	9.3220	-0.9181	2.3177	10.6996
40.0006	-0.3811	0.0743	24.3758	1.0437	6.5413	5.2086	15.3784	17.0771	-5.5050	-12.2057	-1.5401	-10.2884	-2.7686	-2.0587	3.2278	6.3115
48.0007	7.9632	12.2243	26.6252	11.3081	7.9881	6.7469	0.3573	3.5626	4.2767	-6.3215	6.8805	13.6278	0.8657	5.2875	6.8396	6.6893
56.0008	5.8299	3.0698	17.1106	-8.2553	7.4595	7.2812	-13.9366	-16.3703	6.9258	-3.1115	10.4190	6.8904	1.0148	2.0665	3.2941	-1.4361
64.0009	8.5341	4.3022	14.4659	1.8027	6.2556	4.2064	-12.4285	0.2156	8.7555	-6.7959	6.9479	-13.8668	-4.2712	0.0955	-6.8342	-8.7738
72.0011	9.1148	8.0486	13.5698	-5.5215	7.6069	2.8497	-12.2869	0.2424	8.3505	-9.2069	8.4104	19.2543	6.5662	6.7954	-2.5844	-4.4681
80.0012	-4.6876	-5.5153	8.4749	-18.4299	7.4036	-4.9681	-14.4649	-21.2874	5.8609	-14.7345	2.0259	-6.1561	-0.6494	6.7131	-0.7817	-7.6589
88.0013	-10.3354	-5.8264	6.1866	-10.7959	6.7668	-11.6947	8.3583	-4.0361	-0.9161	-23.8419	-4.1208	-3.8657	2.2341	-4.2870	-3.7375	-14.1643
96.0014	-9.0419	-8.3857	8.4210	-15.3671	6.4377	-4.4079	20.4154	7.7469	-1.8239	-18.4160	-3.4378	-13.4135	-0.6234	-0.2902	7.7611	-6.8039
104.0015	-12.5692	-9.1987	8.4936	-10.2629	1.7616	-8.1799	2.1491	-20.1776	-0.4103	-17.8227	-8.2413	-25.0999	-7.5836	2.1268	10.4649	-7.2297
112.0016	-9.7317	-8.4690	4.9726	-16.1310	-19.1035	-8.8584	-25.3535	-25.0328	-8.7437	-22.8030	-14.7385	-1.2071	2.9036	-10.8247	-2.1367	-18.9491
120.0018	0.5629	-6.3713	13.2605	-5.7595	-34.2734	6.9528	-42.9247	-12.1780	-5.2951	-11.1215	-14.3428	-26.0848	-7.7199	3.8487	-12.4396	-14.3109
128.0019	8.6082	7.7337	27.4935	14.6239	-2.2806	12.8049	0.7902	12.2048	4.8865	-1.1100	-6.1574	-4.2603	-6.0858	32.3468	-6.3407	4.4917
136.0020	2.5237	4.5255	27.3986	3.5167	15.4596	6.4739	36.8612	46.3579	3.7124	1.8211	-0.0436	7.4460	0.2370	37.8098	11.2165	20.1606
144.0021	-8.7216	-3.9416	17.8096	3.1280	-12.5572	-2.6619	-4.9555	19.5722	-2.7479	-3.0762	-6.0509	-13.3553	-6.4959	23.4774	-0.1539	12.3825
152.0022	-8.8568	-6.6867	14.0252	-5.4334	-7.6099	-3.1578	-6.7249	-3.1444	-8.8491	-12.6945	-12.0892	2.2725	1.8076	4.1819	-14.9565	-7.4673
160.0023	-7.5428	-6.3081	17.1595	-3.5718	6.0087	1.5119	18.8999	25.1378	-4.6603	-6.7197	-6.2437	-16.2663	-4.0006	7.9614	1.5237	0.6112
168.0025	-7.6538	1.2133	14.1817	11.8620	-10.3822	-0.8442	-11.4250	7.3090	-2.9477	-3.5102	-4.6139	-7.4009	-6.0280	10.9867	-0.8807	6.3104
176.0026	-11.0741	-7.8077	9.6145	-5.8478	-13.2574	-8.0231	-32.3526	-16.7224	-9.3617	-8.8867	-11.2745	-4.0981	-0.9212	-4.4184	-12.8513	-6.8151
184.0027	-20.1042	-15.3534	9.1634	-12.9312	-10.7382	-22.3912	-40.9133	-18.2357	-10.3218	-12.8393	-15.2620	-24.2744	-5.7153	-7.7336	-7.2156	-6.4820
192.0028	-18.3273	-16.1532	4.3371	-18.0426	-6.5044	-25.9787	-34.2422	-38.1249	-17.1309	-25.2191	-26.5401	-9.7998	1.9944	-21.5590	-16.4135	-20.1530
200.0029	-7.2520	-13.9063	6.8141	-13.7273	3.2169	-12.9094	-0.9653	-21.4371	-14.2379	-21.5877	-25.9853	-21.0998	-0.2322	-22.9061	-14.5264	-26.5164
208.0030	-1.6823	2.0435	11.5570	4.8925	-4.2518	-7.2199	-10.7801	-2.2478	1.1406	-6.6279	-8.3754	-3.7027	-2.9019	12.2419	4.0879	0.6032
216.0032	-4.0825	-1.8003	5.4511	-5.1169	-10.0586	-5.9152	-21.8164	-12.3484	-3.7855	-13.9838	-14.2738	0.0260	0.0677	10.3403	-3.8081	-3.6071
224.0033	-6.9626	-6.0710	2.4381	0.5242	-9.3662	-5.8363	1.1418	2.8935	-7.1488	-15.0116	-17.2257	-20.6483	-4.6325	0.2687	-6.5467	-10.1016
232.0034	-2.6146	1.9103	2.6514	3.3611	-9.4686	-5.0629	13.9890	16.6488	-2.4867	-5.8776	-5.9257	8.4715	2.1835	14.9312	8.9680	11.1010
240.0035	2.3381	-0.0524	7.9505	-2.6157	0.0086	2.6794	27.0126	27.1522	-8.2007	-9.5504	-10.9141	-4.8835	0.9708	1.9373	14.3127	8.6754
248.0036	0.8852	7.2618	11.1637	10.1663	-0.9003	0.4631	14.7982	29.5876	-1.5576	-7.9597	-3.5447	-3.4309	-2.1260	5.7953	19.8946	10.6402
256.0037	0.5988	7.5764	3.6446	1.2406	-6.7268	-3.4648	-8.1545	3.5730	5.1861	-9.3498	1.2416	11.3975	1.0654	20.9376	15.0738	14.9400
264.0039	10.5024	10.5818	15.6759	11.4621	7.2751	7.3008	2.5453	2.8459	3.2572	-9.7119	-3.9596	-6.1712	-4.1049	6.0355	7.5052	2.5468
272.0040	13.9123	21.5052	30.2428	22.8599	11.4499	6.6811	-4.8253	-1.1398	15.5947	8.6831	16.1270	23.2176	-0.8962	15.7895	23.9819	12.9386
280.0041	-2.6286	4.7169	16.7336	-1.6186	-5.0991	-9.9256	-25.5509	-24.2231	14.1079	2.6090	14.0314	13.1140	-1.0899	17.3229	21.9899	8.4598
288.0042	-13.4197	-4.4543	6.7857	-4.5518	-6.1098	-13.3918	-21.4275	-13.6928	-1.5441	-21.3951	-8.2378	-11.4870	-2.8348	-4.3651	0.2423	-15.1261
296.0043	-8.0809	0.2993	7.0174	-5.5799	4.4911	-5.8825	-13.3155	-8.2707	3.8504	-20.6114	-4.0588	-5.3113	-1.8022	6.6551	4.3399	-10.5650
304.0044	3.6564	4.4684	3.2492	-3.8196	-0.7592	1.9699	-23.5082	-21.1679	11.7263	-11.2881	2.4575	-14.2496	-6.4287	9.1691	12.5629	-6.5444
312.0046	11.3147	12.9685	-4.7289	5.7782	-10.8582	10.6830	-40.3741	-28.2737	10.1766	1.5201	7.1278	12.4392	-0.1081	-0.0086	8.3126	-6.9754
320.0047	2.0685	4.2033	-16.6860	-0.4562	-6.4152	6.9861	-7.2068	-18.1129	8.1712	9.7241	6.3911	9.8683	-0.0447	7.6812	15.3157	0.4189
328.0048	-6.2196	2.4564	-27.3379	4.2247	-1.2204	-2.1515	30.9143	16.2174	4.1303	5.0763	-2.1786	-2.1980	-1.9982	9.6069	34.4201	6.6813
336.0049	-9.5847	4.5734	-45.8615	0.4848	-12.9421	-1.9580	4.7354	15.2973	0.9200	4.8362	-4.6843	11.3241	2.2300	9.4918	35.2640	9.2090
344.0050	-11.8711	-1.3060	-58.7489	0.3291	-12.8092	2.7868	3.0595	4.7261	-3.0599	2.5163	-13.0545	-10.1468	-3.4979	3.9097	19.0840	-0.0209
352.0051	1.1679	11.4780	-53.6929	14.3666	11.7458	9.7711	41.5780	35.7751	-1.0924	8.0068	-9.0608	9.3370	2.6978	2.7375	25.2713	6.4516
360.0053	4.2388	10.3610	-60.3010	3.2333	15.4516	5.5501	38.2574	29.4034	4.7494	15.8804	1.4055	19.4411	6.4807	8.0900	30.3169	17.3135
368.0054	-1.7149	2.5389	-66.0000	0.7232	2.7272	-1.1706	1.5230	-12.6083	4.0541	9.4872	-3.5438	-4.0645	-1.1560	-3.2874	12.4185	2.4915
376.0055	2.7971	7.3733	-57.5775	5.0931	3.4988	3.8768	-14.7690	-19.6828	5.8496	15.3820	1.4491	7.2251	0.6198	-7.3741	8.9895	-0.8670
384.0056	-1.0238	-0.5283	-57.5475	-1.5048	2.4016	-1.0176	2.5833	-7.8839	3.0754	12.8377	-0.7887	-6.2848	-0.5526	-9.8055	7.3189	-2.6142
392.0057	4.2542	5.6642	-46.8341	6.6908	5.1458	1.0954	-7.7388	-13.8992	1.2331	5.4524	-7.7107	-2.3429	0.0030	-14.5044	1.5228	-10.6558
400.0058	16.4743	17.8480	-23.9192	15.6973	13.0358	14.1711	-20.7952	-11.6577	13.1992	25.1325	10.4351	13.8976	-1.1288	1.2050	15.4397	5.0095
408.0060	9.9903	13.3060	-21.2227	18.3753	5.9475	3.8070	18.6183	22.0450	11.5997	18.9894	14.2928	4.8375	-1.4970	3.1678	21.5288	13.4866
416.0061	3.6492	4.7186	-33.0977	1.3257	-7.3881	-9.7806	12.5250	3.3855	-2.1337	-5.2000	-1.7306	15.7366	8.5077	-14.6128	6.7172	1.1094
424.0062	0.3771	-9.4855	-33.6316	-19.4541	-9.8856	-8.2919	-3.8766	-31.0743	-5.8787	-3.2355	-2.9439	-1.6913	5.5916	-28.8984	-1.4129	-9.1010
432.0063	11.7487	3.3258	-8.6602	-0.3420	12.3025	6.6868	37.2341	16.8047	1.4557	5.0855	11.5826	-2.9367	2.7646	-24.8089	14.5202	0.4822
440.0064	32.8228	24.7090	16.0497	14.9678	28.2447	20.6787	22.5692	15.8331	16.3964	20.1036	29.1955	24.2620	4.3243	-7.6287	29.4373	18.2806
448.0065	22.5894	11.9293	15.1671	7.9198	3.3140	4.9826	-1.3475	-24.1296	16.0326	22.5147	32.7683	14.6033	1.4859	-19.2697	19.9053	8.9031
456.0067	10.5130	6.6459	15.5702	5.1182	-10.5352	-5.7955	14.1694	2.9368	5.8784	3.5113	25.1758	20.4475	7.8144	-26.2667	12.8544	0.7893
464.0068	17.1010	8.3812	22.4240	-2.3018	4.3594	1.9654	-8.3528	-7.8814	8.6270	-1.6908	17.2394	10.3790	3.8897	-10.7840	5.8308	2.3800
472.0069	13.7326	0.6984	18.6639	-2.4601	6.3348	-1.1613	-0.5261	-12.3022	7.2725	2.0608	13.1608	-8.0350	-0.5831	-16.0593	-4.5794	-6.7640
480.0070	8.6898	-0.0765	14.5898	-3.1091	1.7365	-1.6918	21.2012	24.9411	1.8532	5.4135	14.2250	7.3847	6.0556	-12.5580	-0.2787	0.6402
488.0071	7.3878	-7.6416	8.8150	-16.4927	-2.3722	-4.9726	-13.8124	-2.9449	2.0227	3.9158	9.0123	-9.4484	1.4765	-9.8070	-11.5630	-1.1471
496.0072	4.8021	-10.7562	2.6474	-14.4282	-3.4814	-9.8731	-11.9568	-7.9525	-0.6542	-1.7167	7.3975	-15.9531	1.6305	-24.6596	-25.3327	-13.3303
504.0074	0.4250	-6.2458	5.8197	-8.2449	9.6618	-3.0887	22.6369	21.2974	-2.9283	-1.8859	10.6133	-2.5223	4.1890	-14.2767	-14.3203	1.5904
512.0075	-8.5745	-12.1560	2.8891	-14.7331	11.3761	-8.0238	20.6974	8.7584	-5.0095	-10.4393	3.7638	-13.8642	0.4374	-8.1473	-13.3539	3.3826
520.0076	-12.2219	-16.2385	-6.4215	-21.6114	-1.2721	-14.7911	-1.8112	-3.1629	-6.5012	-15.6277	2.3167	-12.8531	3.0618	-17.8878	-23.8222	-8.9104
528.0077	-12.7753	-20.1161	-9.5514	-27.3444	-1.7161	-14.3772	-26.0198	-34.3549	-4.6622	-14.5544	2.0023	-20.0404	0.0502	-20.1804	-34.6033	-15.4150
536.0078	-14.3814	-19.8481	-13.5115	-23.1750	-1.3644	-15.3883	-33.6106	-42.2513	-7.4158	-22.0311	-5.2780	-26.2993	-1.3759	-28.5007	-43.5619	-26.9092
544.0079	-13.1947	-10.0194	-14.6392	-11.5089	-1.5702	-4.7052	-23.4083	11.8605	-9.2207	-17.4131	-1.9892	-10.6663	2.7027	-19.0628	-38.7165	-17.6354
552.0081	-7.6496	-2.5650	-5.6790	-1.4934	16.5513	3.5069	15.5534	37.1963	-0.9098	-8.6771	5.9918	-6.3473	0.2666	8.3819	-24.7920	4.3251
560.0082	1.4696	6.4559	0.3302	9.5551	23.9461	2.7988	52.1105	39.4978	6.5405	-6.7721	11.8213	4.4885	1.3490	17.5346	-4.5528	16.2410
568.0083	-3.4785	4.5686	-7.2805	6.2039	2.3144	1.0247	16.1598	24.8574	3.1949	-5.2720	12.0638	5.3470	0.5947	11.7580	-2.8867	18.1433
576.0084	-12.2935	-8.3894	-22.0987	-9.2160	-12.6471	-10.2028	-17.8815	-11.9281	-4.5587	-17.3216	1.0601	-8.3346	0.2816	-5.9160	-25.1409	0.4251
584.0085	-7.2976	-10.8919	-28.3928	-13.7050	-13.1903	-13.6938	-3.2698	-11.7868	-7.7446	-20.1960	-2.8690	-5.5819	5.6257	-22.1474	-30.0669	-12.5538
592.0086	-11.6059	-10.0502	-25.5270	-6.6786	-13.1711	-7.6256	-3.7489	-3.1928	-5.1641	-5.4103	3.0412	-7.1286	1.1206	-12.1092	-21.9795	-4.0313
600.0088	-22.3092	-12.6458	-32.8106	-5.5752	-20.2051	-12.4590	-11.4914	-12.6418	-9.4558	-8.7083	-4.7274	-2.0699	0.9584	-4.1292	-24.2723	-1.6633
608.0089	-27.0332	-22.2855	-46.4961	-18.6054	-39.4749	-16.0545	-33.5633	-23.1651	-24.6240	-19.4555	-25.2476	-5.0686	5.1475	-19.2886	-41.1747	-17.0179
616.0090	-26.5147	-25.9208	-40.6692	-15.4501	-33.1410	-4.7337	-33.6996	-21.3023	-27.0130	-8.9119	-29.0917	-20.2904	-0.6393	-20.2815	-50.7371	-23.9016
624.0091	-11.5975	-11.4816	-23.3082	2.9998	-5.0749	10.2077	22.0637	6.2765	-17.8082	9.8070	-16.2219	-0.6158	1.2090	-6.9353	-27.8374	-7.6985
632.0092	-3.9142	-6.9975	-20.2984	3.4630	-13.8723	12.1367	4.8362	1.1351	-16.2178	17.6894	-15.7055	7.7522	2.3567	-2.8401	-18.5472	-0.3961
640.0093	-6.1895	-9.0687	-20.7825	6.3509	-25.1713	8.5463	-40.4017	-26.0974	-14.1390	25.7707	-21.1126	1.3920	-2.5483	2.7201	-32.0036	-8.6296
648.0095	3.0247	-3.5786	-9.1988	16.2413	-4.7298	12.6987	9.2210	-7.9426	-12.9635	35.4807	-19.1321	16.5677	2.6038	-1.4444	-22.9342	-10.7760
656.0096	9.9441	0.7096	1.8679	18.8581	5.3293	14.8845	37.2392	13.3584	-11.3890	32.9574	-18.3670	18.2162	4.3206	-0.2046	-11.5339	-8.3637
664.0097	16.5604	11.9359	8.7084	29.4779	8.9909	17.8757	16.2066	9.2785	1.5481	36.8876	-13.0126	20.5683	-0.6870	27.0619	-4.9179	3.3860
672.0098	19.7792	16.1756	9.8677	34.6182	9.5745	21.1997	5.5357	-13.4129	7.0896	47.0614	-4.3087	27.3760	-2.6142	29.1483	1.3683	10.7188
680.0099	2.5887	1.9121	-5.2160	20.3975	-4.3031	8.5542	-8.0644	-22.2379	-3.5551	35.6579	-8.1562	19.7496	-0.3281	8.7646	-15.0886	-0.3895
688.0100	-4.4214	-2.6400	-14.7732	13.4739	5.1736	1.8313	24.0810	32.8557	-12.2483	21.1532	-15.3940	12.4017	3.9773	7.1290	-19.1309	3.2693
696.0102	7.3133	9.8053	-6.1694	24.4933	23.7971	14.1479	59.2152	68.6131	-6.8114	26.6368	-5.8167	12.4084	1.5438	18.4370	7.1405	28.8832
704.0103	4.3662	11.6474	-9.3950	21.3687	10.1715	9.3492	24.8980	26.9888	0.1898	28.8001	2.8333	23.6341	0.6469	25.4552	16.0401	36.5185
712.0104	-1.4406	2.9976	-19.9093	5.4755	-3.3957	-3.5698	-16.5049	-10.6317	-4.7448	14.1619	-6.5901	19.4185	3.5945	4.1736	0.2574	12.6365
720.0105	4.8557	5.2177	-22.3700	6.2703	-6.0141	2.4695	-39.3861	-16.1651	-4.7263	8.0115	-7.9502	8.2829	2.1908	-14.6271	-11.3317	-7.2422
728.0106	-5.7637	-3.9151	-33.3157	-0.4018	-15.5954	-7.5368	-15.2793	-10.1866	-5.5425	5.3972	-7.0190	9.3661	4.9398	-11.2853	-13.6858	-10.5489
736.0108	-14.6741	-13.2312	-33.7845	-7.0473	-7.8224	-18.2016	34.6915	-4.0442	-11.0343	-8.2197	-12.2037	-0.5897	5.9839	-20.7791	-6.7288	-14.3477
744.0109	8.3045	11.2462	-14.5630	11.3513	6.5084	6.8832	3.1991	-9.6337	6.0209	0.9101	6.8353	7.5977	0.9527	-13.8964	9.1708	-6.8362
752.0110	21.1398	22.7852	-8.8672	17.0628	8.3795	17.2549	-16.9634	-3.6932	19.1852	20.1339	23.3123	25.1912	2.1481	3.1820	16.1590	4.3408
760.0111	13.4279	12.7244	-11.7727	10.6525	20.9084	8.4331	38.0884	11.1190	11.2020	16.1931	17.2604	22.7592	5.8419	-4.5942	17.9830	4.0634
768.0112	5.4185	11.4842	-13.5679	7.4697	19.4459	6.7873	36.5195	4.6862	9.0452	6.4850	15.9772	21.1021	4.6940	-5.3840	26.3425	6.4761
776.0113	4.0608	11.7454	-14.2460	3.1418	3.4189	0.4304	9.7736	-5.1555	11.4065	-8.7655	14.6459	11.3524	2.1072	-2.9444	27.1679	4.9963
784.0115	23.5735	22.4042	-4.6248	9.1570	2.4807	5.1760	-1.9951	-16.7396	23.4273	-13.0414	24.7422	11.1646	1.7568	-4.6138	22.7494	-0.9581
792.0116	22.8096	25.9633	-3.2896	12.6986	-10.5969	6.7200	-39.8788	-29.0053	32.2361	-3.6757	41.6027	19.7039	1.1105	-4.2309	17.2132	-3.7839
800.0117	2.2294	18.9296	-2.6945	14.7777	-8.6122	3.5292	-12.3017	-0.2080	24.0745	-15.1437	37.2994	9.1012	-2.1293	1.3409	18.3461	1.5365
808.0118	4.5916	23.5245	8.9545	16.8918	7.3294	14.4040	24.1661	19.5015	27.1477	-21.8149	37.7546	5.8161	-5.1704	22.8782	34.0485	17.1371
816.0119	-10.5809	15.0463	8.8733	5.9929	-5.9983	8.7619	-12.4995	-2.7519	23.3604	-19.6862	39.9426	10.2577	-5.1784	20.5983	30.6265	16.0742
824.0120	-31.7688	4.6110	12.0021	0.8100	5.9935	7.8131	5.2091	6.6877	8.9659	-23.9549	33.9532	14.5044	-2.8785	10.7546	23.0844	14.0392
832.0122	-31.6568	4.7057	17.2933	-2.2477	11.5230	13.1504	22.3327	13.2023	11.9438	-18.4279	40.9064	20.8110	-2.1873	21.0081	32.7565	23.7689
840.0123	-34.6668	-1.9324	15.2666	-10.2230	-14.8567	1.9755	-9.8574	-3.0873	7.6073	-27.7400	37.2458	15.6843	-0.8164	9.0268	19.1411	13.5359
848.0124	-18.0562	1.2714	30.3534	-11.1466	0.5649	9.4667	6.2542	6.2078	7.6406	-38.9373	31.4344	3.4035	-1.1992	6.8493	6.7285	8.5832
856.0125	0.8219	7.5974	39.7568	-11.7815	2.1143	13.0283	-10.7038	-9.6888	25.7266	-26.6287	47.2981	0.3101	-4.1047	19.4816	7.7220	11.1310
864.0126	4.8254	8.7246	41.8051	-7.8970	-6.7461	11.0648	-24.8963	-19.6000	29.2071	-18.7054	52.8356	12.4883	-0.5953	15.9418	-6.4675	1.0570
872.0127	13.4927	12.6064	55.3031	-0.3764	21.4258	18.4654	25.9047	3.2473	31.6531	-12.0665	50.5044	13.9550	-0.4039	27.1984	-0.9017	5.4833
880.0129	10.4231	11.6878	52.5227	0.4895	20.4921	7.9407	11.2612	3.5956	36.5444	-7.1233	49.8187	1.8519	-5.2508	33.9911	8.3230	8.9166
888.0130	13.5499	14.4668	44.5045	3.9817	23.3419	16.6825	1.1415	37.0040	29.8811	-6.2432	36.7703	-5.7576	-6.0553	38.2102	-0.9755	8.1344
896.0131	16.6334	16.4471	35.4923	7.5275	36.4555	27.2325	32.1097	64.9862	26.6467	4.3422	28.0666	-5.4591	-6.6774	55.2339	7.8583	22.2158
904.0132	5.1955	8.4753	15.2942	1.0315	20.0941	13.0795	12.7566	32.6435	21.7066	11.5856	25.2371	2.5767	-4.6415	47.2641	10.4198	25.1257
912.0133	7.2855	1.5633	7.4642	-6.3244	23.6548	12.4064	8.3099	18.1094	14.8468	12.6391	17.4584	-8.4823	-4.6391	28.5259	-2.2111	15.1458
920.0134	2.6563	-3.2794	1.0106	-10.5558	28.0828	3.8710	11.8841	11.9236	13.0095	9.5615	13.8139	-19.3471	-5.8995	15.8276	1.9422	7.8583
928.0136	-2.0395	-4.4115	-1.4790	-12.5315	24.6526	-0.6246	9.2009	16.8525	9.6963	6.0262	10.3011	-21.7371	-6.1506	13.2520	11.0291	11.1472
936.0137	7.8900	-1.1847	6.6713	-7.9809	26.3565	5.8857	10.4957	20.9213	9.6216	6.7898	6.6879	-34.7587	-10.6505	15.3833	12.8823	16.8135
944.0138	7.2405	0.6374	3.3056	-7.8977	7.6306	-1.0070	-29.0489	-9.8745	11.4937	8.3946	12.1530	-21.2082	-7.8226	4.6350	10.2640	10.8494
952.0139	4.7469	-1.8461	0.8640	-9.4594	-0.5080	0.1197	-27.8556	-3.7993	7.0661	11.1967	9.4641	-14.0246	-5.0074	6.1064	5.7722	11.2382
960.0140	7.7611	-4.7864	0.1463	-6.5467	1.2916	-3.5328	-4.1398	-3.2112	-1.8110	2.8303	-6.6640	-22.5710	-4.6389	-2.4295	-1.0715	5.8613
968.0141	16.6454	-0.8637	3.1905	-5.6091	1.0649	-0.3663	-13.4002	-18.1041	-0.5423	7.6677	-4.4221	-12.9306	-1.5251	-14.3468	-0.1019	-1.4467
976.0143	11.6068	0.2547	9.3584	1.5305	0.1746	8.4574	4.7813	12.9240	2.9889	24.0618	2.1636	-9.4826	-4.6122	10.8153	11.9604	13.7573
984.0144	-2.6094	-3.2339	0.7384	0.0133	-5.1631	2.4173	2.4893	14.3595	-8.7185	11.9183	-16.2660	-0.4892	-1.5652	16.7909	9.2294	13.5637
992.0145	9.2857	2.6809	10.1940	2.2210	19.0659	14.9628	16.1782	19.3362	-4.8518	16.7179	-14.7415	-3.3586	-2.8850	16.5187	13.5094	12.8903
1000.0146	4.3777	3.6529	16.7500	10.2206	23.6478	7.4942	48.1607	31.8555	5.5915	23.7057	1.6644	-5.3197	-6.3008	27.6054	31.2917	25.1327
1008.0147	-8.2784	-9.0334	-6.4587	-16.8557	-6.4259	-11.9930	-14.7876	-26.5192	-7.3251	-3.7875	-16.5435	-1.4163	0.7383	1.6255	14.4625	2.6106
1016.0148	5.3610	-9.8682	-2.1878	-20.8630	1.7089	0.6986	-33.4825	-33.1376	-8.1512	0.2220	-23.7559	-19.8439	-2.8099	-7.5263	-2.7660	-12.5146
1024.0150	-0.6819	-5.3466	9.9494	-5.8675	14.5229	-6.0378	26.4965	28.6384	-5.0132	8.6548	-13.0456	-1.5198	1.9646	10.3492	10.1014	4.1707
1032.0151	-8.9466	-11.7519	1.7182	-24.5664	6.8228	-15.9866	11.5127	32.3023	-12.8378	-9.6126	-23.0741	-4.0709	5.3434	9.7398	13.7723	8.3125
1040.0152	-11.0667	-16.7010	-5.9393	-28.3332	-6.7500	-20.7720	-26.3904	-10.7982	-11.0681	-13.7582	-24.8007	-22.4807	-1.2314	1.1138	3.5875	-0.9765
1048.0153	-20.5063	-26.4766	-19.0948	-38.8756	-20.0659	-32.4869	-26.6134	-36.6070	-18.7248	-19.6805	-27.9715	-7.0692	7.5764	-21.0891	-9.8521	-19.5982
1056.0154	-7.0886	-23.1717	-14.3765	-33.7372	-4.5871	-12.8963	-4.5907	-10.8336	-21.7882	-16.4836	-34.9023	-31.7539	1.3340	-27.1195	-6.7238	-21.1751
1064.0155	5.8026	1.7699	-4.6986	2.7304	4.4528	4.8837	17.6274	19.6862	-6.5213	0.9751	-15.5459	-12.3986	-2.5919	0.5488	15.0344	5.4707
1072.0157	10.2685	6.7471	-17.6911	-0.0299	-3.0888	7.7954	12.8749	9.8876	0.1701	5.5355	-7.7220	9.1619	2.5244	13.5735	19.5744	13.4455
1080.0158	16.9785	8.0334	-25.7347	7.2310	1.3770	9.0921	12.4683	-1.1672	3.8853	9.7592	-9.6609	-10.9779	-3.8070	3.5340	18.3198	4.2834
1088.0159	12.8850	10.3438	-36.5067	7.2120	-5.2469	1.4324	5.5731	-7.1231	4.6518	13.0682	-3.8076	16.8414	5.0742	-3.7703	19.6128	-0.6912
1096.0160	11.2376	-1.2089	-46.0268	-7.4705	-11.6419	1.3157	-8.8241	-18.9374	0.4916	12.2604	-15.3413	-5.1145	1.2978	-2.8260	5.7960	-9.0324
1104.0161	15.0229	16.7278	-45.5299	8.8862	10.4162	19.4690	29.9934	25.2804	9.9431	-0.1863	14.5307	14.4708	4.8183	4.4190	5.2632	11.7576
1112.0162	4.9088	14.3379	-53.2515	11.3853	-3.5386	12.0075	-4.3133	-5.3349	8.8091	-2.7407	8.7401	3.4876	-2.4214	9.1100	8.1123	17.3422
1120.0164	-7.0315	0.8627	-67.9053	-3.7468	-19.1789	0.7149	-32.7746	-48.0866	0.2486	-4.4844	-1.2515	8.0699	1.4646	-6.6033	-8.6542	-0.5318
1128.0165	-9.2331	-8.3959	-62.1946	-4.1568	-10.8813	8.4542	19.2690	12.2292	-12.4847	-10.1159	-15.8588	-23.2276	-1.8443	-15.0769	-15.6053	-10.4847
1136.0166	-3.6184	4.2021	-49.2741	7.1717	-2.0208	14.6733	26.0147	38.7044	-7.8882	-3.6757	-10.6384	-5.8905	-1.2570	11.8310	0.7516	17.2172
1144.0167	-5.8400	-5.3921	-50.3586	-13.2227	-9.3649	4.4948	-11.4761	-9.3929	-2.8891	-3.8974	-4.3215	-9.0734	-0.9789	5.0629	-7.3070	8.5584
1152.0168	-11.7709	-10.1045	-40.4847	-8.0534	-4.6891	-2.0572	15.6750	14.5693	-9.7305	-17.1273	-10.2342	-26.0187	-2.0997	-14.6992	-14.7017	-8.3862
1160.0169	-9.3656	-2.1589	-27.9613	-4.4476	11.2996	-2.7054	32.8314	41.2826	-8.7565	-12.5265	-8.0826	-3.7203	3.1932	0.6768	2.3864	10.6751
1168.0171	-10.8022	-6.4772	-28.5797	-8.1878	7.4888	-8.7466	13.5437	21.5680	-3.4695	-4.1802	-3.9454	-19.4042	-3.3436	3.1974	7.6461	14.8884
1176.0172	-8.5992	-2.4234	-27.5027	1.4796	4.8944	-4.2126	7.4222	12.0420	-6.1488	-8.6591	-4.8878	-16.2059	-3.0749	-8.9795	-3.4396	6.1622
1184.0173	-3.8621	-5.0050	-30.0151	-11.4314	7.0781	-1.4088	-5.9100	-8.1941	-7.0175	-13.5881	-7.5245	-11.7199	0.4318	-11.4578	-14.2388	0.6146
1192.0174	-9.3817	-11.9250	-40.8439	-16.2477	-6.8176	-15.7101	-17.3934	-16.0850	-10.0120	-18.5249	-15.3275	-17.7836	1.4334	-17.3233	-23.4578	-9.5179
1200.0175	-2.4582	-7.4542	-45.2095	-11.3518	-6.9758	-10.9174	-18.0407	-7.6102	-11.8759	-13.8976	-18.8229	-3.3469	6.7799	-18.8168	-34.0542	-15.3075
1208.0176	7.3228	-2.1993	-37.3160	-3.6566	4.6740	4.4417	-10.5644	-10.3139	-0.5992	3.5784	-4.9801	-9.4389	0.4568	-7.1689	-29.5185	-8.1437
1216.0178	1.3025	-0.5253	-34.1876	0.4503	-2.3788	1.6782	-10.9939	-11.2091	3.6627	9.8798	5.0563	1.2384	0.4436	0.6549	-17.8223	0.8073
1224.0179	1.7342	-7.8967	-41.1962	-15.9118	-10.6371	-3.5390	-32.1440	-16.8153	0.1170	0.7722	-2.1688	-7.6184	2.6597	-6.7996	-30.6097	-10.7592
1232.0180	2.0573	-8.1902	-39.7738	-9.7948	-5.1993	-5.7955	-17.2770	-9.8400	1.6003	-4.5501	-1.8278	-21.8571	-0.6893	-13.1551	-35.4957	-17.8474
1240.0181	-4.5857	-2.9876	-31.0532	-0.9262	5.4704	1.9736	18.8175	12.5938	-1.9904	1.3852	1.8433	1.8022	3.2180	-4.9504	-15.5312	-3.3897
1248.0182	-3.3065	-5.3119	-24.2756	-4.9314	12.0987	11.8550	27.6523	22.9337	-3.4910	11.8088	-0.8013	-7.1590	-0.8047	4.6388	-3.1731	6.2371
1256.0183	-5.8857	-6.3762	-22.9179	-1.7505	7.7495	1.0955	33.0699	22.6845	-2.3893	13.3933	0.7611	-7.7862	-1.2556	4.6384	2.7073	10.8950
1264.0185	-6.9258	-7.8559	-20.6518	-7.0852	3.5015	-4.0473	29.6082	17.1856	-5.2119	6.4136	-0.9077	-3.1021	1.7586	-0.9163	3.6285	10.2109
1272.0186	5.2432	-1.9205	-5.6114	-1.8495	6.8503	4.0540	21.4376	15.5611	0.4143	8.6789	2.7386	-13.4592	-2.8568	-0.8269	7.2745	9.6208
1280.0187	6.6320	1.1987	-0.0913	-0.4872	2.6847	-0.2555	19.2025	3.9849	4.4645	13.2876	10.2770	2.8267	0.4688	0.0575	16.7496	13.7840
1288.0188	-1.2547	-6.4834	-6.0106	-10.0961	-6.4608	-5.3653	10.5263	-9.8578	-0.3722	8.8946	6.1076	3.2360	2.4370	-7.1448	11.1411	5.5070
1296.0189	-2.1202	-5.3646	0.0090	-4.6777	-6.6338	-6.0580	2.1900	2.1748	-1.6260	7.5144	3.0263	-1.5261	1.0487	-8.0146	4.1727	0.1036
1304.0190	-2.2204	-4.1730	5.5048	-3.6079	-4.5540	-11.2481	-11.2261	4.9456	-1.5239	5.2083	-0.3643	-1.4212	1.1228	-4.8813	-0.0852	-0.6080
1312.0192	-0.8454	-5.8414	7.6572	-3.8158	-5.5058	-13.9268	-11.6579	-10.9557	-0.9767	1.7632	-2.4875	-3.7518	0.9958	-10.0945	-6.6559	-9.7137
1320.0193	-0.7339	-8.5245	8.5266	-9.1741	-11.7888	-15.3925	-14.9217	-29.9651	-0.4587	1.3492	-1.5585	-0.5310	2.4469	-16.4110	-4.1997	-16.6882
1328.0194	0.5401	-8.0245	8.5307	-10.4389	-10.8968	-11.5818	-39.5188	-35.5990	0.4175	-2.9694	-6.7570	-17.6262	-3.3842	-15.0427	-7.0958	-20.8037
1336.0195	8.7660	5.1807	19.3016	12.8218	9.6518	-4.1235	-10.6638	-0.3679	6.4083	3.9356	0.0346	-10.7795	-4.3501	-4.0582	-6.9095	-11.8888
1344.0196	11.9862	9.1831	22.0950	17.2758	15.7866	-2.8972	29.6732	23.2697	7.8720	14.5772	9.6017	11.6555	2.2673	1.4824	7.0207	2.4889
1352.0197	17.8265	11.1026	19.0125	10.3822	8.4925	9.4408	17.0113	16.1675	8.8599	14.4762	11.9486	11.3715	1.6895	3.4822	13.5520	5.9074
1360.0199	28.4160	21.4796	26.8652	19.8534	17.4408	23.9139	25.5579	23.5205	18.6487	23.6881	26.0209	20.9670	0.8680	15.8000	18.5146	15.3723
1368.0200	28.4871	23.1899	26.8907	24.2811	16.9682	19.3204	35.9210	31.1381	23.8327	31.6108	35.7798	25.3559	0.9504	20.7936	25.9813	24.8636
1376.0201	20.9681	20.2240	18.4245	21.4181	7.2228	13.2520	15.8968	24.6847	20.3278	25.9480	32.4173	21.1794	0.0772	16.0443	23.4862	23.4419
1384.0202	6.8244	7.1363	6.7857	7.6468	2.5535	1.6029	5.1675	4.3467	11.7008	16.2307	21.2996	11.9920	0.4112	5.4705	11.7435	12.4183
1392.0203	-0.9816	-6.1941	-3.1417	-7.7705	-7.7475	-12.8315	-9.7563	-10.0393	1.8147	-0.3037	4.4255	-7.3320	0.7258	-12.7088	-4.0218	-7.2336
1400.0204	0.5545	-4.5607	1.6663	-5.1853	-2.4961	-6.2528	-6.0233	0.9815	-2.7664	-11.6236	-4.2514	-14.7053	-0.3739	-14.2496	-12.5646	-13.5765
1408.0206	-6.1619	-1.8325	6.1694	3.5608	8.2289	3.9267	2.3473	1.4394	-4.4614	-9.4278	-9.6019	-14.0409	-5.0701	1.5144	-6.9185	-5.9366
1416.0207	-6.6685	3.9678	4.8097	9.7612	-2.0096	8.5193	-39.8789	-15.8381	-1.1270	0.3116	-10.3332	-6.7285	-8.2468	14.0575	-2.3559	-1.0362
1424.0208	-6.6090	1.0403	-1.4159	9.5663	-11.1891	9.0436	-58.6872	-39.7576	-1.8647	8.7999	-9.1202	-2.0394	-7.5699	8.0286	-16.0846	-7.4700
1432.0209	-17.4043	-13.0770	-16.1732	2.2491	-11.6862	0.3524	-16.2767	-36.9292	-15.1032	4.5874	-19.6267	-4.2909	-2.3607	-13.0318	-27.5969	-21.0651
1440.0210	-7.5004	-5.1300	-11.3956	8.1203	0.4602	8.9616	34.6692	30.6266	-15.7483	2.7067	-17.3353	-2.3664	1.4755	-7.7033	-11.9566	-9.4156
1448.0212	11.7921	13.9941	11.3016	24.1541	19.0391	28.2470	63.7193	68.9145	-0.3969	14.9388	5.0144	6.6760	-1.3667	19.2505	13.8202	22.7391
1456.0213	4.2537	10.1858	11.8840	14.0202	10.4015	18.2854	39.9020	28.8736	3.5938	20.7762	16.5269	22.4823	0.8755	18.5398	24.2441	30.5582
1464.0214	-11.0658	-6.1449	-3.0141	-8.7754	-4.5064	1.6171	7.2530	3.4260	-6.4917	6.8553	6.1032	10.8805	3.1447	-5.0345	11.1692	10.6922
1472.0215	-3.5822	-4.5214	-3.0041	-5.0462	-3.9423	9.0556	9.2465	6.6012	-8.0113	0.3784	0.3609	-1.9764	1.0101	-13.7872	0.5019	-1.8514
1480.0216	11.2517	7.7379	5.9535	7.8343	-6.2386	13.1688	4.8314	4.8402	5.3490	18.9958	16.5207	18.7920	3.2936	-3.4714	8.7413	5.2993
1488.0217	12.4852	11.4234	12.5034	14.3061	5.1673	9.5045	7.0805	7.6688	11.3037	26.1280	21.9788	22.9784	2.5536	3.3312	11.0143	9.2947
1496.0219	14.0590	15.1910	20.2754	17.9611	18.4648	17.2566	7.9666	4.6383	11.6866	20.9993	14.7694	17.6542	-1.1534	12.0055	13.0820	8.6529
1504.0220	13.5134	12.9792	18.9833	12.7574	6.4224	13.8125	-12.5360	-9.2599	15.5965	24.4378	14.3634	19.6743	-1.3619	21.7557	12.1062	5.9568
1512.0221	7.5315	6.2523	14.5301	10.3721	8.9250	6.7814	-5.0830	-14.4092	9.4479	19.2214	4.7750	16.6009	0.2627	14.0425	-2.4805	-5.7644
1520.0222	13.8461	13.0420	26.1183	14.8086	23.4269	18.4144	-5.1293	-4.8149	8.0868	22.6897	2.1697	22.3998	0.1278	19.3648	2.3379	0.9275
1528.0223	16.0408	14.2611	31.6741	14.3133	18.0976	15.8759	-18.9798	6.4656	12.6347	35.6565	9.1486	24.8417	-0.9819	33.7463	9.4438	16.7380
1536.0224	9.2161	3.1439	20.8246	8.3330	17.0983	4.6998	9.3865	3.1900	2.8698	32.4383	-0.2371	20.9208	2.3834	18.4906	0.8018	9.6053
1544.0226	11.8605	-0.4065	15.2978	5.5398	15.9265	9.3568	16.6214	-0.4511	-4.7851	34.2941	-7.6995	17.4729	3.7761	2.6034	-2.6642	1.5564
1552.0227	14.4455	0.5273	15.5636	8.4015	7.8214	11.0594	-5.2129	11.5089	-7.2571	40.9260	-8.9695	15.9396	3.5022	1.2915	-11.5445	2.1251
1560.0228	15.0197	1.2172	19.3532	8.8095	16.8848	13.0484	3.2066	9.7257	-8.5819	43.7468	-9.5267	21.0348	4.4358	1.5745	-8.7698	5.9295
1568.0229	16.8713	2.8283	23.4494	8.9573	21.5949	15.8658	12.8414	-2.6335	-2.9599	50.1691	-3.5195	22.2488	2.3341	5.7076	8.0228	10.8211
1576.0230	13.6087	0.3562	19.4218	8.3549	6.6970	8.6970	9.3947	9.6789	-4.3631	45.5692	-7.4010	19.5165	3.5645	5.2079	5.5736	3.7587
1584.0231	7.5518	-1.3523	20.4863	7.2989	2.5058	5.5525	13.7599	28.3136	-5.9426	29.7373	-14.9850	7.5903	1.2284	15.1215	3.3842	1.5469
1592.0233	-2.7789	0.9531	26.6067	9.4788	11.9320	1.7489	23.8689	30.2351	0.2089	9.6151	-12.4023	-3.0605	-4.9459	34.8441	12.9844	11.4211
1600.0234	-15.6866	-3.7817	18.8663	-0.1362	4.8994	-11.0534	6.5837	10.1675	-0.9836	-7.5960	-10.4604	-3.4800	-3.8774	25.8658	13.5409	7.5923
1608.0235	-19.4497	-9.8207	12.0231	-8.3096	-5.5227	-14.1501	-14.8345	-7.5280	-5.5393	-17.7975	-10.9642	-15.5397	-4.7021	4.1867	2.5792	-4.8251
1616.0236	-11.1639	-0.6935	21.9302	4.2801	5.6886	-5.0586	9.0459	4.0258	-0.7589	-26.3495	-4.4842	-19.8887	-7.4295	5.7945	3.9815	-0.9442
1624.0237	-5.6145	9.6093	24.1513	12.1555	-0.4638	-4.1929	-7.8514	-11.0248	9.1532	-24.7841	7.9419	-8.8700	-8.0593	9.7045	17.9645	5.9448
1632.0238	-11.8643	5.3883	12.5936	5.7042	-21.5084	-11.2280	-51.6620	-34.7358	7.3592	-27.7696	7.8215	-4.3639	-5.8633	0.3155	2.9226	-5.7387
1640.0240	-17.8317	-2.2038	3.1654	-1.6670	-16.5923	-13.2907	-16.6905	-7.0930	-0.4521	-38.0924	-1.2888	-2.1765	0.0609	4.1930	-15.7119	-11.1497
1648.0241	-19.4494	-6.3775	-9.2250	-7.9064	-15.9138	-14.5313	2.4352	-0.5743	0.8817	-36.1765	-2.6626	-10.3632	-1.2886	11.6243	-6.9062	-5.8246
1656.0242	-15.5598	-3.8237	-14.3218	-6.4521	-18.1560	-8.6194	-12.2353	-7.4738	1.4666	-39.2719	-2.2598	-20.6579	-4.5020	2.2311	-7.3706	-10.7513
1664.0243	-6.6297	5.6521	-8.6826	-0.3151	-4.8311	4.4768	5.3468	15.8633	5.1183	-39.0468	5.4817	-9.7146	-1.9434	9.2997	-5.5776	-2.9134
1672.0244	-11.3653	2.3548	-21.8142	-11.7559	-10.7933	-2.2401	-7.8347	4.7939	8.3826	-34.7021	10.6810	1.3757	1.4717	17.6630	-1.3329	4.4914
1680.0245	-16.5356	-6.6979	-39.5746	-24.7015	-16.2037	-13.3457	-16.0961	-6.0817	-0.6167	-49.0324	0.7940	-6.6672	5.1524	-4.6992	-16.6324	-9.6609
1688.0247	-4.5906	2.3424	-37.1735	-10.4118	2.1929	-1.2567	15.8116	15.7020	2.1658	-42.7734	8.7459	-10.9479	2.8481	-8.8080	-12.5240	0.4880
1696.0248	-7.8975	6.0520	-40.0541	-3.9377	4.1538	2.6584	3.5668	4.8927	8.6957	-22.9915	23.3216	-2.8036	-0.6617	-0.1259	0.7701	18.0561
1704.0249	-20.8341	-2.8496	-49.4265	-14.7402	-10.9569	-8.8600	-35.9199	-16.9511	0.2462	-31.2570	14.4860	-5.7543	0.6664	-16.4844	-9.7128	4.1754
1712.0250	-16.8130	-2.2059	-44.2690	-12.3620	-9.4353	-8.2705	-36.8093	-15.4073	-0.8886	-33.5173	8.7013	-12.3223	-0.4734	-20.0807	-13.2995	-2.9702
1720.0251	-24.1832	-10.0284	-43.5131	-20.4429	-4.3545	-15.7718	-16.4362	-19.8757	-2.7990	-31.1468	3.4031	-12.9700	0.3096	-17.0571	-3.7770	-4.4240
1728.0252	-31.7190	-20.5757	-49.2394	-31.3350	-14.9426	-28.7742	-21.4243	-35.4565	-10.2282	-41.5035	-14.2155	-26.7647	-0.2476	-26.6784	-3.1498	-19.7936
1736.0254	-12.1096	-9.8206	-36.4918	-14.8464	-13.5284	-14.5443	-26.0934	-38.6034	-2.6683	-32.4498	-16.0266	-35.6975	-6.3404	-18.5371	-4.7333	-23.3826
1744.0255	-3.4112	-3.0208	-24.5149	-6.4949	-5.0237	-4.7668	2.5242	-17.2111	2.8010	-20.7226	-7.8123	-21.1840	-3.4778	-8.7395	2.9353	-19.0929
1752.0256	-6.8593	-2.7159	-26.8309	-11.0997	-19.8025	-9.5745	6.7236	9.4779	1.0961	-26.4093	-9.2700	-9.2408	1.9897	2.0645	10.9046	-13.3551
1760.0257	-2.9389	2.4751	-25.2455	-8.7859	-26.0033	-3.6394	-6.6325	12.0465	6.3825	-25.1312	-6.1789	-7.1589	-0.3651	22.7102	13.5215	-0.5490
1768.0258	-9.4063	-2.7572	-29.4632	-15.5979	-13.4788	-10.1008	1.3230	-7.0931	5.6898	-21.7785	-0.4315	-1.6257	2.0196	9.4858	15.0146	-2.2599
1776.0259	-10.6445	-5.0003	-34.8651	-20.1386	-8.3010	-19.2742	-16.3269	-18.2558	1.5812	-20.7417	-1.6337	0.1022	5.0056	-12.4170	11.1792	-9.0798
1784.0261	-4.9748	0.0866	-32.2460	-15.1832	-1.1743	-11.4706	-37.1298	-21.6584	1.8786	-14.7022	-2.1098	-0.9139	2.6438	-12.0794	6.5915	-5.8561
1792.0262	-20.8883	-9.7633	-47.1688	-22.3854	2.2371	-19.8907	-20.3051	-27.7490	-6.3102	-18.8204	-10.4480	1.2028	5.2636	-19.0839	4.5670	-12.1601
1800.0263	-38.8635	-22.1443	-68.4879	-30.2351	-4.3641	-38.0514	-7.0671	-27.4900	-15.2428	-33.1557	-29.8477	-9.2511	5.8445	-18.1502	-1.4847	-21.9767
1808.0264	-38.3382	-25.2050	-79.8111	-33.3703	-7.3920	-40.8443	-10.6671	-44.4684	-15.0931	-44.4931	-43.1595	-27.1913	1.7412	-16.6060	-6.1191	-33.9872
1816.0265	-27.8728	-21.7815	-88.0883	-30.7065	-7.8675	-30.9227	-15.9036	-50.5717	-10.2025	-40.6842	-43.4586	-38.3067	-1.3319	-22.9061	-6.9906	-46.9567
1824.0266	-16.0544	-3.2368	-79.8339	-1.0282	2.6520	-8.4731	2.3388	3.2293	1.6912	-17.8816	-28.9054	-33.2300	-6.9932	6.6168	3.1123	-26.2504
1832.0268	-16.1895	7.3795	-74.9506	14.7825	10.6337	5.2348	38.7699	31.9774	5.7399	-5.4713	-16.9867	-8.9459	-5.5227	32.4501	19.7103	0.7680
1840.0269	-22.8785	-3.8315	-89.1120	-3.7747	-2.8144	0.0514	33.7076	8.6851	-4.0027	-9.4739	-22.2528	-3.0140	0.4092	14.5043	16.7728	-6.0654
1848.0270	-15.9809	-3.7871	-90.4525	-5.3081	-5.4619	-0.1509	3.5747	-2.1990	-3.0802	-1.2863	-17.8735	-11.7512	-1.3893	-2.2596	10.9028	-10.7119
1856.0271	-10.3403	-4.0548	-90.3496	-7.9643	-4.3853	-1.3530	-11.9276	-29.7816	-0.0238	9.1606	-7.6365	-8.9096	-1.0165	-17.9317	11.0156	-10.6484
1864.0272	-17.7297	-17.2731	-98.4026	-21.4974	-19.7878	-8.1290	-24.5738	-47.1831	-11.4833	5.3818	-16.2334	-15.2492	1.7615	-41.7399	-3.5820	-26.9976
1872.0273	-10.2868	-6.5700	-81.3344	-3.7592	-10.0833	4.5723	-3.2995	-4.3734	-11.3827	7.2026	-18.1456	-14.3577	0.0597	-30.6610	0.9517	-21.5648
1880.0275	5.0001	11.1595	-53.0031	15.5502	12.5054	19.6121	37.4176	17.4966	4.6566	19.4810	-4.3525	-3.3671	-4.5294	7.5610	32.4760	8.6920
1888.0276	5.7114	10.1089	-39.5364	14.4760	12.4719	15.3911	35.3116	-2.0574	10.7533	21.8086	-1.2473	-8.2342	-8.6649	18.0258	41.8518	14.3221
1896.0277	5.0082	7.8122	-30.3112	11.2856	7.8074	11.2652	20.5842	-5.6673	8.3319	16.3920	-7.4319	-8.1541	-6.9887	13.0017	33.5875	0.9530
1904.0278	-3.4398	0.6745	-25.2025	3.0896	-5.5440	6.3613	22.7237	10.1750	3.8537	14.9846	-13.6594	-1.3322	-3.4082	26.6767	29.9541	0.4157
1912.0279	-11.3082	-6.0040	-21.7519	-1.5552	-12.9552	2.0485	21.2133	13.8528	-3.7556	9.4976	-24.4352	-4.2158	-3.2454	32.1267	22.9548	0.2760
1920.0280	-3.2615	-4.4162	-11.5162	0.2946	-1.0060	5.0506	4.3853	-21.3175	-4.4463	6.6141	-30.4074	-11.6984	-6.2207	19.0464	12.9222	-10.3732
1928.0282	-6.3605	-5.7814	-5.8130	2.5534	-6.4020	0.7433	-14.9892	-32.0266	-2.4724	15.2791	-21.8721	-7.8377	-6.4986	12.3060	7.6816	-12.8750
1936.0283	-10.5598	-4.1648	-6.0153	5.4149	-14.0729	-1.5674	-5.0394	12.3005	-5.2434	20.0798	-11.5920	6.3347	-0.7420	12.5149	9.4395	-0.9483
1944.0284	-4.5837	-3.5167	-6.9662	3.5834	-9.3995	-1.2686	7.5622	16.9141	-6.0114	22.2822	-5.1353	9.5044	2.0155	3.8130	8.9673	6.5336
1952.0285	-5.4027	-6.2846	-9.6289	1.7344	-10.1730	-3.8625	-2.2745	-2.5780	-10.7908	25.0188	-1.4626	12.3731	3.9823	-19.8849	3.0699	2.2625
1960.0286	-3.5501	-8.2647	-9.3828	-5.2121	-9.7616	-3.3929	-8.4985	-0.6189	-20.8500	19.5257	-5.8230	16.0231	8.8467	-41.1761	-2.4390	-0.5649
1968.0287	-3.4187	-16.6517	-5.9910	-16.4572	-16.0780	-13.8364	-12.0097	-11.3720	-23.7575	16.1387	-4.5615	8.3515	10.1267	-53.0257	-10.3484	-1.6145
1976.0289	3.0454	-10.1457	11.0213	-4.0309	-11.9365	-10.2342	-1.2874	1.6786	-18.0814	17.7321	5.6196	5.0126	7.0357	-50.2605	-9.3851	4.2523
1984.0290	15.4349	4.3669	36.8302	13.0390	1.0821	7.4208	5.5880	15.4364	-13.0514	19.1086	7.9216	9.5530	2.7360	-28.7662	-2.2757	20.2131
1992.0291	-0.3326	-10.3941	43.4245	-1.1881	-13.9449	-7.1595	-10.6445	-3.8152	-20.2076	20.1709	1.7664	13.2568	4.8151	-26.5747	-10.5510	17.0681
2000.0292	-13.9953	-23.5172	47.7966	-12.5071	-18.7654	-19.6868	-9.6915	-0.3656	-28.2291	9.3540	-11.9876	-0.2004	4.4509	-29.8210	-18.6292	2.8845
2008.0293	-4.6202	-16.8701	61.2303	-5.0905	-9.2352	-10.6466	-23.5225	-19.8183	-24.0108	-3.8516	-23.7436	-20.1738	-4.5421	-18.1245	-22.7688	-2.9207
2016.0294	0.5803	-18.9575	64.2415	-6.4504	-18.1938	-6.7099	-41.9735	-47.9425	-22.6812	2.1526	-18.6403	-21.3248	-4.7355	-35.5127	-32.7742	-18.3010
2024.0296	10.8907	-10.9124	75.0079	2.0797	-13.0855	6.0531	-11.9602	1.0660	-17.6842	16.5600	-4.1437	-8.3320	-0.4462	-32.7113	-23.4687	-13.9722
2032.0297	22.3761	9.3578	91.3355	17.9701	7.0292	21.9533	17.9364	50.9099	-2.9531	24.1462	7.3418	18.0976	1.1985	19.1830	-2.3606	17.9742
2040.0298	18.4776	5.7186	84.2762	9.2694	17.7238	23.6962	38.3306	41.5166	-3.0849	24.7136	5.9114	28.3332	4.3843	28.7077	0.0969	21.7071
2048.0299	10.8766	-5.1700	69.3003	-2.4162	14.7730	12.6342	27.7667	11.2342	-8.5376	21.2386	3.1241	16.7822	4.3419	1.5714	-5.9977	8.1758
2056.0300	9.1738	-2.2763	64.5708	-2.2811	8.3413	0.9915	-12.9909	2.7566	-4.2438	14.4284	8.5816	12.5835	3.0632	-4.5960	-10.5207	7.6286
2064.0301	14.1818	0.8327	65.8564	2.5195	16.9903	5.9503	-3.8405	19.5052	-5.1413	5.7261	3.1914	-0.3123	0.4469	-4.5871	-17.2271	4.7666
2072.0303	21.2532	5.6027	71.5291	9.7305	21.5913	13.0199	4.0626	20.2067	-2.5687	10.7894	4.6723	1.0696	-0.7513	-1.9825	-15.0842	5.9829
2080.0304	24.9715	9.8182	74.0365	10.1107	19.0367	10.8061	-4.0414	10.0784	9.1020	23.8136	19.8110	15.9131	0.5080	12.0252	-4.8658	16.4731
2088.0305	20.5195	2.8495	63.5606	6.9583	18.0022	2.8398	9.1483	-14.4981	7.4042	15.2891	12.1263	7.1582	-0.6127	7.8636	-14.2183	6.8921
2096.0306	15.4257	-2.3442	54.2205	3.7848	10.5859	-1.7181	-1.6552	-24.4607	-1.8328	1.7463	1.3408	3.8127	2.6952	-17.3999	-32.9405	-18.1300
2104.0307	18.5397	4.0348	58.2715	7.0161	16.9003	8.2380	6.6370	31.1832	2.7008	6.7173	10.5399	2.7536	2.6058	-4.4836	-25.3107	-9.0434
2112.0308	18.0397	9.1603	54.5139	11.8574	17.7362	11.6310	15.2158	49.2896	11.6743	11.5089	17.2409	1.4800	-2.3821	33.1022	-13.3770	19.5958
2120.0310	17.8951	7.8198	42.2255	6.7168	-3.0934	11.2133	-13.9426	16.4678	11.5717	10.6244	18.1136	9.8521	-0.4587	29.2988	-19.4759	15.9265
2128.0311	24.9157	12.1187	40.0105	15.3417	-4.6074	21.0952	-3.3560	22.6649	10.7239	13.4692	20.6320	9.3966	-0.3647	17.2495	-21.7731	9.5854
2136.0312	26.4412	19.2446	37.2435	25.7341	3.8786	18.7234	-0.3352	15.1885	16.7161	21.0803	29.3161	20.8148	-0.6119	23.4077	-14.7331	22.8173
2144.0313	19.4302	13.4148	31.0163	12.6797	4.0764	8.9342	-9.5474	-2.5214	17.0506	22.8349	33.8131	28.8843	3.2248	14.9656	-8.1724	20.5927
2152.0314	11.1451	6.4463	31.6226	6.2578	13.2850	7.0198	25.6161	15.0483	7.3877	7.0164	25.0346	18.7493	4.7314	0.0329	-6.1254	11.0850
2160.0315	12.2202	13.2997	36.0520	12.9910	19.9189	9.5533	24.8686	19.5674	8.6512	1.6169	28.9693	22.3338	4.1343	-0.3082	-0.6601	17.8557
2168.0317	14.2086	16.8284	36.8597	16.7165	12.0239	11.0259	3.6175	6.2182	16.1274	15.8378	39.7296	28.1292	1.9572	5.6868	8.1755	24.5935
2176.0318	9.8988	12.1218	32.4430	16.6417	8.3097	7.9152	10.3425	2.0366	8.8955	15.7172	31.5518	28.3874	3.5157	-4.2351	3.3467	17.2394
2184.0319	12.6505	11.4987	28.8733	12.3553	10.5189	9.6017	3.7865	-0.1367	4.4937	12.3445	25.4804	28.8149	5.8850	-13.6527	-2.3303	10.4831
2192.0320	13.1443	8.4376	23.4554	7.1564	0.8947	11.4108	4.0147	-10.0099	10.8226	18.1283	31.3177	26.9317	4.3863	-2.3946	-0.5557	11.5961
2200.0321	7.9185	4.2388	18.4237	3.4596	-1.4291	9.0417	13.7707	-8.9896	11.0526	12.7169	33.3354	22.4359	4.2497	-3.1743	-4.2159	8.1308
2208.0323	3.0817	3.9810	17.1929	1.7056	9.5194	4.2151	3.2596	-4.8011	9.1730	4.0227	28.7241	13.7101	2.8046	-10.3508	-5.1385	2.5162
2216.0324	1.1897	2.7286	15.2812	1.7606	9.7341	-0.3856	-1.6429	-15.0506	8.6221	-0.2148	20.4684	10.4349	1.7943	-7.6071	-7.8772	-3.4554
2224.0325	14.7526	11.1205	26.6215	12.0414	18.6764	14.5634	16.0319	8.7533	10.0177	1.3700	21.3526	9.5172	1.4466	-6.2777	-10.3562	-4.3230
2232.0326	16.8993	19.6721	36.9625	22.9390	28.9445	21.9701	27.7926	38.8599	16.4608	11.0269	31.6232	16.1040	-0.2676	11.0223	2.0363	11.4433
2240.0327	3.0786	14.2206	28.3970	15.9213	19.8808	7.9765	19.6140	29.7621	16.7947	6.3888	29.2694	20.1422	-0.0638	25.9900	8.0491	20.2324
2248.0328	5.7279	12.7392	24.7963	12.2756	18.0577	8.3164	12.4365	28.2102	12.8339	-7.0298	18.2914	2.9798	-2.9316	21.9166	1.8252	15.0512
2256.0330	8.8844	12.4021	21.4839	14.6047	18.2035	8.2881	13.4504	19.7312	13.9687	-4.4666	14.7969	-3.1153	-4.8944	20.8448	-0.2037	10.3632
2264.0331	13.6402	11.9806	19.3937	13.4432	19.8378	9.8741	19.7936	9.9289	16.9462	4.1522	14.9832	-1.0303	-4.3306	19.9025	4.5136	5.4485
2272.0332	18.4251	14.0162	24.1638	11.2901	20.4427	16.7901	8.6029	12.9972	17.2644	6.2594	13.9306	-3.5438	-5.5924	23.6094	7.2442	8.0120
2280.0333	6.6863	2.8564	13.7816	-2.2259	3.1770	3.0841	-18.7791	-8.9510	8.8602	-2.2783	3.7124	-4.1893	-3.0969	17.5772	-6.9311	1.2936
2288.0334	12.4764	2.4348	12.5119	2.1979	8.2458	4.5041	0.3542	-2.3231	3.9682	-7.1017	-5.4235	-17.8989	-4.5581	3.9688	-10.7813	-7.3307
2296.0335	18.5561	12.4977	22.2347	19.6672	21.3749	12.4367	33.3558	23.2616	11.5210	6.8698	6.5929	-14.3678	-7.9539	16.3583	9.7116	11.3272
2304.0337	2.9277	4.5583	16.9968	9.4833	10.7295	0.3482	23.0549	12.2159	8.3423	6.4683	11.0920	-1.0496	-3.5462	13.8644	10.9290	13.2700
2312.0338	2.7972	2.4468	17.4371	2.0702	10.4781	2.8401	8.0467	7.1140	1.4369	-7.9912	0.6502	-9.1004	-2.9855	0.2547	3.6810	-0.0251
2320.0339	-0.0778	1.7287	13.1532	-0.6060	2.4592	-4.4580	-7.6831	-2.6310	6.3790	-2.4439	4.7625	-2.0897	-2.3477	10.7674	6.5320	4.9111
2328.0340	-9.0467	-10.3058	1.3311	-14.2871	-12.0721	-18.0364	-20.5067	-15.2105	0.8442	-2.6851	0.4564	0.7838	2.7006	-0.7237	-7.3505	-8.2937
2336.0341	-1.1336	-9.8662	5.0543	-14.9909	-3.6856	-4.9454	-17.9134	-6.7020	-7.5712	-10.8024	-13.4644	-13.5317	1.3045	-14.2248	-16.8809	-21.3914
2344.0342	-5.4275	-11.5128	1.3875	-16.3422	-3.2733	-6.4679	-14.4347	-7.8418	-6.1599	-2.9368	-9.8477	-8.5975	1.2360	-6.4327	-10.6425	-12.6928
2352.0344	-13.9886	-18.0065	-6.8127	-20.1761	-5.8677	-12.9593	3.3383	0.1004	-11.1333	-4.3687	-11.3487	-8.3689	3.3558	-10.7243	-11.5712	-12.0770
2360.0345	-9.1577	-10.8845	-1.0336	-11.1224	3.2498	-3.5162	14.1443	13.5834	-11.8585	-10.7975	-16.0908	-13.8627	-0.1854	-1.1773	-7.7970	-2.9369
2368.0346	-9.8706	-7.1547	1.7039	-6.2939	4.4845	-3.8009	4.4031	6.6544	-7.1034	-5.4178	-12.0935	-9.6410	-2.4807	10.4534	-1.5805	6.3040
2376.0347	-12.7813	-11.0098	-4.3498	-9.2231	-4.0619	-4.3396	-8.2661	-3.7327	-10.5215	-4.3619	-16.0164	-13.8817	-2.9498	0.3888	-4.4158	-3.1076
2384.0348	-15.7088	-13.0031	-12.4446	-12.2954	-10.8511	-5.5811	-17.5567	-13.5416	-10.7883	-3.6599	-16.5884	-11.7084	-2.3446	-0.2274	-5.7851	-5.7665
2392.0349	-15.3316	-12.0891	-14.4655	-10.7398	-2.8810	-6.4155	-5.3318	-10.1072	-8.8959	-1.0523	-11.4815	-7.0940	-0.5350	-4.1743	-5.7370	-6.4885
2400.0351	-5.7397	-6.5844	-16.3108	-6.0087	-5.3559	0.7044	-13.8569	-13.4707	-8.9929	-1.2998	-10.2233	-9.0666	-0.8795	-15.8326	-6.7780	-9.3708
2408.0352	-2.0123	-5.0368	-24.9762	-8.0072	-23.8346	-2.5800	-39.2932	-39.9739	-6.8162	-1.8819	-4.7251	0.7887	1.8951	-22.5419	-11.2096	-10.2696
2416.0353	-1.1916	-4.9374	-23.7942	-6.1966	-21.0473	-2.6495	-17.6565	-33.2285	-4.9967	-3.3567	3.3894	2.5197	3.5356	-29.4226	-11.3816	-11.6894
2424.0354	-1.3487	-0.9746	-20.9049	0.3604	-20.4929	2.1583	0.9741	6.5221	-4.2911	-1.0440	8.1951	0.8244	2.5795	-20.5425	-1.5723	-0.2548
2432.0355	-7.4899	-2.7390	-26.1531	-2.6092	-27.6620	-1.5152	-1.1867	21.8963	-9.8355	-4.7463	1.8288	5.9526	4.9489	-12.5797	-1.0426	7.3507
2440.0356	0.6986	1.7758	-16.3047	2.4923	-9.7835	8.7111	10.3506	8.5327	-8.0214	-5.1521	0.3573	0.0542	1.3693	-15.0992	2.0866	6.1459
2448.0358	13.9867	15.0401	1.0883	15.4430	3.1436	19.5299	16.4762	7.7239	7.2278	10.7137	17.5296	10.9426	-1.1801	-0.1610	20.2180	17.2704
2456.0359	11.5411	15.9038	3.6943	12.5869	-4.4559	13.3768	10.7207	19.7311	9.9573	7.8391	17.9427	20.6890	1.8665	15.0171	22.5669	21.4979
2464.0360	12.7845	14.6844	3.2190	9.8014	-7.2652	11.6687	-9.7776	5.4015	9.1435	-1.2737	7.5433	10.6074	-0.7001	18.2404	12.1607	13.6797
2472.0361	14.8216	14.5312	4.2913	10.7566	-6.5375	7.7601	-18.2142	-9.9793	13.5421	6.7546	8.0783	16.9706	0.1843	22.3199	7.5328	8.1625
2480.0362	12.3362	12.1885	4.4895	11.6324	-5.2058	4.6429	-5.6548	4.1582	9.5339	-0.3752	-3.2404	11.5811	0.5195	25.6412	1.9014	0.9522
2488.0363	25.1221	25.6106	17.7379	28.2311	9.2089	21.8432	3.1494	21.9843	14.6958	1.4546	-4.4131	8.3103	-4.2756	39.1996	8.2092	6.1114
2496.0365	26.4596	28.9710	27.7499	29.7340	17.3685	25.2721	16.1971	19.1187	24.6005	22.1065	12.8057	27.6070	-2.7752	53.2660	27.1836	20.1471
2504.0366	10.1086	12.4313	15.7279	8.6596	-2.7843	6.6030	-1.9301	-4.0941	17.0930	13.6702	7.1869	21.0022	-0.6590	40.2127	24.1242	11.6055
2512.0367	13.0139	9.2427	10.3766	2.4617	-11.0243	5.5454	-21.4355	-9.9473	8.8931	1.7009	-2.1201	12.9354	1.5058	18.3874	7.4242	-4.1169
2520.0368	11.6053	5.7138	12.5542	-0.9516	1.7348	3.4241	3.0087	-4.9686	8.7123	4.3978	3.9858	8.3419	1.2836	11.8560	12.7541	1.7799
2528.0369	-4.2281	-4.2309	-0.8757	-11.2563	-6.7704	-12.8052	-8.5504	-19.3935	2.0320	-9.8388	-2.9051	-7.5617	-1.7174	3.6279	15.4421	4.5784
2536.0370	-2.1709	-3.0055	-8.2556	-10.3129	-17.7214	-10.2325	-23.5775	-15.7333	-7.3087	-20.1772	-13.1429	-5.0260	1.9232	-10.8661	1.3499	-5.3798
2544.0372	10.7007	6.7060	4.5462	2.7752	-5.1503	1.2210	3.1367	4.0846	-1.9378	-7.8934	-3.8475	3.0278	1.9647	-4.0669	9.7107	6.1871
2552.0373	18.7315	16.1326	12.2871	9.2704	6.2685	2.6852	-1.3382	5.3038	8.6319	3.8404	6.0921	12.5731	0.6358	14.0606	23.8217	24.1323
2560.0374	6.6041	4.2500	-2.5311	-4.1206	-3.3260	-8.4192	-18.9060	-15.9442	1.2943	-1.3855	-4.1906	10.9161	3.3014	3.8174	10.0824	9.2205
2568.0375	-8.9422	-8.4632	-15.5474	-9.0427	-14.6039	-15.3720	-25.1835	-29.7270	-12.8880	-13.3663	-22.7372	-6.3040	1.3085	-17.0794	-4.1962	-12.3344
2576.0376	7.4724	7.4709	-4.5537	6.8854	-6.8161	7.5212	-31.9183	4.3731	-11.0107	-6.3276	-25.2912	-4.7108	-1.5990	-2.0225	1.2012	-1.7303
2584.0377	14.8542	14.3762	-2.1925	12.0374	-4.7549	13.8325	-18.2417	18.1622	-0.9057	7.3741	-15.0043	4.9672	-2.4491	25.6193	15.2354	19.5683
2592.0379	0.1739	3.3005	-17.0551	1.1660	-6.9469	-8.6934	3.5230	-4.7677	-3.0451	3.3905	-16.5299	16.2237	3.6604	18.3714	19.0545	14.3519
2600.0380	2.4956	4.1726	-20.4758	-2.2459	2.9909	-4.8748	9.2543	7.2256	-8.8529	-3.9054	-23.4510	18.6389	8.0732	3.5673	14.6369	1.9926
2608.0381	6.5635	10.0670	-27.2358	3.3460	0.4100	5.8341	-6.0241	-3.4055	-1.9272	-0.9463	-14.9547	11.6417	2.5637	6.0996	19.0894	5.0658
2616.0382	7.3428	7.3943	-45.1627	-0.7225	-4.7430	5.0031	-9.4496	-21.7459	3.3729	13.3728	-5.9848	17.5054	4.1994	0.9312	20.0077	1.3236
2624.0383	8.9653	5.3605	-53.5662	-2.4844	0.9174	8.8075	7.7221	12.5716	1.8727	20.7275	-7.5871	11.2696	5.1200	2.0037	18.2230	0.0091
2632.0384	-0.3266	9.2535	-54.2597	6.0515	8.2030	9.4883	14.6525	21.8064	3.1093	8.2547	-6.7508	0.0839	-1.6962	13.9982	26.6740	13.5706
2640.0386	-6.1964	6.3591	-56.7040	4.5028	14.4925	10.4266	25.9211	20.0160	1.3776	5.8427	-2.5575	-4.4687	-3.1093	7.7387	27.6640	16.2345
2648.0387	-12.9902	-2.2755	-65.0529	-1.7288	1.4145	0.5258	18.1028	24.5286	-1.5516	8.1652	-1.9856	-11.1130	-2.5041	2.1452	17.3734	12.9290
2656.0388	-23.2697	-8.6555	-70.8804	-9.7598	-11.0574	-16.2277	-14.7652	-10.2481	-4.3897	-10.2599	-9.2787	-14.4591	-2.4989	-0.7808	1.3920	6.0968
2664.0389	-18.7993	-10.6210	-60.8582	-12.3073	-1.4080	-10.3015	-7.2249	-10.7206	-9.1871	-19.7714	-15.7016	-25.2822	-2.9501	-14.7424	-9.9177	-7.7322
2672.0390	-13.3621	-4.3092	-46.2378	-3.6575	2.2061	-3.4524	7.7288	20.0557	-7.1030	-8.7692	-10.4904	-16.5205	-1.7637	-7.7410	2.1360	-0.8208
2680.0391	-19.5835	-7.2071	-44.3309	-11.6083	-6.1983	-14.2294	-12.5204	-2.3061	-4.8074	-10.1919	-9.6612	-6.9974	-0.1475	0.7949	7.4041	3.4638
2688.0393	-20.2676	-13.4802	-45.3293	-17.0388	-4.1734	-14.7317	-8.9479	-18.0213	-8.1992	-25.0190	-16.2494	-25.2070	-2.3186	-15.1922	-8.4350	-15.6362
2696.0394	-10.3917	-2.6759	-33.5342	-3.4688	15.2879	-0.5546	30.7395	22.8850	-4.7647	-20.6948	-9.3639	-18.3267	-1.2926	-7.6492	-0.1765	-6.9245
2704.0395	-9.6423	1.8499	-28.8554	-2.5232	16.2358	-2.2982	37.0870	38.1902	0.8744	-9.8556	1.2775	-1.7900	1.3243	9.1770	16.9429	13.3269
2712.0396	-12.6798	-2.7012	-38.6393	-8.3966	0.6502	-10.5597	16.7340	9.1576	-1.2914	-19.2096	-0.3381	-0.7891	3.8529	-7.1188	4.5797	-1.5408
2720.0397	-6.3771	-2.5780	-36.4509	-9.2245	3.9200	-4.2883	21.7932	5.6536	-0.3357	-17.8107	3.3852	-3.4776	4.0877	-15.1781	-1.6540	-7.1480
2728.0398	-7.8553	-4.1571	-31.1385	-9.8354	-3.4903	-5.8086	8.2031	3.9415	4.2539	-8.9080	13.3750	-9.5880	0.1696	-10.2327	3.1094	1.7433
2736.0400	-8.5800	-6.0891	-31.7312	-12.6393	-11.0005	-8.0054	-11.3226	-21.7067	2.4794	-16.2611	10.3312	-8.5053	1.2943	-21.7001	-8.2896	-12.2052
2744.0401	-7.5292	-15.0192	-30.8702	-24.8350	-9.7479	-12.2805	-11.0305	-39.3620	-0.6783	-16.8843	3.6712	-16.7070	2.2919	-32.9931	-15.8381	-25.7990
2752.0402	-15.6820	-23.0231	-32.6189	-32.7290	-27.2036	-26.5614	-50.6670	-57.4587	-4.6719	-21.1986	-4.2127	-26.1270	1.1748	-42.9488	-24.0471	-38.7621
2760.0403	-1.9570	-11.0356	-16.2771	-14.2614	-8.9791	-8.0678	-37.2402	-31.0126	-5.0110	-20.0245	-14.0069	-28.8351	-1.5152	-35.2821	-29.7166	-44.3197
2768.0404	12.3876	2.4026	4.4753	12.7643	21.6310	7.9243	41.6784	24.7368	5.5644	7.6225	-4.5169	-22.3562	-5.3528	-0.8834	-5.0255	-16.0698
2776.0405	2.0347	2.2341	2.4416	14.4785	12.0273	-6.5488	33.0331	9.7178	9.6123	17.8579	4.7286	0.0212	-2.0370	6.7768	9.1465	-4.7191
2784.0407	4.6871	-0.0767	6.4759	7.8418	10.6793	-2.4996	4.5721	-10.0806	4.2644	12.1103	-4.0165	-7.0437	-2.6933	-7.3361	-1.0345	-18.6519
2792.0408	8.3516	-0.0713	11.9782	8.4158	8.9822	-1.2271	17.1381	12.3236	1.4767	9.3687	-7.0263	-13.3424	-2.8194	-5.5048	-0.6064	-14.4344
2800.0409	2.7044	0.7732	12.5038	4.7478	4.2756	-6.0907	10.7020	15.9227	1.9835	6.8170	-2.2132	1.2042	0.8265	3.0678	4.6488	-4.0117
2808.0410	4.0444	0.1893	21.6068	7.5433	6.4877	-3.3318	12.0756	6.6418	6.4572	15.0148	3.6009	-6.5316	-4.2040	7.8092	9.3355	0.6934
2816.0411	-1.9458	-4.9819	20.4365	5.5869	-7.1678	-10.7255	12.4155	-3.7414	2.5789	6.6944	0.2897	-9.0152	-3.3828	-1.9470	5.3936	-8.6293
2824.0412	-3.6846	-3.7659	25.0506	0.2982	-0.9128	-2.2863	-0.1976	0.3888	-1.6840	-1.5227	-5.2951	-5.5604	-2.1548	0.8681	1.2792	-10.4525
2832.0414	1.4266	-0.2757	32.5074	0.4829	8.1821	0.4502	-7.4708	-0.9185	5.4043	10.1473	1.7684	-2.2252	-4.1130	16.8487	7.3770	3.6086
2840.0415	2.6655	-7.5828	23.7399	-8.7123	-0.5557	-9.0371	-8.8425	-24.4173	1.0346	1.5230	-5.6485	-4.9869	-0.1011	-2.9800	-5.6772	-15.3441
2848.0416	11.0093	-1.8960	33.6714	3.6796	10.8737	6.4980	12.8491	-0.3359	1.3445	7.5611	-3.9489	-13.9812	-3.8059	-5.8829	-4.9242	-17.1717
2856.0417	10.2053	6.9196	41.0722	12.9788	12.0539	6.3068	18.9085	24.2446	12.5185	21.6971	17.2371	2.7262	-3.9899	18.6952	14.6699	11.9660
2864.0418	5.5446	-1.9595	31.1428	-6.0779	4.5824	-0.7097	7.8279	2.6900	3.7164	-2.9239	3.0514	-2.5714	0.1318	5.2994	1.5868	-3.5999
2872.0419	12.0727	3.9684	39.5670	6.1847	13.9327	14.7622	20.3875	4.4695	2.8681	1.8315	-0.7176	-6.8182	-4.0344	5.7176	4.6580	-5.1566
2880.0421	3.0823	5.1553	33.8815	13.8424	3.9550	7.4566	8.2994	-6.7317	10.2595	24.6665	17.3804	11.0525	-4.3258	14.3446	17.0665	11.0190
2888.0422	-13.1029	-16.9130	6.5503	-12.5041	-20.1453	-16.1418	-37.9489	-43.5749	-7.4370	1.2011	-5.9838	-9.6172	-0.9970	-22.3562	-17.8434	-22.4748
2896.0423	-10.6420	-19.0303	2.0389	-17.1520	-23.9794	-20.5782	-48.3130	-35.6008	-15.3324	-13.9896	-20.8869	-14.5724	2.6035	-32.2579	-36.8723	-36.7773
2904.0424	3.6678	-4.2246	21.5592	2.0976	0.5221	-1.2229	5.4941	8.1881	-2.9250	1.3329	-3.9103	-7.3386	-0.3063	-4.7978	-17.0177	-11.5995
2912.0425	9.8847	7.5004	37.8802	20.2636	21.4794	15.3918	45.9214	37.5872	4.7156	11.1432	8.8048	-6.9575	-5.8430	12.9153	4.3354	10.2519
2920.0427	0.2416	10.2241	30.6584	17.3279	12.8761	6.0146	15.1360	17.7205	8.7757	11.2268	17.7169	14.5663	-2.6395	20.9693	13.5426	21.8369
2928.0428	1.5776	5.0219	24.7264	12.0098	11.2111	5.2783	0.7690	-4.7212	4.6139	12.8278	10.5442	8.7940	-2.6309	7.5825	1.2957	9.1006
2936.0429	5.3726	2.3339	27.0584	12.5678	13.7401	7.5918	15.4425	3.3073	0.3862	18.1417	4.6526	5.3905	-1.4374	-1.9121	-1.9709	-0.3347
2944.0430	-12.4159	-9.7444	9.9456	-7.1184	-6.4936	-9.8554	-14.1358	-14.6203	-0.9624	8.4568	4.2555	1.5874	-0.4518	-1.6981	-1.3189	-2.9065
2952.0431	-14.6404	-17.7738	1.9337	-11.8785	-16.9669	-10.9427	-36.1752	-27.2730	-11.5191	-2.8001	-11.3973	-25.0970	-5.2380	-20.1561	-20.0406	-17.2673
2960.0432	-4.1900	-11.7643	10.8303	-1.2582	-11.2057	-2.0052	-14.5718	-3.0129	-13.5439	4.2005	-12.9049	-19.0251	-3.3525	-18.3882	-22.0125	-13.1065
2968.0434	-6.2066	-10.1669	10.4978	-1.1180	-7.3979	-0.5223	2.4169	5.9776	-8.2362	7.1015	-6.6413	-10.6215	-2.4776	-1.5896	-14.1505	-3.7140
2976.0435	1.0988	-3.6366	15.1273	7.4700	5.6955	5.8750	15.0963	7.8767	-8.6821	12.5364	-6.4014	-1.2768	-0.7421	-5.9322	-11.5711	-1.6472
2984.0436	8.1633	4.1689	24.5503	12.4146	25.3090	8.3897	37.1868	17.5847	-3.2555	22.1572	4.4529	14.9077	2.5621	-3.8532	4.8763	10.9046
2992.0437	10.1878	10.5056	31.0610	15.2983	30.6610	11.2895	32.8238	15.4690	2.8135	18.5109	12.5080	15.4040	0.4294	-0.9833	17.5286	16.7431
3000.0438	15.8674	17.7398	35.1221	21.7997	18.9570	10.9679	5.2284	3.3061	7.6727	21.2840	21.3651	25.7192	1.3757	-4.9406	18.7198	17.8301
3008.0439	9.4207	10.8178	28.5676	17.2096	9.6219	0.8269	8.0410	0.2060	11.2872	22.7429	23.8443	18.8133	-0.1991	3.2920	15.8171	17.8008
3016.0441	9.7290	10.1400	24.2844	16.1024	14.4652	7.2739	17.7874	17.0712	5.5264	13.3484	9.7250	9.6986	-0.6758	4.7483	10.4712	9.0339
3024.0442	20.2305	21.4228	29.3790	22.7578	20.3999	22.5297	10.9670	26.6424	9.1425	17.1700	15.4611	20.5002	0.4397	7.4359	17.1187	13.2183
3032.0443	20.4423	23.8365	32.8518	26.2655	18.6265	23.7110	19.9234	21.0697	19.5041	23.1462	30.5669	23.6393	-2.2180	22.8998	24.9065	25.4864
3040.0444	25.7471	23.0354	30.6917	23.0824	18.3734	20.3066	24.9509	20.8614	18.4058	25.6247	29.8245	31.5435	2.5526	18.2925	19.2423	23.6010
3048.0445	32.4832	23.7715	26.5647	22.6631	21.4647	18.6054	20.2868	17.1731	19.6732	31.5621	32.9607	33.4847	4.9023	6.7558	12.9429	18.3557
3056.0446	29.4761	25.7289	27.3383	23.4439	20.8724	16.5957	15.3772	7.5849	23.8777	26.7305	38.5860	40.2425	5.5090	11.2034	12.3861	18.4909
3064.0448	27.6349	25.9846	32.1549	18.5732	23.4835	14.3810	7.1233	6.7891	21.7377	20.2963	37.4785	48.0860	8.9415	7.9033	11.4612	16.2183
3072.0449	24.8995	25.3949	34.5076	24.1761	27.2688	15.4251	13.2801	13.1544	20.1048	21.3898	35.4564	40.0249	5.6409	7.6479	9.9503	16.4594
3080.0450	9.5093	18.2301	16.4943	14.9450	7.3477	8.0937	-11.7498	-2.7508	16.9953	14.7208	29.5223	42.7800	5.9014	18.0624	5.3022	16.3700
3088.0451	-16.5625	-7.1306	-16.9592	-13.9447	-23.2870	-13.9114	-58.9765	-38.1620	0.8075	-5.7941	7.7079	18.1582	5.2993	-2.0977	-20.6094	-7.2205
3096.0452	-24.3819	-20.1885	-22.3178	-17.0181	-21.1558	-19.0441	-40.3526	-30.5065	-15.9612	-23.1282	-16.1468	-13.8142	1.6690	-23.5136	-43.8059	-26.5332
3104.0453	-16.7380	-11.9546	-9.7164	-12.9934	-0.0333	-11.8296	2.7539	3.1582	-11.5999	-24.2258	-12.2075	-5.5680	3.4750	-5.2810	-25.2030	-8.7963
3112.0455	-24.6071	-15.2883	-15.2019	-21.6557	0.5764	-16.3637	5.7277	-6.4535	-10.2891	-27.9925	-6.9958	-6.8874	2.6332	-4.9179	-9.7887	-0.6064
3120.0456	-23.4943	-19.4061	-18.2903	-22.1445	-8.4755	-9.4553	-5.3739	-21.4625	-17.9035	-26.0860	-14.1337	-17.0114	0.1906	-20.3294	-18.3751	-9.3916
3128.0457	-8.0200	-10.7098	-10.7108	-12.9529	-14.7143	1.9421	-7.0613	-1.5753	-8.1904	-7.4347	-1.5498	-12.8589	-0.9666	-7.6512	-12.9462	-0.1895
3136.0458	-14.5963	-10.1971	-10.9777	-11.6226	-25.2538	-5.2197	-7.9521	7.6129	-8.7977	-14.8804	3.0633	-3.5904	2.3845	-9.0214	-12.6799	0.6099
3144.0459	-19.3906	-12.2380	-8.1423	-16.9183	-18.6635	-4.8212	-10.1805	0.4733	-14.9336	-29.2038	-5.7835	-4.9712	3.1544	-13.1308	-17.5757	-4.2436
3152.0460	-1.8630	0.3757	5.4722	-3.9901	3.2094	7.1741	-3.8765	4.5097	2.5622	-10.4886	6.7437	-9.5889	-3.9835	10.6452	-4.1035	10.1006
3160.0462	2.9283	4.6616	9.3405	2.0378	4.6248	2.3340	-9.6053	-0.6237	3.5854	-4.9658	5.3952	3.5889	-0.5778	9.4446	-5.4070	8.6070
3168.0463	-6.9610	-6.8796	1.5088	-12.6101	-2.5170	-11.7167	-18.6106	-6.0188	-9.8811	-19.5104	-13.4327	0.5281	4.7572	-8.7254	-17.6744	-9.8003
3176.0464	-12.2960	-10.6286	-4.6155	-15.4966	-6.2592	-15.8042	-15.8519	2.2801	-10.6476	-23.3252	-15.7668	-8.2128	3.4148	-8.2434	-17.2292	-12.7802
3184.0465	-16.4861	-12.0251	-10.8317	-16.3710	-15.1105	-16.1815	-25.0510	-6.1401	-14.4382	-27.4854	-18.7294	-7.5197	3.0655	-7.8000	-20.0497	-8.8571
3192.0466	-12.6660	-11.9766	-9.8154	-14.6175	-11.4279	-11.4111	-18.0732	-9.0724	-12.6047	-25.8610	-18.8170	-20.0664	-1.6228	-5.0316	-17.8805	-5.4350
3200.0467	-9.1225	-9.8199	-6.7230	-13.2225	-9.9083	-5.5336	-12.0543	-5.8504	-10.0617	-20.6304	-13.1611	-16.9140	-1.2988	-5.9615	-13.1157	-5.3350
3208.0469	-18.8192	-18.8715	-15.5711	-26.0028	-19.4338	-13.2923	-27.0279	-20.7486	-17.9261	-28.8446	-20.2559	-17.0157	1.5561	-16.5517	-21.3260	-13.0555
3216.0470	-20.5527	-23.3659	-17.5474	-27.8361	-19.7328	-18.5698	-15.5477	-16.2708	-18.0218	-31.5441	-25.0946	-30.4652	-1.2044	-12.9825	-22.1855	-14.2846
3224.0471	-17.0581	-22.0450	-12.7544	-25.3219	-28.0551	-14.8830	-16.4268	-14.9997	-18.6111	-27.3407	-27.4435	-27.1065	-1.0909	-8.0781	-19.4249	-13.0544
3232.0472	-16.6829	-21.0272	-7.7613	-23.0501	-25.4076	-13.4293	-20.4936	-22.0932	-19.6486	-28.0608	-31.1902	-25.8934	-1.6035	-8.2260	-20.9659	-16.2672
3240.0473	-15.9572	-15.9059	2.4374	-17.7054	-4.1431	-16.3040	0.7564	-0.2574	-12.8398	-28.1691	-26.8099	-22.7881	-1.4381	3.0923	-12.8028	-12.5282
3248.0474	-20.6104	-16.5070	4.5033	-18.5622	-0.3356	-19.5665	3.0283	2.6398	-12.5808	-30.2529	-27.1178	-23.2806	-2.1679	7.1950	-7.1271	-9.2135
3256.0476	-10.6919	-9.5930	9.4652	-7.5531	7.7037	-6.7518	8.8471	-12.1445	-9.4428	-21.8661	-21.9033	-23.9820	-5.5608	0.3792	-2.7394	-8.3678
3264.0477	-3.9454	-4.0595	11.2273	-7.0059	-1.0520	-4.4583	-14.7989	-17.9529	-3.5853	-9.6294	-7.2874	-5.2247	-1.1178	-4.0687	-0.4036	-6.2427
3272.0478	-12.8342	-10.4930	3.2627	-13.4390	-24.2372	-18.3844	-31.8809	-13.3508	-7.3476	-15.9629	-6.4106	-1.2951	2.8507	-7.2574	-11.8152	-7.7471
3280.0479	-0.1132	-0.1481	18.1061	6.4683	1.4308	-4.0770	22.9305	9.4084	-2.7735	-12.5504	-2.3885	-4.2890	-0.3851	-1.1654	-6.4221	-0.8903
3288.0480	-0.7656	2.9247	22.0623	5.3617	8.4189	-1.0084	5.8424	-0.1326	1.0423	-8.3174	2.3618	-0.6369	-1.7019	0.5247	2.2585	1.1243
3296.0481	-16.8650	-9.7851	3.1198	-14.0035	-16.2210	-16.2047	-36.3048	-12.2454	-9.2438	-26.6820	-11.5794	-7.6652	0.8799	-6.9299	-14.0930	-11.0698
3304.0483	-9.9749	-9.2330	3.2710	-14.0467	-6.6534	-6.7917	-4.3091	0.4201	-9.5373	-27.7944	-14.0099	-10.7491	1.1581	-0.4657	-16.2466	-8.5396
3312.0484	-12.0557	-11.9243	0.8800	-18.6009	-6.5862	-8.5463	-7.8208	-15.8216	-4.3270	-23.4101	-6.4996	-16.6234	-1.8556	-0.5299	-8.4651	-6.4884
3320.0485	-13.1118	-15.2795	-4.7983	-23.8347	-14.1202	-16.8400	-19.3159	-20.5132	-5.1487	-32.9058	-9.0496	-27.9380	-2.2583	-12.8175	-12.2284	-16.7103
3328.0486	-15.6078	-17.7896	-7.1289	-27.8015	-18.2491	-20.1897	-34.0110	-23.9387	-6.6671	-36.1795	-11.5864	-31.8308	-2.2082	-18.0575	-17.0088	-23.3362
3336.0487	-28.2302	-24.9008	-14.8813	-32.3344	-33.5763	-27.1742	-56.0158	-36.1058	-13.9437	-46.4994	-21.6528	-37.1295	-2.7636	-24.1615	-27.5552	-34.8342
3344.0488	-8.9105	-13.1629	-0.7106	-16.8063	-17.2136	-10.3518	-7.4472	-9.2327	-9.8523	-39.4824	-23.3429	-32.8835	-3.0070	-10.4030	-16.6907	-26.8803
3352.0490	-5.0295	-5.2769	6.1203	-9.5194	-3.5465	-9.3926	6.3503	-5.4630	0.9457	-19.7917	-11.5464	-17.2991	-3.5368	9.9370	9.4408	-6.2140
3360.0491	-24.8618	-15.3118	-11.9073	-23.2549	-19.8660	-29.5960	-34.1799	-23.2639	-9.7831	-40.4444	-26.2422	-20.7125	-0.8223	-5.4381	-0.2914	-21.0755
3368.0492	-12.2831	-17.5282	-15.6492	-27.6397	-24.8880	-24.5966	-41.1732	-34.7911	-14.9168	-52.1782	-40.6533	-38.6525	-1.7591	-18.7707	-20.5792	-38.4566
3376.0493	-0.1587	-13.3989	-6.7434	-19.2432	-18.3351	-15.6057	-25.6949	-34.7808	-4.2428	-29.2114	-25.5207	-39.0713	-5.4334	-8.5396	-15.1545	-27.1814
3384.0494	0.4131	-3.2163	9.2183	-4.6497	-1.0272	-7.2233	16.3137	16.2770	-1.8451	-19.1861	-14.2667	-22.7214	-3.6521	6.3698	7.1082	-4.5838
3392.0495	0.5277	5.7465	17.7521	4.0777	9.2278	-2.5117	33.1523	34.6243	1.0542	-16.5440	-8.1829	-9.0546	-3.3930	22.8261	26.5954	17.1068
3400.0497	-3.8309	5.6934	10.0193	4.6420	5.9112	-5.4396	19.7180	15.2510	5.7720	-10.4465	-0.6640	-6.9504	-5.5906	25.5746	31.4498	22.7102
3408.0498	-2.8396	6.5323	1.8937	6.3519	10.0009	0.5373	20.1610	18.0246	3.6399	-4.1370	-0.7595	-7.2932	-5.6062	17.1859	32.2934	20.3786
3416.0499	-2.5787	6.5499	-11.6934	4.3217	8.4557	2.4331	7.2496	13.2423	1.8745	3.9315	-0.5027	-0.1532	-3.3963	13.6014	29.0893	22.1127
3424.0500	9.0912	12.9792	-19.1250	9.4345	2.3630	7.2668	12.8649	25.3859	6.9366	10.5440	5.7954	7.4406	-0.8884	19.2190	28.2375	28.1917
3432.0501	17.6881	17.1152	-29.1070	13.9598	-6.0880	9.9901	14.2991	2.2481	12.1592	14.3157	12.4197	15.1289	0.3679	15.5038	27.2455	27.6532
3440.0502	14.7846	14.2213	-46.3544	12.6654	-2.7152	10.5145	0.3967	-21.9853	10.8855	16.7793	12.9672	13.9570	0.8026	-3.1045	13.3321	12.3911
3448.0504	27.7171	25.4923	-40.6270	26.1656	16.2733	25.4264	25.2686	41.0847	18.7134	33.6469	21.2034	12.4606	-0.2449	10.9028	21.1223	19.5741
3456.0505	22.5146	22.3064	-45.5815	17.0140	4.1821	13.9287	14.9347	29.2740	24.4059	37.4557	27.8312	27.6569	3.9729	23.1657	26.9615	24.4821
3464.0506	11.3639	7.0720	-56.7795	-3.6378	-8.3710	0.4229	-7.7472	-18.3074	12.1932	14.0095	13.9015	24.3188	9.2994	-7.0897	0.2803	-4.8725
3472.0507	25.9960	17.6730	-38.3123	14.3617	5.0659	21.1514	21.2824	24.7714	12.9966	20.2562	16.6629	15.0354	5.0894	-4.1016	2.9734	0.8973
3480.0508	23.2150	21.0000	-34.0224	20.7493	3.1395	23.2026	20.6209	28.9452	18.5455	33.6771	25.9243	20.9014	1.5712	16.9679	16.8944	23.0344
3488.0509	12.6595	9.7581	-42.0882	7.5427	-0.7915	12.1545	-3.7925	3.6460	9.1954	21.3397	10.5845	8.5786	0.8368	6.0252	1.9133	11.1485
3496.0511	8.5809	5.1500	-38.6375	7.3218	-1.8377	9.8782	-11.1105	0.3192	5.5134	19.7119	6.5956	-1.4639	-1.3380	-2.6565	-7.6249	1.8813
3504.0512	3.1717	1.8627	-35.0226	5.4353	-3.0911	6.5565	-10.0672	-5.6191	2.3360	16.3069	7.2925	3.7376	1.1064	-11.2727	-13.4415	-4.8440
3512.0513	10.1334	5.8809	-28.3897	7.2725	0.1298	9.7637	-9.8024	0.9452	-1.2946	15.1004	1.4484	11.0154	4.1068	-12.7623	-13.9722	-3.5844
3520.0514	10.8531	5.1249	-28.8309	8.4727	-9.3118	10.6422	-19.7722	-11.1089	1.6769	26.8022	5.9260	11.5371	1.5704	-5.5304	-9.6743	4.4887
3528.0515	12.2295	3.6217	-24.6237	9.2439	-0.1085	11.6128	4.6608	-1.8303	1.2468	23.6245	5.4558	4.9504	1.4826	-12.2831	-10.7396	-2.8115
3536.0516	19.2225	12.5055	-12.0208	13.7452	22.9858	14.1320	39.1984	29.8630	4.6270	27.8440	11.4600	23.8609	7.4241	-7.0298	7.6054	7.1204
3544.0518	17.9262	15.6761	-10.4347	15.7068	23.0108	17.6245	36.2080	22.5177	10.8882	38.9164	22.1247	31.4600	5.3557	5.1948	23.5576	22.2117
3552.0519	24.8224	19.1424	-6.6504	22.6427	21.0399	24.6465	36.4349	21.2281	11.4995	32.8990	17.8291	18.8412	0.9108	6.1425	18.3296	18.9043
3560.0520	19.2120	12.6219	-9.0671	11.1440	13.2235	11.9841	26.4151	13.6385	8.3942	27.9656	15.7046	23.9359	5.4245	0.1447	15.4252	14.9387
3568.0521	10.6385	4.7971	-9.7843	4.5514	4.2027	5.9778	12.4829	-1.4247	7.0282	26.6618	15.3374	13.9736	2.8894	-7.2323	13.4208	6.2979
3576.0522	20.9747	14.3828	1.7993	17.3238	8.8416	16.0240	21.1993	7.7440	11.0222	24.7363	12.6673	17.3397	1.8632	3.2506	12.2733	3.5488
3584.0523	8.1163	3.3909	-10.0382	-2.1835	-1.4294	0.1704	5.8291	-1.7062	3.8529	15.2366	3.0282	27.8769	9.0916	4.6946	3.4327	-0.7044
3592.0525	-3.7660	-10.0245	-18.5024	-12.6083	-9.8770	-9.4570	-6.5867	-5.1233	-6.4648	5.1788	-11.4984	0.5390	4.4978	-7.0974	-7.5000	-10.6286
3600.0526	7.6305	-2.7850	-3.8651	-1.1190	1.5209	-0.5997	8.4012	1.3427	-1.9289	10.3936	-9.5246	-6.7331	-0.0437	-2.9498	-0.3600	-5.9183
3608.0527	11.0333	-0.2676	3.2245	-4.1316	6.4333	0.6294	10.6200	-1.1269	0.8817	9.6998	-4.4758	3.7129	3.2231	-2.5818	3.6552	-5.4102
3616.0528	17.6180	8.0132	11.3540	7.2944	-2.3986	7.4346	6.4399	7.2071	4.8548	11.6969	1.9017	11.1149	2.8630	4.5067	4.2008	-0.3102
3624.0529	18.7794	8.0086	13.7301	8.6551	-15.8209	3.6496	-9.1276	-10.3725	7.6921	16.6869	6.1870	18.2091	3.1315	9.9972	0.4602	4.0158
3632.0531	22.5114	5.4600	17.3930	3.4127	-0.4614	1.5479	-8.6780	-11.6698	5.4107	8.4810	-1.1209	6.4343	3.1364	-1.6919	-11.4277	-9.3101
3640.0532	41.4082	22.0282	36.5548	21.0208	30.5550	17.4239	18.5988	16.0527	20.1148	22.4629	14.7045	8.5375	-0.2256	11.1281	3.4898	2.2718
3648.0533	33.3603	19.4786	31.6824	18.1338	19.7449	9.3552	-4.1757	-3.1221	25.7078	33.2183	24.9420	13.3305	-1.9073	16.0273	13.6189	9.6380
3656.0534	25.4022	11.8286	21.6126	11.4681	12.4902	4.1460	-11.8848	-4.5359	12.5273	17.4819	7.9243	4.9895	0.0468	-0.2665	-2.4893	-5.2262
3664.0535	35.6958	17.3079	33.2784	15.9508	34.2570	17.2746	32.2816	9.0960	16.1320	23.0094	14.9983	10.3452	0.5669	7.2604	7.0272	6.7105
3672.0536	23.5770	10.1817	28.5235	4.0241	18.6930	7.0274	0.5254	-21.2447	19.3693	30.5287	23.9889	15.3431	0.0278	6.8707	18.6739	9.7888
3680.0538	9.6534	1.5807	14.1130	-3.9267	-8.9313	-5.1414	-39.0127	-11.4148	7.6492	20.6776	10.7381	13.8170	3.8771	-5.1274	0.8098	-6.9211
3688.0539	7.5871	-5.1103	11.1439	-5.2515	-2.1414	-8.9076	2.6091	14.2050	-0.7800	12.4721	-1.6805	3.7300	5.2784	-4.7848	-10.1264	-8.3670
3696.0540	16.4677	-0.1385	17.5253	0.2962	14.4121	-2.2346	34.3328	11.4540	1.5875	11.3593	-4.1105	0.0780	3.0002	-1.0171	2.3492	-2.5122
3704.0541	34.3024	20.0714	33.3694	19.2860	26.3284	20.4452	39.6119	27.6460	14.0870	29.0824	14.7103	18.7539	1.9522	12.4067	23.9532	14.9118
3712.0542	29.3344	20.8926	34.5916	21.5580	19.0355	16.5237	22.9122	12.8878	17.9794	36.1100	26.4071	28.1905	1.7404	12.7893	27.8371	21.8697
3720.0543	24.4230	14.5492	26.6352	14.7732	3.0151	8.8222	8.7574	2.4300	12.5206	27.1682	20.3215	24.1945	3.6070	0.3575	17.8055	9.8737
3728.0545	29.9998	17.0830	29.7462	17.4773	0.7197	17.7174	25.2133	32.9921	14.4051	32.7070	25.3914	23.1583	3.6873	8.4465	20.7210	15.9000
3736.0546	22.8667	12.4850	25.6992	7.8691	-2.5150	7.9199	-4.4551	-3.7172	14.9082	27.3641	23.5585	25.4267	3.4432	10.1461	16.0923	15.9849
3744.0547	28.6151	12.5892	26.1889	2.8123	5.4292	9.1233	-22.2837	-27.3148	12.1192	17.5320	15.5006	24.3893	5.3716	-3.2356	0.0429	0.5900
3752.0548	31.9612	17.8471	34.5211	14.6901	16.2044	12.7483	17.3198	21.3071	12.4765	21.7758	20.0633	26.6206	6.7189	0.8852	5.7110	7.7860
3760.0549	13.2873	10.5945	22.5284	7.8110	0.6231	-7.8980	5.8312	9.8974	10.1511	12.0831	17.3703	29.2956	7.2717	8.2054	11.7856	15.7348
3768.0550	6.5209	0.9509	15.7573	-1.3854	-7.8358	-7.4317	-12.0305	-13.7145	2.0920	1.1889	5.1265	10.0865	3.3096	-2.7915	-2.6990	2.2852
3776.0552	0.3357	-3.8719	23.0191	2.2773	-5.2146	-2.4439	-4.0046	-8.0590	-5.9984	5.0330	-1.7480	1.3144	0.4683	-12.5670	-5.8722	-5.5413
3784.0553	-22.6688	-13.3851	16.8260	-5.4101	-14.5224	-15.6997	-22.1789	-28.5915	-12.0887	-2.2192	-6.1641	3.6217	0.0771	-14.6080	-3.5965	-7.9173
3792.0554	-48.3477	-24.2492	13.4833	-8.9491	-17.2335	-14.9794	-17.2121	-13.1806	-24.5932	-23.5641	-17.7603	-16.6768	-5.4225	-14.8185	-14.1316	-14.7074
3800.0555	-74.0539	-33.4678	15.8073	-9.7014	-11.3397	-10.5426	-0.6193	8.0199	-35.9725	-34.7149	-30.0800	-32.9632	-12.3172	-2.7711	-11.7809	-11.1531
3808.0556	-89.7125	-39.4814	13.2221	-12.4917	-2.5539	-10.9147	3.0371	-3.9228	-38.0065	-33.8854	-31.6197	-42.1162	-18.3744	4.2848	-1.8902	-3.3759
3816.0557	-93.5371	-38.6381	15.1319	-7.5983	1.5541	-10.3468	14.3009	8.0603	-41.6154	-36.4764	-29.4727	-41.9965	-18.2448	-3.4970	-0.7797	-0.8828
3824.0559	-100.7245	-45.1334	9.3193	-18.8999	-8.6791	-21.0750	6.0343	3.2023	-46.3388	-43.1857	-32.8662	-37.9017	-14.1342	-9.3382	-1.5154	-3.2937
3832.0560	-102.6006	-50.3611	3.3923	-24.6055	-4.8858	-26.2674	3.7810	-7.9876	-48.6382	-49.1857	-38.5731	-51.0204	-15.8291	-18.9160	-7.8604	-11.4654
3840.0561	-94.0083	-42.1083	8.6057	-13.2566	4.1131	-20.0067	8.1530	0.6988	-44.9892	-44.5255	-32.9049	-50.9457	-17.6144	-19.6841	-5.7171	-5.5743
3848.0562	-94.6931	-46.0394	-0.3185	-23.5436	-16.2653	-32.0092	-19.8594	-23.0657	-41.1669	-42.9660	-28.7766	-44.6640	-14.9677	-17.7440	-6.7567	-4.4931
3856.0563	-86.9458	-49.0022	-5.8804	-31.6729	-25.0108	-41.7700	-27.8704	-32.1603	-45.7134	-59.0314	-41.6668	-43.8317	-8.0169	-33.1973	-28.1523	-26.8539
3864.0564	-50.1187	-29.6052	10.9857	-18.2564	-8.4138	-23.1548	-14.1165	-20.2587	-32.5016	-48.1715	-32.4633	-32.4892	-5.0358	-28.8197	-27.0725	-25.7021
3872.0566	-24.6792	-16.0207	18.9253	-8.0813	-11.2835	-14.9012	-28.8467	-32.4845	-10.2139	-19.2794	-6.1648	-20.1393	-5.9778	-16.6075	-17.3766	-15.4929
3880.0567	-21.0419	-13.1533	20.8691	-4.4270	-15.6872	-18.7223	-33.4104	-23.2489	-9.4939	-20.0248	-6.0720	-10.1282	-1.3817	-19.7006	-26.2989	-23.7948
3888.0568	-14.3974	-10.6064	26.9728	-4.4671	-9.0289	-12.5598	-15.1065	-11.4200	-8.4867	-22.7402	-12.2641	-14.0792	-2.6544	-5.1749	-19.7305	-17.6238
3896.0569	-10.4318	-10.9556	21.7471	-6.1592	-14.8279	-16.0135	-23.3828	-33.4074	-3.2541	-17.5878	-13.8048	-16.5095	-4.8906	4.0436	-14.8263	-14.9190
3904.0570	-5.9328	-9.5786	17.8330	-5.6586	-12.3516	-19.8011	-33.0710	-36.2429	-4.7438	-15.9732	-17.6296	-10.3672	-1.1754	-4.8854	-23.5720	-22.8154
3912.0571	-2.0191	-8.7584	23.8403	-3.1197	1.3699	-16.5479	1.2152	3.3757	-7.4412	-15.9124	-20.0197	-17.9349	-1.2147	-1.4759	-19.8913	-15.2706
3920.0573	0.4626	-3.0266	33.5501	5.0922	10.6071	-11.8427	34.8016	39.8272	-7.9572	-20.5933	-22.2967	-19.2192	-2.1293	11.9869	-7.2919	-2.3534
3928.0574	11.7888	9.9004	44.1305	17.7171	14.0377	1.4691	33.5261	39.4096	4.1670	-9.5182	-7.2939	-14.5358	-6.9195	28.1634	11.2772	15.3683
3936.0575	12.3712	11.2212	42.9028	16.8209	3.7211	-0.0334	28.1389	36.0668	8.5120	-4.9556	5.2785	-6.0665	-5.2772	28.3161	16.6551	22.9450
3944.0576	12.0368	10.0477	43.3486	9.0668	5.5481	-3.2017	27.0424	38.1350	2.5923	-17.8393	1.4576	2.4958	1.1801	16.2101	8.7046	16.1007
3952.0577	23.2037	17.5041	51.8302	16.7113	15.8422	6.3356	21.2813	22.8524	13.5067	-8.5700	14.6138	-3.1879	-4.4430	18.4924	13.8764	21.3179
3960.0578	15.0279	12.1543	41.6771	11.9096	4.6305	-4.6308	9.9606	13.0837	14.4284	-9.3625	18.9379	-1.9477	-3.2417	15.2615	8.7470	18.8668
3968.0580	2.7110	0.0228	26.5104	-7.4428	-0.4537	-16.0635	-7.5610	-2.5111	2.9666	-30.0290	4.6731	-9.4215	0.3171	-1.4964	-7.3521	3.7937
3976.0581	6.2148	-1.2804	23.2916	-10.7801	1.1521	-15.9459	-12.3763	-21.7408	3.9752	-33.0083	5.4592	-16.8712	-0.7378	-15.1803	-9.4898	-5.4518
3984.0582	9.4774	0.8387	19.6964	-9.3838	0.8890	-16.8924	-10.0375	-15.8782	2.8663	-31.5212	2.7807	-7.1800	4.0136	-22.9672	-10.6238	-15.3157
3992.0583	12.2143	5.6429	18.3064	-0.9530	5.7715	-5.3554	-21.1170	-14.5403	1.4341	-21.8460	-1.1218	-6.4228	1.2697	-19.6523	-11.3043	-13.8774
4000.0584	14.0815	9.8922	15.9620	8.1451	-3.8533	5.1266	-24.7333	-11.0314	4.4107	-3.6049	6.7169	4.2465	-0.0198	-6.7278	-6.8518	-1.4261
4008.0585	16.4552	12.4059	9.9467	6.7136	-3.8807	13.9390	-25.6546	-4.7103	7.0228	1.9165	7.3429	10.7995	0.5522	8.6223	-4.9048	4.7647
4016.0587	15.4130	16.9753	5.2450	13.9959	9.5485	20.7153	-15.6418	-5.9766	8.6608	0.7890	6.1625	9.3693	-2.5740	15.4942	-1.4108	9.3322
4024.0588	10.5672	17.4876	-0.4019	18.5086	6.6381	14.9540	23.3013	16.3535	6.3254	-2.3036	7.5045	18.3605	1.1480	16.8553	12.0600	17.7694
4032.0589	12.1127	17.2079	-11.2953	11.1015	-2.9851	13.7663	-11.8821	-1.6976	8.8274	-5.1900	4.5098	8.2476	-2.1667	18.7253	14.8073	17.5148
4040.0590	1.8477	4.8953	-34.6029	-8.6079	-18.9000	3.9119	-84.2487	-48.4218	1.3499	-15.6957	-8.7080	-0.2763	-1.1191	1.3028	-20.0864	-7.7736
4048.0591	-0.4427	-7.7008	-37.6998	-19.2445	-6.3691	3.6904	-14.4766	0.0111	-10.6873	-19.6541	-18.4357	-6.1105	5.9610	-7.8425	-32.9705	-17.0297
4056.0592	23.7129	12.0162	-11.0251	5.2871	27.4990	30.8400	68.3595	60.2347	5.8792	7.4084	3.2822	-3.3073	0.4510	22.8044	10.7253	19.0753
4064.0594	18.1846	17.8724	-15.5849	6.1647	11.8859	22.1278	28.4183	31.9252	14.4333	15.1461	16.1296	24.3418	3.5601	34.6266	24.4321	31.1760
4072.0595	1.5011	1.4102	-30.8032	-12.2616	-1.2352	1.5483	8.4929	5.7000	0.9885	-6.0209	-1.5983	15.2154	7.3458	10.7971	3.7648	7.4840
4080.0596	20.7456	15.4097	-9.1835	7.1069	17.8885	21.4824	25.0512	24.4694	8.0729	2.2500	4.1968	3.6521	0.4045	11.6979	13.7063	10.9874
4088.0597	26.9183	25.2233	3.0121	16.2091	14.0749	25.8889	16.4375	27.8729	18.8927	19.5996	20.2071	25.5038	1.7065	29.6891	28.0924	26.0754
4096.0598	9.8352	11.0061	-6.5715	0.7659	1.6455	3.3486	2.8262	-4.6302	11.9608	12.8740	11.1483	29.1934	5.3985	21.0922	23.6055	17.2038
4104.0599	7.1112	8.1433	-8.3896	-1.0797	-12.8819	0.1320	-22.6731	-21.0128	5.0332	4.3160	1.5386	25.5611	5.7860	6.1242	14.4355	3.0490
4112.0601	14.3881	13.6126	-3.2563	8.6307	-18.3766	13.3052	-22.6083	0.5098	5.2141	7.3826	3.2621	21.8563	3.5204	11.7583	7.4752	5.6499
4120.0602	19.4366	18.9571	3.3122	15.5503	-2.1568	16.7422	-3.4600	11.5139	12.2957	15.6408	11.7518	21.7703	0.9253	23.8173	16.7779	19.7507
4128.0603	15.2394	14.8103	-1.8795	5.9775	-7.0554	5.1790	-16.1177	-5.7315	14.4014	13.9189	13.6901	24.0951	2.7694	19.9400	21.8899	17.3464
4136.0604	3.6886	-0.0458	-16.8877	-7.2460	-17.6437	-7.2373	-14.4106	-21.0799	2.0134	1.0469	-0.5974	14.1422	5.9734	-4.6119	4.6929	-5.3467
4144.0605	-4.8803	-7.2882	-26.3756	-13.3684	-17.2245	-14.2544	-7.6608	-23.9405	-6.3809	-8.6558	-9.1714	8.9299	7.9708	-20.8545	-1.7591	-16.4757
4152.0606	-10.3716	-8.9664	-35.3914	-15.3552	-27.0902	-17.6988	-22.9880	-25.9461	-4.6370	-16.0796	-9.5094	-5.8841	3.1052	-17.8901	1.1414	-15.4998
4160.0608	-7.9202	-5.0842	-36.9927	-3.9534	-17.5252	-10.2378	-2.1531	-9.2614	-4.9700	-18.5616	-13.1580	-15.1612	-0.3687	-14.9335	-3.4261	-16.5285
4168.0609	3.1299	7.7015	-27.9584	8.5563	8.2469	7.8129	23.4955	17.5955	1.9524	-5.0931	-6.6198	-4.5196	-1.1201	3.1508	10.3508	-2.1104
4176.0610	2.9281	10.1909	-37.5358	5.2978	6.3556	10.8057	1.9226	1.3943	11.7476	5.6681	2.0993	-1.7567	-4.3910	20.9958	21.6323	9.4299
4184.0611	-7.7552	-0.4813	-62.0905	-5.3242	-4.0390	-3.2160	-0.5597	-10.6611	3.2738	-2.7260	-7.5347	3.0358	2.3027	5.7468	1.9602	-7.0742
4192.0612	-2.1498	0.0828	-66.3573	-3.4564	10.9828	2.5538	24.2661	8.2987	-0.4126	0.6281	-12.1782	-2.2645	3.1084	-2.2909	1.0980	-9.3473
4200.0613	4.5607	2.7089	-67.5765	-1.6128	11.2761	9.9412	8.1967	-14.4759	7.0052	19.7642	-1.0694	-5.4871	-1.9008	-2.0869	12.6934	-0.8658
4208.0615	-5.8133	-9.6388	-80.8646	-14.7732	-19.4240	-2.1753	-11.8830	-21.7114	-2.6935	17.2124	-2.6530	5.6528	6.6996	-21.1319	-8.3142	-16.3740
4216.0616	1.9761	-2.1501	-69.2736	-5.0200	-15.7522	10.8112	5.7472	28.8163	-3.7997	11.7442	-1.4039	0.9617	6.1301	-12.5341	-13.9345	-9.9107
4224.0617	18.8920	18.3664	-48.0655	14.1321	6.6068	31.3282	14.1173	34.5588	14.2859	27.7436	20.9439	14.4195	0.8004	18.3718	7.2777	21.3042
4232.0618	11.6318	11.7124	-50.3743	6.8093	1.3735	22.4729	9.2374	4.1557	13.5580	33.9035	27.4308	28.3410	4.6678	10.8450	5.2618	21.1431
4240.0619	5.0570	5.7486	-49.6009	6.9054	0.8044	16.0913	2.9371	5.3086	3.4999	26.3167	16.6283	14.6660	3.4242	-10.4614	-5.1770	7.2859
4248.0620	5.5818	7.7412	-42.3393	9.5485	-2.3247	14.7098	-11.2896	6.2332	2.9286	26.2288	13.4910	17.0082	3.2243	-6.8204	-6.2104	7.4411
4256.0622	1.8981	-2.8275	-41.7843	-3.7478	-12.4043	6.9482	-12.7554	-13.3237	0.5685	27.1244	8.9489	14.3977	4.3647	-6.1675	-9.8151	3.2368
4264.0623	2.1500	-5.7144	-36.6314	-7.2402	-3.0541	4.4191	-3.8842	-14.1168	-2.5605	20.1677	2.9768	6.6803	4.5799	-17.0511	-12.3771	-7.0779
4272.0624	3.2355	-0.5854	-28.6903	-0.0352	5.5467	5.3277	6.8838	6.1125	-1.9081	15.3762	2.4661	8.1035	4.9098	-14.8861	-9.8423	-7.3421
4280.0625	2.9073	0.3530	-25.0918	4.5769	4.4548	4.1518	6.6533	3.4578	1.5258	20.0440	3.5468	1.2000	0.1313	-4.8023	-1.8042	1.2744
4288.0626	-2.1348	-2.6760	-26.4136	-1.8601	1.9137	-2.0315	-7.3867	-6.0671	-0.2748	19.6243	-0.0403	6.3723	1.7562	-2.0491	-0.8527	2.3011
4296.0627	-2.5678	-6.3281	-19.6878	-5.1060	13.0816	3.4274	11.2377	11.5784	-8.0170	16.8559	-9.5756	1.2398	2.7514	-6.0984	-6.0768	-3.0464
4304.0629	11.0251	2.7974	-1.1359	9.6877	32.4530	21.3169	38.1102	22.7830	-2.5033	31.1045	-4.4760	-4.3632	-3.0961	1.0035	7.4491	5.9019
4312.0630	10.9155	7.8227	1.5995	11.3928	21.4871	16.9430	19.0047	4.3053	7.4243	41.4019	8.3027	17.2665	-1.0353	16.3621	20.2180	16.8666
4320.0631	-4.3613	-5.5125	-10.7341	-1.9132	4.2652	-2.2799	-7.1125	-19.0965	-0.7240	28.2106	-1.3838	9.8824	0.8344	-0.6421	4.4343	-0.4653
4328.0632	-9.3470	-11.6692	-13.3031	-3.5911	4.3692	-5.4145	-2.9910	-12.7175	-12.0977	13.0948	-14.7101	-4.0127	1.2131	-21.3606	-13.0546	-17.9952
4336.0633	-3.8961	-5.7147	-4.7425	0.3811	3.3174	4.5325	11.3940	14.3543	-11.2534	13.9338	-11.4225	6.5897	3.3664	-4.6111	-9.4468	-4.5507
4344.0635	-0.7968	-3.7004	-0.3000	1.3254	4.2815	4.2671	0.1137	15.3749	-7.2721	23.2415	-5.3459	5.7127	1.5333	-1.2029	-2.9429	3.2438
4352.0636	-9.4138	-10.1258	-7.8130	-4.3335	2.3117	-9.5069	-23.8371	-3.8693	-9.8180	20.4189	-8.0487	1.6376	2.0727	-16.5127	-12.6478	-8.8845
4360.0637	-11.1922	-12.6379	-2.6604	-4.1464	9.8797	-5.3461	-9.0997	-6.3663	-15.0309	10.3264	-16.7745	-7.0240	-0.0018	-16.6841	-20.3555	-12.1260
4368.0638	-0.8436	-2.3570	16.4916	8.9047	24.5222	12.3522	28.9961	12.3501	-11.3829	17.3638	-9.3736	-0.7794	-1.6710	-9.1829	-0.4989	0.0652
4376.0639	-2.9466	1.5820	15.9756	9.1517	11.5028	12.4156	32.2760	19.0036	-4.1544	27.6246	4.9839	21.1491	1.9513	6.3731	19.6714	14.6403
4384.0640	-7.1224	-3.7181	8.4751	3.2965	-2.4033	8.4335	-0.7116	-0.5781	-6.5543	22.6223	-4.0474	9.7538	-1.4159	9.5902	7.4545	9.3296
4392.0642	-6.1708	-3.6710	13.3487	6.8321	1.1626	13.8306	-7.9485	-0.3862	-10.2337	20.4978	-9.9002	2.8941	-3.1432	1.5454	-3.0381	-1.7847
4400.0643	-8.4961	-2.9525	17.3025	8.4538	-1.4799	20.2536	14.3007	13.7705	-7.4606	25.0124	-0.2317	7.9885	-3.2975	10.4602	8.5704	7.7155
4408.0644	-2.3980	-1.5211	16.9883	10.5964	-7.2039	23.4781	8.9760	8.6594	-5.3798	26.6348	-0.3344	-0.5809	-6.8458	15.3097	8.0822	13.0357
4416.0645	3.0762	1.0084	19.7987	9.7400	-2.0439	19.8495	6.8856	15.4029	-1.7913	29.7753	3.0261	4.8731	-4.1259	15.8690	7.8028	13.3334
4424.0646	-1.8148	2.3189	29.6213	7.7821	13.9380	15.2799	24.8318	27.2056	2.0188	21.7913	9.4026	1.2740	-5.3045	16.6684	24.9988	18.4479
4432.0647	-6.4496	2.5207	30.5213	7.1454	15.1453	11.6617	17.6928	17.9517	-1.0971	3.1498	2.4940	-7.4788	-7.1691	8.5591	24.7589	11.0526
4440.0649	-12.3736	-5.1916	18.0033	-4.9733	2.8429	-0.4953	10.8993	5.9780	-1.7011	-4.0156	-0.5866	-4.2834	-2.9954	8.9185	15.0145	3.1730
4448.0650	-19.1831	-11.0405	12.8130	-12.7747	-0.3082	-13.0260	11.9308	2.8009	-0.6558	-15.3811	-0.0252	-11.6060	-2.3223	3.7786	11.4585	-4.4676
4456.0651	-25.4045	-13.5431	6.5516	-16.6542	-13.0785	-14.8122	-8.6869	-0.7441	-5.2486	-32.1606	-4.3648	-16.5019	-1.9623	-2.4700	-3.2528	-13.4949
4464.0652	-30.5778	-20.5481	-3.2712	-23.5546	-24.8997	-16.1752	-30.9330	-19.0460	-7.8476	-33.6698	-10.1045	-26.0954	-4.9274	2.5009	-17.1349	-14.8725
4472.0653	-24.2621	-17.6568	0.0567	-14.3127	-16.0292	-16.1889	-25.3117	-21.7113	-10.0138	-32.5246	-18.4330	-30.5429	-5.9695	-5.7653	-23.0823	-22.9719
4480.0654	-12.9914	-9.4360	6.2317	-4.0055	-11.4003	-6.8216	0.5152	5.4890	-8.0867	-23.4628	-13.0980	-17.0256	-2.0429	-2.9088	-18.7498	-17.8740
4488.0656	-11.7540	-6.3760	8.1934	-3.8353	-4.1821	-2.8174	10.1312	14.8993	-1.6619	-10.4740	0.6875	-9.5239	-2.3310	7.4855	-3.4374	-0.6590
4496.0657	-13.4024	-4.9975	6.9988	-6.1589	12.4750	-1.4870	16.2479	11.9557	-5.2579	-13.1601	-1.3595	-0.7911	1.1534	-3.0738	-0.2490	-3.5509
4504.0658	-8.9400	-2.8346	7.1949	-3.3399	15.9414	8.6375	25.8123	13.7189	-3.6975	-7.2250	1.7783	-3.5255	-1.2933	1.2424	3.7700	2.7976
4512.0659	-6.2705	4.0048	11.0248	6.9361	10.0246	10.3404	7.9445	8.4136	6.6032	1.0111	16.6887	-8.6450	-8.1316	12.3809	13.2790	18.9043
4520.0660	-9.2006	-0.7436	0.4731	-1.5671	1.2546	3.0960	0.1624	5.4124	3.0207	-6.4892	15.3335	-6.5395	-3.8631	2.7242	2.3865	12.5498
4528.0661	-7.4759	-7.8340	-9.7683	-8.1108	-3.3049	2.9935	12.2057	1.9069	-3.1536	-7.8492	7.3752	-14.0370	-2.1931	-8.8417	-8.2311	2.5187
4536.0663	-1.8045	0.1518	-2.6534	1.6346	4.3808	5.6544	14.2793	0.3173	-1.0814	-3.0615	10.2715	-0.1085	0.1991	-12.8526	-2.7984	1.9151
4544.0664	-2.4498	-5.1101	-3.2745	-7.8129	-2.0839	1.6145	4.4237	-8.0300	-0.3680	2.5214	9.7508	1.7766	1.8832	-10.9596	-3.4239	-1.4806
4552.0665	-5.7332	-13.5805	-8.4476	-12.5316	-17.5666	-5.3114	-18.4557	-23.7859	-3.4269	3.3737	-0.0080	-15.1077	-2.0267	-13.8799	-15.2591	-12.0756
4560.0666	-6.5824	-7.6558	-1.8356	-2.8764	-7.3352	-5.4635	-13.1472	-15.9640	-4.7221	-2.2248	-2.8759	-7.3420	-0.8093	-13.3848	-16.7304	-12.5169
4568.0667	-5.0216	-5.3463	6.3078	-1.7702	-0.6838	-4.4570	-15.2333	-21.6104	1.2435	-0.4968	2.4829	-13.0577	-5.0115	-5.0963	-7.5707	-4.9182
4576.0668	-6.7215	-8.9476	3.1872	-7.7411	-16.9407	-12.3660	-53.6548	-38.7364	-1.3834	-6.2162	-3.5196	-16.6575	-4.3096	-14.4096	-19.3513	-17.6262
4584.0670	-16.1855	-18.8759	-5.9936	-17.2807	-20.9400	-18.1497	-34.1752	-13.1505	-13.6991	-13.3822	-15.9352	-14.0080	2.1514	-19.2320	-32.8892	-25.3411
4592.0671	-12.8119	-13.5603	4.2782	-3.1148	-9.2794	-5.1356	-12.4427	-1.7730	-9.7135	0.0920	-11.9473	-23.2346	-6.0883	-3.6866	-19.0465	-9.0446
4600.0672	-2.0854	-0.6213	18.0902	11.7649	1.1307	5.8773	-31.0596	-20.2671	-1.4861	11.7956	-4.6118	-14.9079	-9.9592	1.7728	-10.0412	-2.5928
4608.0673	-11.8434	-15.3279	7.4954	-4.7982	0.6808	-11.6992	0.8546	-14.9294	-9.1333	7.5307	-12.7920	-17.0992	-4.2270	-7.3616	-10.4473	-8.3628
4616.0674	-19.6954	-21.7053	-0.0557	-11.4158	-5.8254	-22.5600	24.9599	-9.2755	-16.6377	-2.6662	-17.4952	-15.6350	0.3737	-22.8946	-2.3135	-13.0827
4624.0675	-16.5740	-10.9131	3.1737	-3.6188	-3.5233	-11.4709	10.3642	-5.4721	-14.2309	-4.3640	-9.8131	-1.6991	1.9428	-25.7687	3.4805	-11.7840
4632.0677	-12.2111	-5.2392	8.8435	6.0256	-5.3663	-6.3339	9.7495	7.8254	-7.4162	3.6813	-5.3099	-2.4299	-1.7836	-5.1055	5.7653	-1.2058
4640.0678	2.4445	4.8173	22.3533	13.7565	-9.8042	0.1102	-1.1294	-5.4908	0.4709	6.2146	-0.9441	7.5969	-1.8383	6.0177	8.6471	3.4806
4648.0679	2.3201	3.1556	25.2629	6.9170	-3.6118	-3.2192	-8.0711	-18.2535	3.5150	4.5670	5.2654	7.0863	-1.0936	-2.4978	9.5656	-1.0741
4656.0680	-6.3861	-2.0231	21.4614	2.5824	2.4039	-14.4321	4.2166	2.4413	1.5856	-2.0807	1.5558	0.4540	-0.2127	-1.5589	7.6076	-3.6089
4664.0681	2.0219	0.9724	19.8806	-1.2247	3.5798	-7.7487	2.3017	-1.5557	3.3227	-10.3781	-4.3694	-0.4037	0.4240	7.0319	3.0180	-6.1209
4672.0682	0.1481	-5.1710	10.4174	-7.6370	-6.8982	-13.5803	-17.8402	-27.4486	6.3746	-9.7102	-3.0716	-12.5593	-2.6820	1.6979	-4.7335	-14.9555
4680.0684	-2.5706	-6.3547	11.1747	-8.2558	-11.8986	-25.7111	-19.2769	-15.7663	6.5355	-14.5522	-1.7508	-8.5889	1.0334	-2.8696	-9.4600	-20.1204
4688.0685	3.1376	-7.3459	15.8151	-19.1904	-1.0893	-27.1327	-1.2332	-18.9888	4.6547	-27.3729	-5.4537	-7.7919	5.0754	-9.9671	-5.0314	-22.3067
4696.0686	-6.8317	-18.2598	6.4644	-35.4445	-9.3932	-39.0521	-19.3846	-46.4654	-3.2736	-37.3057	-12.2463	-11.4242	7.9558	-33.0011	-9.0855	-36.9207
4704.0687	-12.0315	-17.2836	8.0365	-34.0854	-17.1341	-35.6543	-30.6497	-21.1593	-5.5820	-43.2667	-13.3213	-12.8467	7.6600	-26.1681	-14.4717	-36.9733
4712.0688	-2.8294	-6.4307	20.5472	-15.9745	-5.7983	-21.2159	-2.6317	1.7620	3.1816	-39.5150	-4.8014	-23.3808	-0.4862	-5.3430	-3.2435	-18.6426
4720.0689	5.5165	-0.8232	24.7259	-7.5792	-7.3478	-19.9632	-0.6913	-11.4035	6.4255	-30.0082	4.3951	-9.8441	2.2786	-16.6603	-0.7386	-19.1959
4728.0691	8.4938	2.8041	27.1587	-6.1318	-8.9701	-11.4251	-7.7402	2.6336	7.2692	-26.1470	6.6468	-3.6103	3.1870	-7.5815	-3.0439	-14.8523
4736.0692	12.2944	14.1326	32.8608	10.5048	-2.5295	3.6596	-13.8801	15.5123	12.5555	-20.2410	6.0580	-5.4763	-4.3721	23.0641	2.3221	4.4070
4744.0693	28.6013	25.3917	38.7401	22.0066	2.8783	19.3203	-10.1859	18.2024	19.9743	-0.4727	17.1804	11.5150	-3.0470	32.8202	5.3200	15.6075
4752.0694	30.9083	24.7685	34.8365	17.0328	7.8665	20.8970	9.4338	19.1519	27.0329	9.5420	32.0049	16.7366	-1.9169	37.5929	16.3583	26.9523
4760.0695	11.1738	14.7142	14.6634	1.9058	-8.1512	0.4445	-35.5107	-19.9316	21.0530	-5.8002	24.9036	17.5342	-0.0824	25.3047	9.5537	17.7318
4768.0696	3.4414	2.7829	-2.5987	-8.9084	-19.8220	-8.5409	-55.0556	-27.3774	8.4744	-17.4264	9.3001	3.4856	1.8256	2.1328	-17.0342	-4.1576
4776.0698	5.8280	4.5902	-0.9521	1.2715	2.1019	-2.1730	14.8154	18.6423	6.4022	-18.4537	8.6213	-5.7555	0.6391	5.9655	-10.1075	4.7557
4784.0699	4.9446	11.1518	2.3077	7.3050	9.8761	2.5589	31.3468	26.4460	8.1789	-15.9723	12.1022	6.9272	1.2188	17.2077	8.7924	19.7324
4792.0700	-1.4832	4.0783	-7.3442	2.2940	-8.4794	-0.9382	14.0982	15.7339	3.2823	-13.1652	9.6163	-0.4795	-0.6163	11.3674	5.7968	19.6197
4800.0701	-4.4262	1.4777	-11.0420	0.2778	-5.6709	-9.6422	18.0862	17.2901	-0.8141	-19.6474	8.2319	-3.6955	0.8951	-1.0608	2.5297	19.2678
4808.0702	5.4925	9.1864	-2.3332	1.6895	13.6974	-5.5523	10.8494	16.9537	4.2453	-16.9917	11.7514	1.5314	1.7586	-1.0594	6.5394	21.4515
4816.0703	4.3970	8.1594	-4.0761	0.2772	8.5031	-1.5051	5.2162	13.3703	3.1445	-11.3669	9.1356	6.5285	2.2431	4.6173	6.9947	21.1088
4824.0705	-3.7554	0.4831	-9.7480	-8.3152	-8.4023	-9.3376	-16.3344	-9.8150	-2.8221	-15.8208	2.2005	9.7261	4.5805	-3.2592	-1.1715	11.0757
4832.0706	7.2130	7.2536	3.3653	4.2161	-2.3735	-4.2967	-20.5107	-8.3237	4.6917	-5.2895	8.8121	3.4781	0.2892	-3.6841	-1.8245	8.5218
4840.0707	16.1543	17.2075	16.9710	14.5367	8.0007	5.0174	-8.5565	0.9203	10.6319	5.4556	16.0044	22.8358	3.0227	6.3674	6.0003	13.7984
4848.0708	7.8946	7.5504	14.3662	-1.5907	4.0573	-8.4140	-32.1555	-38.5661	8.8824	2.8277	11.6357	27.3985	6.1603	-4.1351	2.9628	-0.1356
4856.0709	2.5376	2.1385	12.8079	-0.0123	3.0152	-16.9209	-15.9471	-29.7868	4.9548	-1.5414	5.8131	14.6607	5.0584	-17.5553	2.3020	-12.6104
4864.0710	3.4590	5.8302	15.6829	2.4740	5.3996	-4.9140	19.9628	21.8468	-3.0669	-8.4273	-3.6502	20.1475	8.3397	-3.8383	10.8158	-2.1024
4872.0712	0.8774	3.4387	16.1009	0.0379	6.3432	-6.3456	8.5239	17.9576	0.1602	-0.6143	-6.1071	7.6583	1.5968	15.8668	19.1675	12.0712
4880.0713	2.3049	3.6886	16.2211	4.4467	6.3714	-7.8684	6.4991	2.4515	3.6223	8.0194	-1.8047	4.9073	-1.2299	13.0691	22.9426	13.1414
4888.0714	5.9575	1.4476	14.2004	-5.5258	3.2696	0.6265	16.0743	5.8322	-3.2287	-1.3478	-7.7871	7.5029	3.1822	4.4029	20.3662	6.8324
4896.0715	1.9421	3.3389	12.7472	-2.3101	10.7348	-11.4856	22.3955	25.5588	-0.8804	-6.8765	-10.0178	4.6855	3.1236	10.4130	26.3883	9.7267
4904.0716	2.1385	7.3798	5.0366	0.3757	17.1476	-14.4945	13.5419	32.5551	-1.9505	-10.4367	-13.4798	9.0902	5.4220	5.1114	24.4959	6.1870
4912.0717	6.9952	3.8978	-11.2882	-3.0291	8.1856	4.3897	-8.1705	-0.3882	-6.6552	-6.3280	-19.7162	-7.0891	-0.1271	-7.9650	11.7356	-5.0489
4920.0719	10.9604	13.1184	-12.7991	15.9993	10.8598	8.3012	10.2341	0.8004	5.4920	10.7952	-6.7432	3.0635	-2.9458	8.4666	23.3168	4.9307
4928.0720	22.1041	20.3601	-5.1890	20.7041	20.5389	9.6322	25.8997	19.2083	12.9687	21.3278	-0.2559	18.3590	1.4057	19.9075	28.9823	10.5036
4936.0721	25.2479	17.3988	-8.3098	17.5870	19.6546	23.0059	16.2346	9.5790	5.3534	28.2750	-4.5600	16.1716	1.6842	3.3937	18.9630	0.7502
4944.0722	9.9548	16.3350	-14.9063	15.9736	12.6472	30.0432	6.1717	6.7920	-0.3445	21.8837	-2.7180	28.1558	3.1931	2.4542	20.2107	0.7413
4952.0723	1.2396	9.4542	-15.4999	10.9450	4.7638	23.6541	-17.8293	-5.8803	-0.8072	8.4685	-12.3440	2.0511	-5.2566	14.1000	9.4563	-1.2548
4960.0724	6.1332	9.8679	-8.4533	21.4517	16.0283	17.3731	-1.7918	-11.4419	2.1920	17.2585	-14.7518	-4.9630	-8.5700	16.2433	5.3260	-0.9076
4968.0726	5.9011	7.9290	-7.6974	13.2665	21.6556	15.4653	27.7124	-1.2571	0.5580	22.6442	-6.2517	17.4664	0.9894	7.4306	15.3157	1.5899
4976.0727	6.8826	2.4442	-9.6733	5.6507	4.0336	13.5386	7.6440	6.9035	-4.5582	17.6459	-8.9984	2.4175	0.0597	-3.8488	5.8237	-3.5667
4984.0728	14.5907	11.2710	-1.0371	18.8261	2.7946	17.6134	2.2774	21.7852	0.4168	23.4505	-2.4359	7.9135	-0.6772	4.1182	3.1466	3.0454
4992.0729	13.2625	8.8950	-1.7184	14.2092	1.3281	16.7373	12.1945	1.2933	5.8056	25.5671	8.4046	12.3547	-0.3910	4.5444	8.7218	5.8169
5000.0730	10.2466	3.6312	-6.8970	11.0305	-10.1813	12.4707	9.5526	-7.9690	2.2529	22.4449	8.7405	5.7163	-0.5777	-9.3370	4.1384	0.1163
5008.0731	4.4101	0.9331	-8.8925	3.6405	-14.6940	7.5623	7.8324	22.0683	-5.2809	8.9973	1.7824	7.4486	4.1475	-10.2316	-2.1513	-1.1346
5016.0733	-3.3610	-7.3797	-12.1602	-3.6284	-20.5529	-9.3369	2.0449	18.0733	-9.3793	-10.6904	-9.1808	-14.8821	1.0023	-14.2470	-11.3883	-7.0762
5024.0734	5.8184	3.8943	1.7045	12.7914	-9.1403	-9.2355	5.4524	13.1692	1.1130	-2.8007	0.9948	-8.3374	-1.8175	-4.1779	-3.6160	4.2056
5032.0735	2.0630	4.8622	4.7139	7.6442	-4.9959	-2.6575	-4.2810	5.8051	4.4827	4.4837	8.2512	7.0769	-0.0370	7.7406	1.9884	10.7230
5040.0736	-9.1645	-5.2327	-5.2398	-2.1946	-13.1529	-3.9722	-20.7578	-18.6482	-5.1093	-8.4063	-5.9094	-5.1943	-1.9228	-2.6069	-12.0640	-4.5596
5048.0737	4.0271	5.8503	8.1188	7.5918	4.5863	14.7073	-7.8196	-19.1803	2.8675	-3.0537	4.0914	-1.6912	-4.8089	5.4773	-5.4916	3.5425
5056.0739	2.3861	3.4167	8.7348	4.0218	0.2056	14.7889	-0.6018	-15.1287	5.2485	5.9799	18.6211	3.7639	-2.8322	-2.1722	0.6938	7.1440
5064.0740	-7.3500	-1.5971	-1.9808	4.9932	-13.8364	-1.0114	-0.0881	0.2249	-2.7147	0.5500	11.2472	5.9312	1.2213	-12.6793	-5.5729	1.3332
5072.0741	2.1815	6.4089	3.1839	11.1616	3.4761	5.3298	2.1985	-6.3198	5.9148	-0.2873	6.8626	2.8418	-3.1897	12.9585	-4.3750	9.2225
5080.0742	3.7273	2.1069	1.5783	6.4688	2.0041	5.5001	-2.1538	-16.8309	5.4350	5.1233	6.9717	-0.5208	-2.9224	4.6556	-10.3175	0.7889
5088.0743	-4.4857	0.6432	-1.3833	6.7321	-4.9345	1.8900	9.6551	29.5384	-0.4993	8.8216	12.5002	9.4402	2.6863	-1.0965	-6.2663	6.1448
5096.0744	-10.2953	0.5029	-2.5911	7.4897	5.2611	1.9314	23.0119	29.9453	0.9083	4.1428	12.0457	5.6756	-0.4488	12.6048	-1.7349	16.9297
5104.0746	-3.9912	2.0821	2.4314	15.6862	6.8418	8.9963	33.3567	20.6299	-0.4594	10.6606	9.4802	2.6194	-2.4957	5.1018	-2.8674	11.6051
5112.0747	-1.1631	9.1488	8.3435	22.5370	1.0137	18.5406	39.1931	53.8119	4.3318	21.3438	19.3681	9.9945	-3.2866	23.2796	13.4881	28.9144
5120.0748	-14.4408	-3.0467	-10.0525	1.5563	-6.0319	2.7246	15.5425	22.1699	-4.3311	5.0165	6.9170	8.9211	0.7186	11.2020	3.2675	18.4943
5128.0749	-7.4873	-6.3683	-11.0520	-5.0407	-0.1587	1.5095	-4.1793	-0.0824	-10.6832	3.7663	-3.8453	5.4891	3.7376	-15.3852	-12.8390	-4.0904
5136.0750	3.4536	6.7779	3.2638	11.3487	5.8877	20.5971	2.9760	16.5267	5.4922	21.9515	14.2450	5.2974	-4.1553	15.5750	4.3997	16.5377
5144.0751	1.4997	0.2550	-9.5072	4.5202	-4.9357	22.4115	4.4848	2.0971	0.8268	25.7908	12.1478	5.2045	-2.8163	7.7965	-0.0364	13.4427
5152.0753	3.6269	-10.3833	-19.6432	-7.8746	-15.8701	14.2412	-13.6105	-6.1833	-8.6423	31.9899	0.8454	-1.0690	0.9921	-13.3147	-16.3146	-1.1495
5160.0754	-10.2399	-16.0002	-22.5835	-13.2286	-20.3451	-5.1472	-16.6266	-13.3817	-8.6925	15.6493	-3.2446	-2.3673	1.6615	-6.8383	-19.1789	-2.5625
5168.0755	-12.3615	-14.6358	-14.6959	-15.3749	-2.0329	-1.3564	10.5817	-3.7368	-14.7884	-4.6604	-7.5244	-1.6026	4.6620	-20.2467	-17.6106	-9.4596
5176.0756	1.7261	-4.2919	5.8153	-5.0003	14.7859	17.7463	21.2202	6.6997	-4.6086	14.0440	7.6862	-2.0920	-0.7777	-7.4567	-1.5318	7.2188
5184.0757	-12.1468	-12.5943	-1.5129	-11.5356	-2.5425	-1.3688	5.4315	-16.9671	-4.9315	8.6115	8.3900	1.4775	0.6748	-8.8353	-5.6796	3.5671
5192.0758	-20.3888	-21.5018	-12.1464	-25.3857	-10.1587	-13.9292	-10.4506	-7.6719	-17.8530	-16.5063	-9.4987	-10.3687	4.9641	-30.1310	-24.1341	-17.5294
5200.0760	-13.9631	-14.0792	-8.1246	-20.3071	-2.5995	-5.8221	-13.6256	-0.7285	-7.6286	-10.7423	-2.9477	-12.5945	0.4015	-6.5516	-16.3070	-4.4505
5208.0761	-18.2175	-16.1645	-12.9412	-19.2667	-3.2980	-7.7736	0.6973	-14.0772	-7.8899	-6.9532	1.5437	-1.5041	3.4965	-14.9283	-15.2517	-9.6380
5216.0762	-17.0990	-18.3787	-10.4094	-17.8878	-0.6073	-8.0865	10.3624	7.5686	-19.9684	-12.0793	-8.2699	-4.9346	7.1742	-38.4086	-25.7318	-20.9719
5224.0763	-8.6685	-11.0482	-2.3677	-12.8058	1.9280	-5.1441	5.9662	8.6499	-12.0447	-9.0493	-6.4512	-1.5293	4.5869	-10.7885	-21.1958	-3.1725
5232.0764	-0.4615	-7.9819	-2.5057	-15.7367	2.2883	-1.6884	-12.0869	-15.9303	-1.1728	-1.2155	1.5885	0.4792	2.7885	-0.8816	-19.2481	-2.2439
5240.0765	0.5737	-9.7729	-2.8601	-16.3272	3.1851	-7.0239	-19.7164	-16.8872	-2.0538	3.8455	3.2422	-1.1536	4.3655	-18.9335	-21.9536	-13.5072
5248.0767	-0.3238	-8.5854	-0.7726	-12.1076	2.8516	-8.2255	-14.6749	-23.6842	-3.6314	3.1065	-0.5891	1.5513	4.0848	-19.5669	-16.8075	-13.2673
5256.0768	-0.6533	-8.5794	-5.2897	-10.5157	-3.8226	-3.0572	-49.5451	-53.2425	-1.0699	8.6167	-4.1479	-4.0184	-1.1108	-13.3746	-24.6170	-18.5221
5264.0769	-11.8550	-20.5909	-18.2054	-16.6734	-15.8148	-22.5014	-48.9282	-45.8886	-5.6824	6.7184	-14.5210	-9.8523	1.5429	-14.9645	-42.0873	-32.7633
5272.0770	-4.1064	-20.5336	-12.3858	-13.7248	-11.0060	-27.4710	2.6209	0.0068	-7.7276	-3.9394	-25.8792	-22.5434	3.0711	-11.1748	-36.9820	-36.7121
5280.0771	18.2110	-3.6085	6.2518	0.1938	4.1318	-6.4035	-6.4517	5.0035	3.4770	7.5949	-16.9706	-22.7176	-1.8601	-1.0339	-25.2258	-27.7376
5288.0772	14.7200	-3.5390	7.9757	-0.0672	10.1888	-3.9166	-3.6516	-3.0437	9.5279	24.3723	-4.3401	-8.0015	-1.0596	9.7920	-17.9526	-17.7167
5296.0774	4.5350	-8.8210	1.2650	-4.2149	4.3404	-11.6376	11.9670	-8.3013	6.6370	14.3295	-9.9918	-11.0528	-1.6643	15.3217	-10.6608	-14.3582
5304.0775	-0.2252	-8.6559	-6.8139	-1.8218	-9.6778	-20.1970	-23.2066	-33.7510	-2.4953	-3.4250	-22.3927	-12.6000	-1.0036	-4.1087	-23.7513	-25.4188
5312.0776	-2.0763	-9.0799	-4.5498	4.3112	-5.9062	-16.2208	-3.2776	-13.9636	-8.5529	1.1329	-23.6127	-11.3166	-0.3026	-9.1004	-24.9547	-22.0389
5320.0777	4.6840	-1.8271	6.1362	9.2548	5.0532	-1.7078	24.4081	6.1239	-3.6761	7.3727	-15.7693	-8.5634	-2.7610	8.7180	-4.3155	-1.6024
5328.0778	3.0882	-0.9299	0.7303	0.6070	-4.6448	-5.6706	-4.4728	-4.6650	-5.1260	-4.1186	-12.4663	-1.1381	1.2488	-2.2352	-5.9882	-3.7122
5336.0779	-3.1712	-5.6987	-3.1391	-5.5280	-7.4219	-6.6956	-6.9095	5.3478	-6.1166	-6.1449	-11.5266	-10.0911	-0.4694	-0.0412	-6.7629	-2.5769
5344.0781	-3.4881	-5.1355	2.9066	-3.0136	4.7151	-0.8303	6.3334	-5.0743	-1.8173	-2.5450	-10.7415	-18.6698	-6.5563	11.9755	3.6499	4.6444
5352.0782	-3.6545	-5.6554	4.5789	-3.2242	7.8166	-2.9765	16.4249	-2.2399	-4.2205	-6.2202	-10.3782	-18.7875	-4.5217	-3.9480	6.8490	-3.7472
5360.0783	-1.2198	-4.5641	8.6147	-6.5655	5.7133	5.3999	17.7946	19.6133	-5.6575	-5.7804	-9.0074	-16.3028	-2.5949	-1.8573	8.3788	-3.5057
5368.0784	3.4554	-1.7586	15.2926	-6.1039	7.6250	15.1065	8.2636	9.0318	-5.3023	-6.7174	-8.8232	-11.6415	-2.4999	0.7565	0.9105	-5.4391
5376.0785	11.3235	7.5598	25.2515	8.6439	9.3580	10.7148	9.3197	11.8418	3.9850	-0.6831	2.4341	-5.4163	-3.2496	3.1052	6.0861	-0.2694
5384.0786	16.6354	15.2651	32.2781	14.8891	8.0333	5.5915	-3.6650	4.5663	16.1978	5.7026	13.8494	2.7218	-4.9200	22.0573	16.1207	14.8551
5392.0788	10.6593	8.2723	26.8442	6.6801	4.8261	5.7969	-6.8447	-7.2269	10.2060	-5.7444	7.7131	-4.3507	-4.6302	13.0296	2.2508	3.8407
5400.0789	6.0799	5.0062	23.5898	3.4018	1.5424	4.6664	-4.9108	-2.9491	4.9852	-13.1469	2.8269	-7.9940	-3.6409	4.1496	-0.1905	-3.5185
5408.0790	11.6311	7.7970	29.1404	1.5667	5.4041	9.1027	-20.1273	-27.0216	7.5572	-8.2138	4.1710	-3.3957	-4.3874	3.9298	5.7857	-1.5465
5416.0791	18.2127	10.3269	35.7371	9.3075	13.2372	17.4375	1.3506	-16.6276	8.3841	3.6399	10.1098	-2.5488	-4.6595	-3.3357	8.4506	-2.0428
5424.0792	13.2466	10.8224	35.1051	10.8809	10.7983	8.4187	23.0028	12.3021	9.3132	4.6563	13.9436	6.3348	-1.3355	6.3446	20.6318	9.4968
5432.0793	1.6444	3.7471	26.8545	-0.8963	3.5284	3.5257	17.2972	5.9091	2.1385	-15.1063	6.3509	-2.8039	-1.6363	1.0177	19.1423	6.5421
5440.0795	0.4924	5.9378	24.5169	3.4182	7.5155	15.7830	22.6953	23.1418	-0.7951	-16.1503	8.3790	-8.2693	-3.6384	-4.0938	17.6107	6.1504
5448.0796	5.0575	14.0760	28.0897	8.4096	17.9483	15.2083	21.2103	40.1674	6.3406	-5.1756	13.7934	10.1740	-0.6862	18.3401	24.3593	21.8290
5456.0797	5.6977	11.9415	23.8429	5.5046	6.2444	12.3695	11.0990	25.2999	6.2465	-6.4251	12.2182	14.2926	1.0149	19.3983	16.1457	18.2798
5464.0798	5.8167	9.3219	15.4410	8.3493	-13.9745	14.9845	-3.2179	2.9171	3.1771	0.5678	14.7611	16.5524	1.1160	5.0551	7.4104	11.4065
5472.0799	5.8125	8.6361	15.4906	9.1715	-2.6194	8.8219	-11.6639	-6.7383	1.9165	3.9664	9.9745	15.7520	0.9875	0.4424	2.1636	9.1870
5480.0800	1.4890	1.8758	10.9000	-2.5019	2.1184	0.1394	-13.8753	-8.7724	-1.7501	-4.4030	2.9837	11.8507	4.0959	-9.2106	-5.4859	-3.7583
5488.0802	-5.2165	-8.1098	-3.8006	-18.2603	-17.5094	-8.3622	-33.6004	-29.2962	-7.3141	-12.0219	-3.6592	13.0272	8.6493	-22.4151	-15.6947	-20.4664
5496.0803	-3.3767	-7.6170	-6.0590	-11.8713	-18.7460	-7.8810	-37.7172	-28.4731	-9.4398	-16.1862	-12.6625	1.8612	5.6410	-23.9405	-26.7490	-28.5515
5504.0804	5.1188	-1.2534	1.8633	0.0234	-11.7384	-2.0945	-25.5990	-17.3588	-4.4200	-5.2638	-6.6031	0.4314	2.8170	-18.9749	-21.7577	-21.1169
5512.0805	9.0404	1.3836	10.0417	1.4309	-5.2766	-2.8316	-25.7287	-23.2306	1.4817	6.7431	0.9124	3.6436	1.0783	-11.6812	-8.0654	-8.9677
5520.0806	5.7027	2.7239	10.5514	-0.2422	-4.1391	-3.2982	-36.6469	-22.1181	2.9023	1.9922	-2.5681	4.3928	-0.1268	2.8471	-6.2989	-3.9760
5528.0807	0.5560	-3.4057	2.5963	-10.9325	-9.3742	-4.9300	-25.6690	-26.5712	-2.7381	-8.5985	-7.1209	9.3973	4.7784	-3.6413	-11.8641	-11.7506
5536.0809	5.5931	1.8825	12.7994	-0.3254	8.3340	1.9755	36.3150	19.3351	-2.2861	-12.1396	-2.3308	3.3103	4.1627	-3.8596	3.0311	-3.4441
5544.0810	10.1479	16.5387	19.4188	14.3675	11.1227	15.0995	46.5320	66.6038	6.9644	-5.8408	9.6921	8.7418	0.2166	29.9288	25.5771	27.3582
5552.0811	6.6219	13.0948	9.6989	5.8492	-2.6131	17.8722	8.2834	32.2231	5.0550	-1.0470	10.1778	16.7753	0.9424	29.0657	18.2155	27.6482
5560.0812	12.4173	15.7210	16.5493	12.9336	6.3676	19.2060	20.8447	23.4230	6.5879	3.4529	15.9244	19.1161	1.3415	15.7693	16.2844	23.5066
5568.0813	13.2118	16.0381	10.7966	8.2921	-5.3622	12.4601	4.8926	14.2480	9.1702	5.7656	22.3592	29.9997	4.9159	15.6350	18.3865	28.7549
5576.0814	2.5239	1.2307	-3.2577	-7.4269	-14.0601	3.6762	-8.0585	-6.6137	-3.3744	-1.5399	8.2762	21.0593	7.3454	-6.3970	0.4978	9.4041
5584.0816	-0.1329	3.9069	8.6820	4.0821	7.0722	6.9287	19.8799	16.7681	-2.0579	-2.6943	7.6793	5.3808	1.1794	-6.0893	9.0713	8.2502
5592.0817	-3.2041	5.1980	11.4034	5.9258	5.3292	3.5782	-1.4850	-1.4999	1.7202	-2.5453	10.7954	1.0001	-2.8928	-5.6618	15.0910	9.5650
5600.0818	-4.0765	1.8455	10.3460	4.7061	-0.1724	1.3949	-2.2908	-6.3716	-2.3343	-4.0362	4.9250	3.0438	-0.6300	-11.4754	4.8019	-0.1250
5608.0819	6.7623	13.5326	24.5272	15.2217	5.0763	11.0037	5.4459	7.2893	10.4546	2.2656	15.4223	8.7435	-3.5545	15.0590	18.1135	14.6379
5616.0820	14.5005	19.3322	34.0203	19.3777	9.8958	20.8560	-9.5270	-6.9683	16.5630	5.4836	23.7839	6.2407	-7.2011	14.7946	18.4235	15.7420
5624.0821	11.1362	17.3901	34.7989	19.3523	12.1201	21.6366	9.3073	15.6775	11.7532	5.1326	22.2498	10.3426	-4.3449	15.1316	15.8409	17.7925
5632.0823	4.0953	10.2146	22.6717	5.3929	-7.4740	12.8835	-32.7203	-29.1577	7.2442	-6.2881	7.6224	4.5242	-6.3501	19.8978	12.7904	16.3932
5640.0824	3.2014	3.6633	17.9560	-2.8484	-3.8892	15.2725	-51.2908	-57.3884	-2.2296	-17.6838	-5.6854	-7.6250	-6.0782	-10.7098	-6.1552	-12.4063
5648.0825	-2.0829	5.0887	25.0194	1.3363	19.0762	16.9006	40.1608	39.6241	0.5571	-13.2505	9.2210	3.8114	1.1732	3.0745	11.9190	0.0523
5656.0826	-13.6054	-3.2055	12.6796	-11.4540	1.0396	5.1502	54.5999	44.7789	-2.3412	-26.5373	5.6230	-0.3506	1.9133	16.0510	23.2198	12.9168
5664.0827	-7.7815	-6.0656	3.4281	-18.4838	-11.2329	7.1606	17.2976	16.4931	-13.2514	-40.7350	-10.2017	-13.6923	1.6761	-10.1504	4.6674	-3.5806
5672.0828	8.8193	10.2131	14.2276	-3.5026	6.0839	17.1003	21.1410	48.6594	-0.0635	-28.1112	5.6331	-5.1841	1.0521	6.1570	11.5160	12.5130
5680.0830	12.8546	17.1548	15.9736	1.3046	9.0180	18.1651	7.8208	24.1232	11.6603	-20.3743	18.1702	10.2113	0.8600	21.6962	13.9981	21.6515
5688.0831	1.3085	4.9829	1.6610	-15.6707	-2.1255	2.8705	-8.7898	-1.2447	6.0255	-22.6990	13.7804	16.5369	6.4147	8.0595	6.1423	9.6976
5696.0832	-9.5553	-8.7523	-12.2207	-27.6050	-10.6619	-19.2494	-24.4551	-15.4224	-0.1166	-29.9058	2.2846	-3.1279	5.3369	-8.4622	-4.4970	-4.7076
5704.0833	-9.8793	-11.6843	-14.5935	-22.9445	-12.9675	-21.1897	-37.3012	-33.6903	-3.5145	-33.6699	-7.3010	-17.3485	1.7557	-22.2558	-20.5404	-23.1071
5712.0834	-12.5884	-9.5399	-10.4091	-17.8352	-11.6703	-19.2829	-30.0179	-20.3336	-2.3318	-26.4106	-6.6241	-10.7246	1.5294	-10.6184	-12.1010	-16.9574
5720.0835	-16.7802	-11.3661	-8.9986	-19.8064	-9.1773	-25.1161	-34.0017	-22.3146	-2.3623	-24.7366	-11.1982	-12.6250	-0.2603	0.4893	-6.2649	-9.1232
5728.0837	-18.4710	-18.2962	-15.6642	-30.8695	-8.6478	-32.7371	-39.2500	-31.4168	-2.5615	-23.3609	-14.9217	-17.6278	0.7848	-2.0284	-9.9792	-15.3108
5736.0838	-14.4474	-19.7355	-19.3719	-31.2936	-3.7181	-34.4845	-22.7393	-36.8418	-2.7153	-20.1716	-16.6360	-22.8027	0.7306	-12.6733	-3.8496	-20.1804
5744.0839	-2.1049	-8.9280	-15.4227	-15.0039	3.3404	-17.3702	-3.4405	-22.2819	-4.2497	-13.6164	-15.4490	-17.5908	0.4198	-18.5551	1.0338	-15.9898
5752.0840	-0.8425	-3.7744	-24.1402	-14.0004	-0.8212	-13.4141	-0.0318	13.0611	-0.4304	-3.2286	-8.2959	-3.8779	3.5260	2.5650	10.6922	2.8291
5760.0841	3.8000	-0.3977	-29.3124	-11.5264	8.9558	-10.9465	13.4886	11.5227	1.6655	-0.8933	-10.1238	-1.1059	3.9025	5.9348	16.5891	5.3496
5768.0842	17.2560	13.0761	-25.1452	7.2659	19.0798	11.5650	41.0345	25.1586	8.1021	16.5582	2.1663	12.6072	3.6246	8.6182	28.9329	11.6728
5776.0844	11.2187	15.7614	-42.6136	10.3617	4.8029	8.1326	34.0754	47.0218	15.8094	32.1426	14.7081	23.5589	3.9768	29.7523	42.7018	29.9706
5784.0845	3.8866	8.9490	-62.4261	3.2156	6.9412	4.3899	15.9510	22.1728	7.6720	19.3277	-1.1974	9.5741	2.0954	17.0692	26.1347	16.0299
5792.0846	0.7229	5.0115	-69.5788	0.5514	7.7143	15.9331	12.9531	8.7903	2.2065	16.2394	-7.1110	0.7642	-0.7440	11.3834	15.2192	8.1350
5800.0847	-5.9850	-0.9754	-74.0014	-3.4348	-9.0815	3.1527	-1.8384	-3.1490	2.1591	16.4584	-8.2414	0.3460	-0.6107	14.8589	10.7881	7.8295
5808.0848	-5.1274	-3.7962	-72.1332	-5.6758	-12.0482	-6.3882	-18.0758	-24.0919	-1.8618	6.3203	-15.6585	-1.1606	2.0047	-4.7814	-5.0363	-11.2433
5816.0850	-5.8668	-2.5509	-70.5890	-2.4617	-13.7101	-2.6226	-22.1162	-24.0708	0.4146	7.3502	-12.2601	-1.4592	0.8761	-4.6959	-7.6481	-16.2707
5824.0851	-3.4885	-2.1243	-63.4281	3.1504	-8.8317	-1.1591	-15.0815	-25.2542	3.5945	11.2552	-12.6222	-8.2794	-2.3636	-1.3108	-9.6359	-20.6695
5832.0852	-5.8426	-4.4904	-57.4281	0.1566	-8.3295	-2.4178	-23.5161	-28.0400	2.9682	11.0973	-12.8973	-12.4034	-3.5684	-3.3569	-10.0869	-23.2684
5840.0853	-15.4316	-11.7618	-61.1398	-10.4408	-21.8547	-10.7771	-41.7343	-34.0813	-2.8155	5.4387	-16.3246	-10.4247	-1.5282	-3.3200	-15.4442	-20.7374
5848.0854	-6.1686	-14.4718	-53.1639	-12.5012	-11.5773	-9.6166	-19.4889	-35.0653	-7.5152	-0.4420	-22.3307	-15.9948	1.2469	-20.2385	-30.2966	-34.0332
5856.0855	6.4055	-1.7690	-38.4646	0.7932	3.7757	-0.4967	9.2776	-12.3761	4.1365	8.2020	-5.9195	-11.9485	-0.5686	-13.1225	-7.7635	-21.2431
5864.0857	11.1701	13.7517	-27.2474	17.5109	6.5035	5.2066	19.8873	14.2737	14.8434	21.8811	12.3828	8.2891	-1.1645	10.8316	22.6172	10.4062
5872.0858	6.6118	10.1096	-24.7033	15.3099	3.7839	3.3889	26.2550	18.5143	8.8638	20.0260	11.6474	15.3865	2.2919	6.2215	15.0092	11.0601
5880.0859	1.9183	4.5863	-21.7289	6.6197	0.9079	-1.7530	22.0569	0.4852	5.4161	6.6503	8.3313	11.1866	2.7983	-0.8482	8.8834	5.2692
5888.0860	18.1998	14.6833	-1.1850	12.8465	11.8255	4.3954	27.2249	5.6509	13.0233	8.7295	17.9103	11.3574	1.5211	-0.2115	20.4247	14.0878
5896.0861	14.4490	12.8020	-0.8914	11.8093	8.3036	1.8840	20.5293	21.1338	11.7922	9.9562	22.3518	6.6931	1.2100	-6.3451	19.2849	14.1906
5904.0862	-0.0563	4.6496	-13.4195	6.5244	2.2238	1.6073	7.1883	17.1679	4.7275	2.1148	9.1473	-4.2310	-2.1429	1.5920	6.2875	8.7602
5912.0864	8.9884	9.1144	-5.8902	12.6452	9.6523	11.9605	12.2251	26.5900	10.5995	18.2410	11.6718	-3.8655	-5.2697	21.9416	8.5144	19.8378
5920.0865	-1.5911	1.1719	-12.3640	5.0394	2.0002	-4.0484	1.1410	16.0546	5.2709	19.9026	12.2109	3.2825	-1.0086	8.5882	5.2311	18.1077
5928.0866	-12.9103	-11.4426	-17.9455	-5.2395	1.0864	-14.4510	3.3213	-5.8924	-11.7813	-0.1032	-9.3854	-6.6013	1.2579	-17.0192	-12.2708	-1.4505
5936.0867	-0.1616	-6.5945	-4.7848	3.1812	-1.8671	-4.8766	11.3220	7.3129	-7.6853	9.2534	-8.2216	-16.0545	-3.3054	-7.9151	-6.0286	4.2589
5944.0868	5.9937	0.9095	1.2829	12.1690	-6.1704	-1.2737	-0.6104	7.5327	1.4686	21.8556	4.7543	-10.1024	-5.3574	-0.5099	3.2208	12.5317
5952.0869	8.4192	4.8897	5.7441	17.0083	10.8998	6.9312	9.8927	4.8817	1.9437	24.1110	4.6363	0.2287	-3.4868	0.1161	-2.1374	8.2048
5960.0871	5.0616	3.5398	1.6304	11.4052	2.2907	3.0337	0.5980	7.5241	-0.1154	23.1440	0.3447	15.4696	1.9894	8.9204	-5.9568	7.9076
5968.0872	3.0184	-2.7962	-4.3061	2.3034	-8.9867	-3.6294	-9.7591	-9.1080	-5.1339	15.2243	-6.9643	13.5061	4.3315	0.1515	-15.3367	-0.8862
5976.0873	10.9176	-0.9587	3.6316	10.1867	6.5470	8.0099	26.1015	2.8150	-3.6357	22.4706	-2.9676	1.9311	0.5022	-5.8092	-11.1558	-1.3853
5984.0874	13.3636	5.4385	9.4058	16.1247	10.7077	11.4213	30.7353	20.0415	1.1979	28.9965	3.7604	5.7768	-0.6658	2.5241	5.4727	9.0295
5992.0875	8.6875	1.7274	10.6774	8.3648	10.6340	-0.9818	13.5900	-4.3773	3.3707	24.0357	2.2191	5.7655	-0.7678	4.9600	5.9010	8.5859
6000.0876	-5.3857	-10.6363	3.6079	-4.4224	6.7849	-19.9071	8.5542	-21.1891	-2.5879	12.5125	-3.8238	0.1848	1.3291	-7.5308	-4.1227	-1.7060
6008.0878	-8.4777	-11.5990	0.0501	-6.9706	3.2612	-22.2457	-6.4583	0.8466	-11.7960	-4.3182	-14.5940	-11.5311	2.1024	-22.8732	-13.6751	-12.2412
6016.0879	-2.4883	-5.6911	3.0052	1.3679	2.1962	-15.8890	-16.4849	9.9999	-7.2160	0.0910	-12.6933	-15.2857	-1.6444	-8.5840	-16.9528	-4.4641
6024.0880	-9.4039	-11.6849	-7.4185	-3.8423	-6.7259	-20.8706	-22.4780	-17.5299	-9.2481	0.3795	-15.2823	-7.1315	0.1718	-4.2753	-26.8145	-4.5016
6032.0881	-0.5416	-9.1753	-4.9376	-1.0318	5.2101	-9.3967	-7.1981	-10.1113	-15.2644	-6.8177	-22.5525	-16.6398	-0.0288	-22.1127	-32.8172	-15.1335
6040.0882	5.4111	-2.2576	2.4991	8.6933	11.1628	-4.7827	16.7477	16.7893	-7.4808	7.9566	-9.9711	-11.5343	-1.2596	-8.7279	-14.3671	1.9667
6048.0883	-5.0903	-8.3039	-4.6967	-0.9810	-6.0417	-9.1786	4.7731	4.7920	-11.9813	7.0052	-12.4301	0.5449	2.1310	-2.7172	-12.0580	5.9939
6056.0885	7.3396	-1.5486	4.6699	6.1422	-7.2691	11.7501	0.6072	8.0899	-12.7051	8.5469	-14.4535	-2.7393	-0.1172	-5.1329	-16.2978	-0.4668
6064.0886	11.9482	5.1792	13.7298	15.6149	-2.9988	9.6735	15.2042	12.3307	1.3321	27.4720	3.1217	11.5438	-0.4409	13.9445	1.1289	14.5430
6072.0887	-0.0392	-3.2482	12.2025	1.8273	2.9580	-6.4935	7.1615	-6.0762	-3.7405	13.8300	-6.5634	10.3600	1.9378	6.9021	0.5167	6.5610
6080.0888	0.4710	-5.0009	18.2660	-4.4909	7.9716	-2.7668	-6.4677	-1.8806	-11.0742	0.3746	-19.3532	-0.8503	1.5331	-3.6581	-7.2284	-6.7496
6088.0889	-3.0363	-8.2742	20.4305	-8.2498	4.7563	-13.2362	-5.7988	-8.6105	-6.6013	5.0575	-13.9139	3.3982	2.5752	1.2260	-2.2784	-4.4597
6096.0890	-0.3587	-9.9466	21.7389	-9.4030	4.8674	-19.2337	-10.3203	-21.8221	-4.2954	0.5865	-15.4774	-7.8148	0.5195	-7.5995	-4.7699	-14.5116
6104.0892	11.4217	-5.4060	17.9613	-4.6737	-5.9376	-12.1811	-25.2941	-13.2440	0.3462	6.3845	-12.8890	-16.0855	-1.6393	-8.0943	-9.8392	-19.3330
6112.0893	9.8189	-6.9936	12.0552	-3.2022	-6.9528	-12.5134	-17.0127	-11.4295	0.4868	12.3584	-10.0104	-12.0664	-0.6776	-5.4732	-14.4970	-16.2037
6120.0894	8.2045	-2.2952	19.8080	2.1326	8.5717	-4.5270	6.3993	-1.8539	-3.5106	7.3866	-10.7815	-0.0643	1.5912	-3.4648	-9.8531	-8.9232
6128.0895	10.2525	2.1192	20.6068	2.8729	1.3032	-0.9252	9.3575	8.7138	-1.1928	8.3941	-4.5806	10.4320	3.4707	6.6461	0.7313	3.8297
6136.0896	1.0096	-5.9927	10.3141	-2.2636	-15.3137	-12.4178	3.9964	5.1175	-4.4170	0.3957	-5.5094	1.1126	2.9394	1.0515	-8.5814	0.5651
6144.0897	-8.3239	-13.7571	1.1632	-11.4817	-25.4446	-20.9827	-10.4500	-4.9287	-11.2971	-14.6055	-11.8519	-4.9202	4.4163	-10.1154	-23.5942	-9.1309
6152.0899	0.5736	-12.8786	-0.0283	-15.5858	-25.6568	-22.3619	-27.4472	-31.7637	-6.1607	-13.7814	-6.2618	-7.9114	4.2871	-21.7285	-27.5172	-15.7743
6160.0900	8.1377	-7.1770	10.8308	-8.4697	-12.0336	-24.5959	-20.4305	-31.3282	0.1463	-8.5762	4.1037	-4.3219	5.2044	-33.5252	-23.4586	-19.8491
6168.0901	0.6689	-6.5302	18.3707	-9.8468	-2.3633	-30.9417	-7.6303	1.6274	-0.5046	-11.8437	4.6826	1.8792	7.9140	-25.6437	-12.5460	-13.7121
6176.0902	3.9433	-2.9257	25.9764	-5.7024	6.4192	-28.2347	3.6014	9.6843	3.0212	-13.0249	4.7512	-4.6060	4.6297	-17.6394	-3.4333	-8.6779
6184.0903	10.1518	2.2925	32.4084	-0.2665	11.7922	-23.1590	15.6328	7.0703	5.6359	-13.3257	8.7525	0.0805	4.8658	-18.1643	1.6151	-5.8483
6192.0904	8.7288	2.9159	30.4504	-2.8948	10.3290	-23.1291	10.7226	10.7249	6.9609	-14.2545	10.2855	2.9802	5.2040	-9.5554	3.7069	0.7205
6200.0906	16.0910	11.7585	36.1093	7.2099	10.8564	-15.6609	-2.7187	4.7476	14.8812	-5.8273	17.3392	11.9677	3.6676	2.9590	3.9007	5.9651
6208.0907	12.5599	7.2026	28.7903	0.1393	-1.7776	-19.5695	-14.3271	-14.3019	11.9106	-6.9299	14.7526	22.4468	7.9888	-1.1450	-3.7030	-1.1169
6216.0908	0.7098	-8.8026	6.9686	-16.3345	-18.5021	-28.9277	-26.3743	-31.0250	0.7854	-22.2306	0.3571	1.8564	7.7555	-20.6612	-24.1100	-21.8424
6224.0909	9.0983	-3.6688	11.4024	-9.7276	-13.7387	-15.3300	-22.8983	-22.0911	4.8126	-20.3949	3.8518	-3.2749	5.2007	-17.1423	-31.0590	-25.9309
6232.0910	19.0858	1.4897	23.2777	-8.5007	-1.4568	-7.6295	-10.2557	-18.0279	15.0337	-9.8842	13.7303	-1.7328	3.2074	-1.7249	-19.0386	-15.8587
6240.0911	15.3075	-5.0995	13.8446	-18.0656	-14.2292	-20.0413	-30.7395	-35.5493	17.0110	-13.4751	15.8246	-13.3614	1.9474	-12.6807	-19.8586	-23.8081
6248.0913	12.4199	-9.6186	5.6308	-23.4931	-34.4177	-25.0198	-49.1827	-29.4961	10.7938	-23.5511	9.5142	-15.5426	5.2526	-22.3016	-36.3618	-36.2363
6256.0914	18.4895	-6.1548	16.6539	-13.9568	-15.5564	-19.6494	-16.8177	-9.7603	7.4350	-25.6435	0.5275	-22.0863	3.2379	-16.1391	-38.0360	-30.7512
6264.0915	21.0489	2.2217	27.4600	-3.8634	0.3642	-20.4084	-16.1454	-21.5636	16.0425	-16.4958	12.2553	-14.5561	0.3947	-11.0253	-20.5579	-16.9002
6272.0916	9.2547	-3.1207	20.6833	-13.8933	-14.2625	-29.0009	-38.9377	-32.9457	15.6512	-22.2780	15.2318	-9.8009	2.1379	-10.8788	-19.7740	-18.5687
6280.0917	-1.9395	-10.0419	16.0905	-18.9841	-4.7509	-31.8256	4.4055	2.5024	2.2410	-45.9224	-3.6142	-17.9684	5.2163	-12.3592	-26.7313	-25.8320
6288.0918	0.0303	-3.3524	21.6286	-15.2521	9.4516	-25.8832	21.9928	23.1560	4.7238	-49.2360	-0.2264	-15.7978	4.4748	-2.5616	-12.3555	-12.8762
6296.0920	11.4660	4.3313	22.4791	-6.3709	4.6170	-17.6568	-5.5803	-7.6185	17.1729	-36.0413	14.0546	-24.5936	-3.9133	1.6406	-5.4728	-3.2887
6304.0921	19.6800	8.6310	15.8672	-1.2233	1.2706	-15.9215	-3.1956	-15.2105	20.2839	-35.0051	19.6635	-19.5249	-1.8403	-7.2288	-10.8246	-7.1491
6312.0922	18.6344	6.6745	3.4921	-16.4865	-17.8413	-22.0152	-33.9138	-9.9515	22.3182	-44.3239	24.5796	-11.0282	4.5202	-6.1859	-19.0407	-11.0512
6320.0923	15.9841	5.1402	-3.3546	-16.9121	-26.3147	-16.7985	-48.5854	-18.3079	23.1472	-48.1879	25.3116	-14.9455	2.7719	-3.2542	-34.2288	-18.0276
6328.0924	7.6958	7.4547	-1.6550	-6.0469	-8.4307	-2.5989	-0.4460	0.5255	20.1724	-40.8883	28.9646	-1.9480	3.1732	4.5918	-25.1216	-9.6449
6336.0925	-3.4322	4.3758	-8.5209	-11.0634	-12.5423	1.1261	-15.6770	0.6404	18.3669	-37.2014	28.4457	-6.8844	-1.1055	14.9235	-13.2280	1.1241
6344.0927	-13.6459	-3.0260	-24.2612	-15.9428	-23.0136	-1.1806	-39.7277	-19.5658	8.6184	-43.9033	15.1637	-14.3677	-2.2113	3.5564	-27.7699	-11.0675
6352.0928	-23.9698	-6.0551	-31.2641	-12.3174	-5.5514	7.2589	0.2642	-5.1218	-1.1485	-42.3643	7.6408	-10.6828	-1.0501	-2.9156	-23.5840	-13.2710
6360.0929	-25.4481	1.4265	-29.1488	0.4380	12.0236	26.2152	11.2461	3.2907	2.5739	-24.0716	11.1277	-11.4758	-8.6210	13.9353	-0.6077	2.4767
6368.0930	-42.8290	-1.7300	-40.9970	1.0847	8.3012	27.4460	9.9758	5.0388	-2.8714	-14.3099	7.5369	4.2380	-7.3554	25.0876	8.8250	9.7800
6376.0931	-69.8341	-14.1598	-58.0698	-5.1821	4.1986	22.3552	21.4607	23.3090	-19.9388	-26.1254	-9.8486	-2.5095	-7.2304	20.1645	6.5277	4.2881
6384.0932	-65.2562	-7.2959	-55.2915	5.4566	10.8200	38.2402	14.8670	29.9687	-20.8125	-24.8327	-14.3334	-12.9508	-13.3065	21.5892	9.0284	4.0793
6392.0934	-52.4786	2.6996	-51.2770	12.0398	15.6734	47.8068	13.6803	25.2294	-10.8703	-4.2785	-3.0503	4.6394	-12.4602	35.9980	24.7594	18.7891
6400.0935	-42.1424	10.4183	-51.8689	21.9664	21.4664	54.6797	12.7915	17.2240	-5.9388	10.4603	0.3765	13.0383	-13.1082	40.3732	29.9847	25.0228
6408.0936	-34.0258	16.3406	-51.2631	31.6661	19.5865	59.9251	20.3449	22.1778	-3.4773	24.0650	5.3100	27.1784	-10.3792	41.4920	31.4802	27.9710
6416.0937	-38.3272	9.3382	-59.9774	21.6277	9.6060	42.4634	37.0004	38.7734	-3.4112	24.6056	5.7487	26.0982	-7.0804	46.0848	42.3194	36.8468
6424.0938	-27.3014	9.7567	-63.4975	14.8740	14.2892	36.9422	26.8877	35.0478	-1.0700	14.6384	-2.3440	7.0697	-9.0765	40.7483	40.1929	30.1918
6432.0939	-25.8991	4.8830	-68.4005	2.6546	8.3549	30.1282	13.4237	16.8881	2.4813	21.1860	-0.6802	12.2085	-5.9167	39.4887	41.7715	23.7541
6440.0941	-42.9309	-13.9407	-86.5142	-19.3318	-9.8749	5.3041	2.4888	-5.2821	-7.4503	16.4189	-15.0481	8.9697	-1.5205	28.0049	38.7456	11.9313
6448.0942	-32.1512	-15.1779	-87.4757	-21.2128	-0.9811	5.9536	2.2407	-11.8063	-16.2313	2.8593	-35.6607	-4.8011	-0.0744	6.0823	18.9531	-11.7625
6456.0943	-18.0718	-2.4439	-72.0462	-0.3372	12.6827	14.7118	38.2066	21.2928	-6.2666	17.4229	-22.1811	-1.0447	-2.2277	17.2059	32.0365	2.2821
6464.0944	-14.6600	8.2207	-63.3129	16.8026	8.6042	16.1694	55.2518	57.6570	-1.2453	31.0783	-9.8976	10.6416	-3.3715	37.5225	53.9279	33.8599
6472.0945	-6.7479	10.0898	-56.0249	13.4078	8.3601	23.0884	48.2490	67.4330	-8.0456	26.8678	-17.6246	14.6904	-0.5564	40.5756	44.6419	40.9418
6480.0946	-0.0013	11.2038	-41.2746	13.8766	19.0376	27.7672	59.4690	66.6639	-7.4708	28.0484	-15.7029	15.9563	-0.4339	44.0828	39.3337	45.9398
6488.0948	9.2851	16.1244	-30.0466	16.5215	17.3817	29.8839	51.4416	56.7539	-1.3346	34.0811	-5.5948	22.9210	0.1636	43.6406	42.2605	49.8540
6496.0949	6.1845	8.0904	-32.1317	4.6785	2.8375	16.7896	20.0377	29.9568	2.1058	31.1260	-3.1907	10.6549	-1.7189	35.3205	36.2368	38.9263
6504.0950	0.4642	1.7796	-28.6252	0.2017	13.9396	7.3860	18.8538	18.7099	-2.1388	17.1071	-14.2866	-4.0132	-3.0750	21.5270	23.8076	19.7134
6512.0951	7.4292	7.3164	-17.2999	3.2539	30.1538	17.5043	25.6072	26.8855	-5.6827	13.3203	-21.1314	2.8591	-0.4516	18.0522	20.7601	13.6465
6520.0952	7.0210	11.1678	-15.1980	8.2435	15.3155	16.8415	-15.6391	6.2250	4.2451	26.2783	-9.6278	4.1285	-5.9857	32.6947	26.8966	24.3973
6528.0954	6.4264	8.3290	-17.8386	8.2359	4.9730	11.1259	-38.4021	-10.8964	4.0773	24.4352	-11.3463	1.3962	-6.2272	27.8131	8.8168	14.7590
6536.0955	8.2016	0.4520	-18.4821	1.5142	15.8628	6.8807	13.2567	1.6069	-7.6372	9.7630	-24.6932	-3.5432	0.3442	2.1736	-0.6456	-4.4804
6544.0956	9.2559	7.4576	-12.3426	11.6722	25.0113	4.3709	33.0914	-3.4933	-0.3625	14.5009	-13.7659	-3.8816	-3.0524	-5.6801	32.6488	2.1634
6552.0957	7.8519	12.6585	-16.5970	13.9561	14.3703	6.1429	3.5570	-7.7780	2.5020	21.3843	-7.7891	8.9294	-1.9955	-2.7799	41.3776	6.6684
6560.0958	-4.5761	-1.5007	-38.6206	0.0716	-4.4092	-1.6326	8.2592	-7.0222	-12.4415	10.9223	-23.3618	8.8462	3.6887	-11.0886	21.0973	-2.5837
6568.0959	-5.5603	-3.1351	-46.3715	0.0849	-6.7921	-1.5201	17.9395	-12.0578	-13.8650	8.9826	-23.1603	3.6898	2.7503	-18.6108	23.6842	-3.4771
6576.0961	-2.0970	-0.9274	-49.8630	1.5425	-8.3705	2.5618	16.1819	6.6497	-10.6970	14.1356	-17.6755	0.7434	2.2987	-16.8506	23.8053	-2.5389
6584.0962	-1.0358	0.2261	-55.3108	6.8536	-8.3493	3.8819	20.0143	13.1101	-9.7888	16.9023	-16.4926	-1.3070	1.2517	-13.6633	17.0139	-0.2512
6592.0963	11.5067	9.5006	-46.9857	13.2969	0.6488	14.5833	12.8069	7.2188	-1.1018	30.4142	-5.9516	7.6815	0.2930	-5.3670	23.1693	9.0459
6600.0964	2.7649	0.3243	-53.7242	2.6074	-5.4002	4.6064	8.2698	9.2538	-5.3635	32.4368	-10.2973	9.3733	3.3856	-5.3984	17.1124	5.6803
6608.0965	-11.4255	-9.2256	-66.2430	-3.9770	-14.2842	-9.0188	-4.5071	-11.9826	-14.1305	21.4195	-19.2340	6.5424	5.0954	-22.5313	4.7815	-7.6372
6616.0966	1.5593	-3.7544	-60.4844	0.0694	-9.5083	1.4197	-12.8638	-12.5132	-8.6466	32.5771	-11.0314	3.8323	3.1594	-25.5304	3.6608	-6.5786
6624.0968	4.0919	-7.3889	-56.3995	1.5175	-3.0423	1.0605	3.8079	0.1567	-8.0967	47.6736	-10.5818	-2.1629	1.5203	-20.8593	2.6360	-2.4522
6632.0969	-10.9947	-14.8535	-53.6691	-9.6714	-9.6580	-14.5164	-26.5313	-27.5565	-13.5201	33.1480	-15.9717	-1.7186	2.7103	-33.2254	1.3681	-12.0925
6640.0970	-17.7596	-17.7250	-44.5089	-19.3160	-19.0918	-24.6663	-59.6794	-39.8300	-15.6648	7.0989	-18.4492	-11.5205	2.1133	-43.1326	-6.1407	-22.2176
6648.0971	-11.8668	-13.9303	-27.2676	-3.7954	-6.3412	-18.4850	-13.0485	-25.9357	-15.6006	4.7772	-18.0143	-16.8849	-0.6186	-41.1782	-8.4174	-19.6403
6656.0972	-4.4130	-6.4839	-9.0376	5.2696	-0.0437	-8.6593	12.3794	-15.2991	-9.9197	13.7815	-5.1279	-6.3622	-0.5048	-36.1672	8.3347	-9.0237
6664.0973	3.4046	-0.7745	5.7766	4.9689	-3.2511	-8.3156	4.8399	-4.9625	-3.1423	9.1656	5.3053	-5.1518	-0.2051	-31.5439	14.0893	-2.6782
6672.0975	15.6381	6.9023	28.3385	16.7246	3.5750	-5.3748	25.4603	-12.6743	2.4567	9.0965	11.7114	7.0024	1.6299	-28.1848	10.6611	-1.4723
6680.0976	11.2886	4.1050	37.0631	10.0943	-10.9703	-13.6640	11.9957	-22.1640	3.2740	6.1818	15.7159	20.7892	6.0610	-25.1259	10.0841	-2.6533
6688.0977	2.7876	-3.8674	34.7605	-1.4778	-19.9734	-21.6624	-12.1260	-29.5156	-1.7694	-6.6910	8.6527	10.6938	5.6823	-29.2851	-2.6285	-10.7485
6696.0978	10.4138	-2.0360	48.8619	4.3227	-11.4896	-10.4276	-8.2336	-34.8317	-1.1821	-1.2926	9.4455	5.4181	3.0654	-35.3649	-10.0985	-19.2183
6704.0979	12.6166	2.0712	61.7094	8.5420	-14.4827	-9.3623	-19.6834	0.2621	0.8546	2.6289	10.8932	7.0858	3.2721	-22.6004	-10.7393	-15.3680
6712.0980	18.5783	10.7563	71.5602	16.1458	5.2000	-6.6386	-10.1031	27.7513	4.1475	0.2871	6.8050	11.1186	2.5724	5.2621	-11.9103	2.8668
6720.0982	26.3456	15.9354	76.5611	19.7795	20.1445	4.1057	2.0469	8.5429	13.1574	13.6768	18.1474	16.9632	-0.3726	17.5713	-1.3647	17.0880
6728.0983	13.1997	7.5080	63.2020	11.7833	4.7987	-5.3529	-22.8700	-6.8383	12.4342	14.4909	21.5411	11.1788	-1.5933	8.2265	-3.6298	9.2470
6736.0984	1.7287	-3.0319	51.1606	2.5862	3.0236	-18.5922	-23.7634	-14.1761	3.0988	-0.7899	5.3767	1.5429	0.0517	-2.5835	-19.1755	-6.7840
6744.0985	3.2103	-6.2954	48.6617	-2.1215	-1.0423	-13.2576	-14.3551	-13.1393	-1.8521	-7.1462	-1.9771	-8.5450	-0.9342	-8.2924	-18.6852	-11.9727
6752.0986	6.2253	-1.8474	50.1522	1.0320	-5.8654	0.1456	-9.8748	0.2329	-0.5566	-2.9821	4.1701	-3.8909	-1.4487	-0.9702	-11.7543	-3.9660
6760.0987	2.0402	-7.3910	43.6758	-9.0665	-6.0376	-9.3183	-2.4276	-13.6176	0.9844	-3.5745	7.2520	4.6752	2.7809	-0.6414	-11.9752	-4.2437
6768.0989	-5.8917	-14.5176	32.8330	-16.6814	-20.7715	-26.1695	-22.5584	-27.4367	-4.4544	-21.0517	0.4747	-9.3667	3.1118	-25.4927	-18.0323	-21.7807
6776.0990	2.5645	-2.9259	42.8633	-1.0892	-13.7344	-11.0487	-12.9095	-5.8939	-1.6778	-22.2939	3.7229	-10.0233	0.0908	-19.4922	-14.1322	-16.5869
6784.0991	14.6836	4.1033	55.1927	3.3688	1.7906	-1.4330	18.7186	10.1617	10.6865	-5.0628	17.7667	-0.1072	-0.2438	6.6879	0.6003	3.5731
6792.0992	16.5811	8.0239	58.1166	4.5374	2.0068	-4.6380	10.7280	13.1156	12.1528	-5.6003	22.9064	6.9278	2.0384	0.4642	6.5731	5.4777
6800.0993	13.0734	11.6577	55.3421	6.7457	4.8089	4.7917	-2.5204	5.7318	8.0167	-4.9053	22.4440	20.6706	3.6755	0.8387	4.8230	9.9004
6808.0994	-1.4734	-1.7831	33.1182	-4.8014	-11.2568	-4.9890	-32.0152	-19.2052	-0.7353	-9.1553	7.6676	10.1931	1.9424	2.0660	-16.4049	3.6342
6816.0996	-2.4512	-2.6668	26.3363	-1.4478	-12.1785	-8.2800	-35.5145	-15.8436	-7.6771	-26.1539	-7.5100	-2.6347	0.8323	-5.1715	-34.2237	-8.0784
6824.0997	11.3631	7.5321	39.8914	9.7336	12.1571	10.5562	9.1743	-4.7239	1.6484	-13.7632	2.8397	0.5457	-2.3524	9.4394	-14.5264	6.4574
6832.0998	6.6156	-0.0807	28.8751	4.4696	-5.2714	1.0194	-12.0270	-28.6475	-0.8117	-0.9435	2.1332	4.2211	-0.6849	-2.0135	-17.2952	-0.8492
6840.0999	7.3252	-1.2529	19.1674	-0.3674	-16.7497	0.2879	-34.8356	-12.9239	-9.4086	-7.4562	-7.8640	10.4877	5.9392	-14.2339	-36.1999	-15.7213
6848.1000	20.7911	13.3524	29.7385	14.1582	6.4882	24.9724	8.4293	32.3601	4.2131	2.0224	6.8390	6.1731	-0.4125	18.6368	-15.3706	9.4512
6856.1001	20.4314	19.5141	31.5477	26.3882	10.9620	26.5389	28.3187	30.5949	9.8141	5.4292	16.7932	12.0413	-2.4691	23.7487	-2.8780	20.3192
6864.1003	23.7223	20.5859	35.0364	24.0153	21.5367	29.0419	39.9295	35.1682	11.8911	7.4066	21.3802	13.1138	-1.5215	20.8946	2.9657	21.6837
6872.1004	25.4803	23.5877	37.1868	27.1538	25.3708	33.2577	39.3653	43.1676	22.3313	22.3962	32.9290	7.4546	-7.3883	41.1292	17.5579	37.9884
6880.1005	11.8543	11.2502	18.4077	10.2322	2.3690	21.1055	8.8986	7.3002	8.1226	11.0017	20.4522	20.9727	0.9125	20.4347	-1.6471	22.2233
6888.1006	13.1761	3.9131	14.6868	-0.2647	5.4366	24.3805	0.8064	-6.8836	0.3770	4.5164	10.5322	4.1045	-0.1871	-1.6115	-13.0237	5.1605
6896.1007	19.9402	14.4970	25.9892	22.3409	7.6006	25.3634	-1.6083	10.7425	12.4536	22.6583	23.2735	1.0534	-6.5604	10.9321	-4.8835	14.3530
6904.1008	11.5468	7.0617	17.0222	14.4315	-7.4467	17.0100	1.7261	16.8794	4.1580	18.0953	15.2690	14.1031	0.6385	12.3384	-16.5568	10.9697
6912.1010	12.7039	5.2813	15.3168	10.8943	-1.3401	24.0953	-7.8637	10.3169	1.9356	18.0524	6.4540	-0.6528	-4.4441	16.1848	-17.1705	10.9591
6920.1011	14.7150	11.2488	19.4503	15.9763	0.7162	20.8006	-36.9387	-4.3775	7.1710	29.4108	12.0731	17.5720	-2.0134	18.5585	-16.6446	11.3949
6928.1012	5.4264	-4.0317	7.8726	-1.9611	-0.3754	11.0480	-1.7908	1.2596	-4.5975	16.3557	1.2416	13.2612	4.5849	1.3542	-26.7273	-3.0012
6936.1013	9.9362	-0.1431	7.6710	8.9755	4.5280	14.1898	23.4137	6.5694	-1.3193	18.2043	3.5553	1.3847	-0.5353	0.3590	-15.1942	1.6393
6944.1014	12.2449	0.4670	7.2186	1.3482	-9.2446	13.2532	-16.5685	-14.2251	3.4572	29.3234	11.7576	16.5344	2.6038	2.3969	-13.6284	2.2344
6952.1015	4.9615	-12.7099	0.4047	-12.8643	-10.9524	15.6911	-6.2680	-5.9068	-8.4930	18.8778	-3.7801	-6.4331	0.8684	-8.7251	-24.3663	-11.5509
6960.1017	12.6780	-1.2407	7.0039	6.3130	7.8100	21.8257	28.3102	18.1181	-8.2578	23.7922	-6.3662	4.7040	1.9131	-1.6509	-15.4480	-1.6129
6968.1018	16.6024	0.3338	12.7938	2.9994	15.2065	20.9213	28.7407	21.4957	-4.5390	30.5780	-3.3384	9.5073	2.5483	9.3162	-7.5556	9.4486
6976.1019	15.5754	3.5498	19.6819	13.6444	17.2696	25.8658	29.3684	27.7911	-3.3727	31.2250	-1.4190	-7.1454	-5.4550	8.5392	1.4575	14.0466
6984.1020	11.2568	3.9347	17.9140	14.8082	9.5486	22.2257	21.7432	21.7265	-4.4474	40.2448	3.2990	14.0048	-0.3602	7.1205	3.8782	16.7426
6992.1021	-8.6351	-16.4901	4.9479	-7.4314	-4.6007	7.8629	8.9877	4.2664	-19.2351	18.4383	-18.3471	-6.6115	-0.7919	-2.5494	-15.9420	-0.7617
7000.1022	-2.4506	-6.2487	9.4739	5.2024	0.0905	17.7698	1.3816	-1.4139	-19.5825	10.0899	-23.7293	-6.0660	-2.9722	-6.3609	-14.6321	-6.0405
