Time	Fz	Fpz	C3	C4	T5	T4	O1	O2	F7	F8	F3	F4	T3	T6	P3	P4
0.0000	8.2355	-3.8323	-0.5840	8.9623	13.1295	10.2139	16.7123	11.3814	11.8637	15.4808	5.7878	-71.9614	-24.8177	8.6528	11.3561	7.6794
8.0000	-0.5628	-5.5553	-6.2723	0.7278	-0.3291	0.3765	2.7637	-3.5747	-0.3484	10.5404	5.5690	-29.8236	-10.1565	3.1083	1.6583	3.9182
16.0001	0.2668	-7.7775	-13.2542	4.6597	-16.7805	0.7678	-0.0195	-0.3530	-12.4864	-2.0969	-8.8326	-44.6526	-11.2284	-16.5729	-8.5544	-11.1922
24.0001	3.3406	1.8819	-7.8920	12.3018	-2.6302	9.0032	5.9303	7.6465	0.2229	8.7058	0.7477	-16.7233	-6.6196	-5.3413	-1.8757	-1.4610
32.0002	-4.3672	-4.6001	-5.5431	2.7062	12.4708	6.6642	2.6249	-9.2013	-5.8167	10.6948	1.3988	-23.3378	-9.5822	4.9828	-4.3153	-0.3556
40.0002	-4.0988	-2.8449	-7.1725	13.1098	9.2336	7.3553	5.1001	-7.8793	-14.8740	15.0086	-0.9335	-31.0896	-12.8025	-2.9490	-1.2481	-4.0616
48.0003	4.7453	4.5461	0.5726	12.1518	8.6479	13.0447	13.1543	16.6151	-3.5007	18.3785	3.0157	-11.8607	-7.3106	8.4702	12.9082	11.7103
56.0003	-1.5797	-2.3764	-2.3136	7.5891	3.4999	-0.3596	7.9470	5.6436	-9.8523	5.3101	-5.3700	-29.7250	-10.8345	5.7998	6.2270	12.4864
64.0004	-0.7262	-0.6801	-8.7645	10.0443	-7.4696	-4.0380	0.2358	-4.8711	-13.8621	11.6697	-7.6551	-2.7626	-1.9959	-6.4259	2.4836	7.4974
72.0004	4.3356	-2.1401	-10.5931	3.6244	-10.0459	-0.6414	1.5364	1.9015	-11.7206	17.1225	-8.3227	-4.0663	-1.1989	-0.5930	5.0392	8.5908
80.0005	-1.1857	-3.8740	-13.3226	1.9680	1.4575	-8.3191	0.2003	-4.6421	-18.6240	-1.5690	-13.0876	-19.1580	-3.9515	-4.1544	-4.8660	-0.3404
88.0005	4.0825	3.0151	-5.5759	4.8503	10.3891	1.0270	5.5841	4.4134	-7.4292	4.6536	-2.3530	-6.0652	-2.2002	3.4208	2.4548	4.7208
96.0006	8.6343	0.8856	0.0189	6.5275	4.9614	8.0854	7.7873	6.5607	-4.3836	15.5198	-0.9381	-22.4824	-8.7358	11.7458	5.7023	5.8130
104.0006	9.0622	3.8206	5.1980	5.7901	13.5349	9.7687	6.2306	5.1445	-6.0673	10.8085	-3.6202	-5.1419	-2.6115	5.3263	0.6580	-1.5884
112.0006	5.6054	6.1998	8.9698	6.9588	10.8526	14.3219	11.8434	17.1673	7.5377	16.6805	8.5130	-0.0751	-4.4333	19.5292	15.5509	12.5742
120.0007	-4.6603	-1.5131	-0.1348	2.6434	-11.5581	8.8573	1.0867	1.4127	-3.5704	8.4214	0.3175	-7.1402	-6.0847	19.4734	10.0140	8.8985
128.0007	5.6773	3.0068	3.5935	0.0646	4.1172	19.6287	3.7705	8.6875	-10.2456	8.1216	-7.3229	7.5858	1.2191	8.1619	2.2204	-0.6817
136.0008	9.3185	5.3672	9.6036	9.4962	16.4172	18.3067	15.6074	24.1753	3.2073	26.8088	5.6661	-2.6062	-4.8491	19.0371	9.0112	10.5284
144.0008	-3.6331	-0.8957	6.4282	5.6548	2.1157	-1.4530	0.9224	-0.3055	0.1125	11.2373	2.0410	4.7991	-1.5062	14.4205	-4.3190	5.7993
152.0009	2.9189	4.1655	10.8450	5.2168	2.8855	5.5828	2.5091	3.5940	-1.0074	-3.0778	0.1157	1.7227	-1.0711	5.0119	0.4093	5.8082
160.0009	2.1061	3.5010	8.4899	7.8890	-0.5243	3.4375	5.1312	4.2319	-2.6073	6.0896	9.2994	-7.2810	-4.9889	4.4166	10.7789	10.2633
168.0010	-7.3996	-4.1044	6.0371	-3.6516	1.3706	-3.4908	-3.2687	-10.0918	-8.8365	-2.6000	3.4630	-3.8421	-1.5263	-2.3732	0.4876	-0.9849
176.0010	-3.7370	-1.9684	8.9106	-1.4799	4.7110	7.5299	5.6616	9.3468	-6.2198	-10.0928	-4.1964	-21.0354	-6.5574	0.4187	5.3114	0.7697
184.0011	2.6876	1.8919	12.4655	4.0610	2.1241	9.1810	9.1799	17.2378	-3.3048	-0.2799	0.3183	-16.4655	-6.4371	7.9917	9.6239	6.6800
192.0011	12.0351	9.5051	20.0954	10.6870	23.4902	12.4445	17.0168	18.6303	10.2392	8.7202	14.6499	-20.0377	-10.3962	17.2222	17.2331	15.6671
200.0012	6.3925	7.3849	5.7427	10.3642	14.1163	4.5327	13.7713	13.6636	10.4314	4.6677	12.1673	-22.0616	-10.6804	16.3399	18.2142	18.3470
208.0012	5.9020	-1.3996	-0.2913	-0.8948	-6.4103	-2.4608	-0.8484	0.3422	-4.4864	-4.3986	-4.8767	-14.8687	-2.8986	2.6404	-4.9019	1.5155
216.0012	26.7850	11.1934	24.1889	15.2143	19.0360	17.4743	16.7009	18.5490	9.1536	8.6263	8.1954	-34.8746	-13.2837	13.2249	5.6123	11.8625
224.0013	14.4056	8.1804	20.0421	13.4558	14.7750	8.8488	15.1957	15.7092	10.2331	17.6201	15.2834	-19.0337	-10.4282	16.5361	15.9612	19.7509
232.0013	-4.7542	-8.6481	7.7722	-7.0642	-0.1987	-11.2979	-1.5252	-3.8038	-7.8575	0.0858	-1.7391	-15.1557	-2.6014	-5.0880	-1.3182	-1.5389
240.0014	5.3815	-0.3090	15.0382	2.3625	13.8631	-1.1704	6.6028	0.8709	0.1949	-4.3419	5.8020	-34.8971	-10.4967	-3.8001	5.1897	-1.1869
248.0014	7.0196	-0.5214	6.2728	0.0238	1.3274	2.2234	0.6237	-4.2449	4.0165	3.1359	10.0516	-19.5551	-6.1438	1.6186	-1.2607	-1.7927
256.0015	8.2399	-5.9159	2.8237	-5.1988	-5.5207	-0.5821	-1.6111	-1.6456	3.0567	6.4019	2.2678	-21.4763	-4.1833	-2.3902	-9.7041	-6.5691
264.0015	10.1300	0.7914	9.6205	2.5042	6.3036	0.3889	7.2461	6.4013	10.0947	11.1679	10.0535	-21.0650	-7.0732	2.3757	8.6813	5.9676
272.0016	4.6652	1.9670	6.2589	4.9752	6.6519	0.8561	5.2140	3.5245	3.0313	6.5701	9.4539	-12.2298	-5.0506	3.2606	3.4756	4.2392
280.0016	9.2945	6.8319	11.5606	13.6156	13.1164	4.1612	9.4022	9.2958	0.3950	4.9120	8.8960	-15.8960	-6.9136	4.5223	0.2156	3.0197
288.0017	10.8899	8.7130	20.3703	13.8146	9.0414	2.2097	10.6743	12.2067	5.0059	8.6712	16.2486	-10.5943	-6.2908	6.3972	12.3119	9.5226
296.0017	13.2941	9.5685	25.0896	13.8063	5.4801	4.8423	12.5335	18.7659	9.6712	6.3852	15.1525	-12.6030	-6.8174	6.6535	15.6909	12.1830
304.0018	16.4159	13.8539	27.7755	14.8382	21.8686	7.0574	15.0470	13.8547	17.4100	9.1968	15.5767	-5.7791	-6.3224	9.2630	22.6485	17.2078
312.0018	11.0492	11.1140	26.7817	11.0860	26.0820	8.7663	10.5016	0.1622	13.8684	9.3230	16.5348	-3.9502	-6.4799	8.3449	19.8550	12.6075
320.0018	9.7071	13.9358	26.4875	21.4323	17.7458	16.7734	17.2631	16.5256	12.2477	12.4339	18.0233	-10.5431	-10.9533	15.2811	24.1440	19.6331
328.0019	-3.4901	5.2436	12.2138	9.9391	4.0712	5.0673	11.1413	15.5631	2.5277	8.6284	7.9703	1.7948	-4.5001	11.5333	23.0548	22.2805
336.0019	-7.9862	-5.1467	3.8173	-5.4733	1.0143	2.5182	1.7204	7.7159	-13.8478	-10.4525	-9.2105	-9.6803	-2.1766	6.6358	-5.2709	4.0278
344.0020	5.6608	0.9797	9.7270	2.9033	0.6116	11.2346	9.4211	20.7769	-1.5694	2.4562	0.7340	-20.9607	-8.4753	28.9756	-0.9190	13.4889
352.0020	-8.1233	-12.8967	-9.1970	-13.8472	-27.8212	-13.2671	-10.2426	-9.1342	-5.8558	2.7065	-2.0496	-8.5303	-0.7214	11.0676	-2.5338	2.9284
360.0021	-11.2471	-16.2510	-13.3060	-15.6155	-21.7803	-15.3812	-19.6464	-28.3434	-19.0878	-22.7991	-18.0998	-19.2239	0.9628	-22.2325	-27.2969	-27.9064
368.0021	5.5617	2.7206	13.8107	10.9639	10.7528	1.5376	4.5776	-1.2117	4.3338	-0.5768	0.6948	-21.1016	-7.7988	-4.2486	-2.4465	-5.5978
376.0022	-3.3438	0.2937	19.9657	3.8658	-1.6488	-15.1050	-0.7821	-3.2844	4.8002	0.5612	4.4119	8.2565	1.7549	-8.3691	11.1446	3.0100
384.0022	-2.6472	2.4527	25.6608	-1.8374	-1.5060	-12.7704	-7.0250	-8.5890	-3.1843	-22.8007	-3.7732	19.3770	8.3360	-21.7539	1.7729	-8.0865
392.0023	0.7127	7.3202	30.6947	3.2823	10.7479	-3.0485	1.7495	-2.6023	10.5094	-10.5675	6.8906	13.7441	2.0077	-4.6055	17.3556	5.9677
400.0023	-8.9234	2.5324	17.3092	-4.7142	-0.7448	-10.4425	-4.8935	-5.4183	-0.4795	-22.8309	-5.9702	21.0899	6.6017	-2.4802	12.7217	1.9701
408.0024	5.6367	11.7254	18.4560	4.3290	3.3002	1.4643	0.6544	6.4031	-1.2205	-16.6574	-8.9073	28.4436	7.8717	7.8602	9.7906	6.4589
416.0024	11.5113	9.4202	14.7288	4.2461	-9.1861	-3.1301	-2.8793	-0.2575	11.0666	12.8588	8.5737	41.1472	10.4645	9.2899	10.9230	13.6042
424.0024	7.3008	3.0617	2.7709	-9.7826	-24.7187	-13.1965	-19.2970	-15.5794	3.2204	-7.1438	2.8387	57.6054	22.3956	-16.2124	-14.8548	-10.3486
432.0025	22.1455	13.8141	12.0582	1.1516	-3.0890	3.4003	-9.0436	-4.6450	13.8399	-4.2984	8.0401	50.1334	17.7753	-7.0576	-16.9371	-9.7553
440.0025	12.2120	7.6703	16.6556	1.7949	-3.6045	-1.1238	-7.1098	-5.5262	19.9440	8.3206	13.7264	41.0552	11.6386	7.4695	-11.6395	-1.1742
448.0026	-9.8060	-4.1579	14.8804	-10.0579	-10.3711	-10.5680	-11.5557	-3.9215	1.9555	-14.5708	-4.7203	34.3911	12.7577	-0.3112	-16.8122	-8.3584
456.0026	-10.0905	-3.7797	18.4999	-9.0412	-1.7699	-9.2261	-6.0824	0.6858	-0.2023	-19.5408	-9.5752	19.9980	8.3859	-4.4860	-7.7308	-5.8206
464.0027	-9.1138	-5.7219	22.5850	-11.3439	-8.4879	-16.3515	-13.2411	-14.9391	2.9180	-27.7499	-9.9805	12.9063	7.0761	-9.6296	-10.3613	-10.3496
472.0027	1.1988	0.8423	33.5859	-5.4871	-1.4152	-7.6852	-6.3247	-4.8702	9.4331	-26.5201	-7.7381	6.6849	3.5190	0.5734	-4.5224	-3.9112
480.0028	4.8264	0.7701	26.3626	-6.8642	0.8307	-9.9729	0.0113	4.9493	19.5816	-4.2795	5.0005	9.4485	3.3326	7.9292	8.6513	7.6628
488.0028	-12.7125	-13.8981	11.0362	-23.6091	-11.8549	-27.3057	-13.6154	-11.0798	8.9793	-18.4819	-3.4998	9.8318	8.8162	-10.9814	-9.1173	-8.6820
496.0029	-14.3671	-12.1632	20.9991	-20.8630	-6.7677	-17.9892	-11.4233	-5.7557	0.5300	-37.6496	-16.1644	0.4078	6.3428	-15.5013	-14.4997	-13.5873
504.0029	-14.7989	-11.2424	24.5369	-20.2982	-18.6576	-15.6784	-13.2774	-5.8131	1.2724	-40.3238	-17.7546	2.3754	5.8514	-10.2689	-7.1638	-10.2916
512.0030	-17.1113	-13.4812	27.1577	-17.9404	-20.5956	-18.0281	-14.1763	-9.1700	0.6821	-39.5148	-17.5778	-7.2582	2.2916	-8.1387	-10.0347	-14.2797
520.0030	-3.0879	-0.5746	40.2425	-2.3656	7.5373	-6.0026	3.4353	7.3499	15.3738	-25.6714	-1.5529	-18.3183	-6.1594	7.4520	5.7066	2.8087
528.0031	-6.4428	-3.6930	30.3810	-11.4436	-0.5032	-10.2876	-2.2600	0.2332	16.2651	-29.2333	-0.8328	-11.1465	-2.5847	6.2130	6.4856	5.4614
536.0031	-6.4705	-6.0035	28.0563	-10.6950	-8.8598	-5.4767	-7.2422	-1.8827	3.6081	-30.1907	-15.4232	-3.3075	1.5187	-2.0990	-8.1555	-5.5724
544.0031	1.0272	6.1744	32.7273	5.6262	-1.6458	-3.9344	-2.2725	2.1047	16.9554	-11.8027	-6.7193	25.2568	5.3392	10.1895	1.4251	4.9260
552.0032	-20.4496	-3.1836	12.7472	-9.4318	-26.1309	-30.4919	-24.9070	-23.0979	8.1236	-29.3093	-17.9175	67.5144	22.9021	-5.9832	-13.4364	-11.4574
560.0032	-17.4742	-2.6679	16.7349	-11.2168	-27.4198	-20.3702	-26.4719	-15.5788	-14.3683	-42.8098	-33.1424	73.2101	28.6955	-23.2458	-28.3491	-27.6818
568.0033	-0.5613	9.5929	27.2638	4.3422	-7.1368	-1.5828	-8.0102	-3.6934	7.6323	-18.6800	-8.5985	47.7802	13.2084	1.2508	0.5184	-2.0170
576.0033	-15.0994	-2.0261	3.3711	-8.1584	-15.5612	-16.9134	-15.5243	-20.3058	13.1373	-20.3514	-6.1648	33.6943	10.3837	-1.8629	1.9559	-4.4310
584.0034	-11.3111	-4.0091	-11.5121	-10.8450	-13.3405	-7.8100	-6.7413	4.2214	-0.4342	-19.5612	-12.2100	17.9412	9.4846	-10.5392	-3.7650	-10.5772
592.0034	-6.8299	-2.2042	-25.9905	-1.2773	-6.5301	1.3720	5.6428	15.0296	4.6137	4.1097	-0.2763	-7.3093	-2.1823	3.5250	8.7565	4.6082
600.0035	-12.6576	-9.6230	-45.5742	-5.5685	-11.1436	-8.8187	-4.3368	-5.8396	-7.3868	0.3494	-9.6412	-13.2346	-0.6651	-14.7886	-6.7351	-10.6454
608.0035	8.5280	3.6843	-41.7230	5.6298	0.1785	7.4263	7.9088	10.1319	1.7180	11.4197	5.5013	-19.8137	-4.7931	-7.9210	4.2899	-0.7165
616.0036	4.4993	6.1291	-52.3461	6.2082	-3.1656	9.6006	9.7460	7.1764	18.0436	26.2672	23.4148	-12.0740	-7.7079	15.4046	22.5325	20.4332
624.0036	-18.2156	-11.2506	-72.4673	-16.7005	-21.4947	-9.7210	-12.2059	-13.4325	-14.8223	-2.8146	-8.5717	8.5101	8.0469	-16.9676	-9.0713	-9.3113
632.0037	-6.4425	-8.0101	-62.0563	-9.2229	-10.4681	-0.2398	-3.6704	-1.8108	-19.3880	1.9144	-11.0408	-8.6324	3.4722	-25.4242	-11.5032	-12.6714
640.0037	0.9780	-0.3640	-50.3536	0.0587	10.3682	7.9499	8.1216	3.5226	-1.0357	22.1867	6.2216	-13.3889	-4.1054	-4.4054	7.6509	6.3177
648.0037	-4.7934	-1.8419	-47.9701	-10.2515	12.8910	-0.1580	2.8872	2.0956	-12.7505	-0.7615	-4.2279	-1.9476	3.1592	-8.2908	0.9113	-0.9013
656.0038	-1.2582	0.2862	-38.3196	-4.0146	7.6234	2.3710	4.2113	3.1104	-7.5130	0.3511	1.0266	-9.5864	-0.9539	-5.3490	3.1503	3.1378
664.0038	-4.6217	-3.7768	-38.2394	-3.5176	2.8087	-0.1600	3.5077	1.1919	-3.4625	14.1546	3.4720	-6.4558	-1.1412	-6.1507	4.0735	6.5658
672.0039	-11.7830	-12.0050	-47.5530	-10.7903	-7.1706	-9.5541	-2.3052	-1.8184	-16.4211	2.0518	-10.2915	-16.2215	-0.1082	-14.8180	-7.8142	-3.8931
680.0039	-10.2061	-12.4605	-43.8257	-4.6640	-12.2114	-6.1975	-6.3218	-14.5107	-12.6483	0.4477	-9.6052	-31.0743	-6.3990	-12.6870	-16.1499	-9.6794
688.0040	-4.4235	-7.9634	-32.9070	-1.3096	1.6189	1.8076	-0.9845	-8.8220	-9.9559	6.4067	-5.9357	-27.0312	-6.4182	-10.5880	-13.5419	-9.7299
696.0040	3.1498	-3.5600	-27.4508	1.9446	9.4856	7.4011	6.2566	2.5572	-3.5917	15.9737	-1.2713	-26.9668	-7.6714	-2.6613	-5.3469	-3.9770
704.0041	4.7389	-3.7387	-26.5514	3.0493	2.3681	4.3775	0.3648	-6.0827	5.8208	21.3589	1.6438	-14.8234	-4.4893	-1.5897	-13.2167	-7.1143
712.0041	0.6416	-3.1576	-26.2356	-1.3502	5.4964	-2.1222	-0.2901	-0.2285	-3.8956	6.5271	-3.9356	-4.1526	1.6040	-7.9860	-16.1706	-10.9561
720.0042	6.1316	3.1893	-15.1825	5.0693	14.6051	9.2109	9.6410	10.9414	1.2958	10.4515	3.7395	-15.0430	-5.2340	4.5693	0.5064	1.1339
728.0042	8.8806	4.1821	-5.1407	10.4046	19.3989	14.4427	13.6499	10.8896	19.5344	27.1779	14.0938	-18.1995	-10.2121	14.5439	6.7876	8.9140
736.0043	1.2497	1.6200	-9.8644	6.2805	18.1547	5.6620	9.7103	8.1119	15.3829	18.0660	6.9027	-7.1505	-4.9114	6.5225	2.5884	5.3708
744.0043	1.9600	3.0652	-10.5294	6.1878	3.4143	10.4023	4.9171	2.5026	12.8203	13.7250	8.1821	-3.7192	-4.5603	8.1508	5.8732	6.0707
752.0043	-2.9127	-2.5216	-14.3557	3.1774	-7.9597	3.7373	2.9192	1.8712	12.0579	16.7985	14.7735	-14.1274	-7.2636	9.1919	5.8689	5.4585
760.0044	-8.0977	-6.8777	-21.4368	-1.5998	0.1066	-5.4057	-1.4205	-6.5317	-3.8391	1.2531	2.2769	-18.5610	-4.2974	-9.7506	-9.2675	-7.1883
768.0044	6.9346	2.6785	-12.0173	5.8284	8.3961	8.1927	0.9344	-9.4565	0.5010	1.9752	2.6979	-15.7290	-5.0115	-10.3498	-6.7931	-4.3010
776.0045	8.2918	1.5264	-12.3294	3.9249	1.2339	2.8784	4.8174	1.7174	9.0109	14.8618	11.6595	-14.6756	-5.2800	-0.6752	4.9039	6.2759
784.0045	1.2619	-7.8580	-20.6789	-5.4683	-6.6951	-5.5336	-2.2710	-2.9945	-5.9761	6.9874	-0.4055	-18.0861	-1.9407	-10.9427	-11.9233	-5.6344
792.0046	9.2211	-1.1768	-17.0286	4.6077	-7.6314	5.0512	-0.7452	-5.8982	-1.5426	7.7048	1.3999	-24.6783	-6.9210	-2.8700	-9.9750	-2.7248
800.0046	8.3792	-0.0080	-20.6719	4.5927	-10.1030	-0.2944	-1.0469	-7.5901	4.0507	7.3838	3.5504	-24.0711	-7.3126	1.6627	-1.0863	-0.5156
808.0047	8.2201	-6.0750	-19.8763	-7.0397	-5.4679	-2.6760	-7.6494	-14.2350	-10.9790	-7.1353	-11.0089	-25.9931	-2.3797	-13.4562	-20.8113	-18.7303
816.0047	12.1120	-1.9701	-11.2898	-4.6915	2.4062	3.8120	-1.8868	-5.3611	-5.5054	1.1932	-4.1885	-18.8339	-2.4727	-2.0551	-14.2781	-8.3836
824.0048	4.6591	-4.7675	-14.7291	-8.9032	-1.0389	-4.8806	-5.5875	-12.1383	-2.6840	5.5005	-2.2115	-6.5456	0.6918	0.1132	-7.5534	-5.9374
832.0048	0.7025	-8.0122	-15.8250	-11.0087	-2.7888	-13.0750	-12.3012	-24.6002	-11.4339	-7.5805	-8.3927	-13.7406	1.0415	-12.2704	-16.8164	-22.3958
840.0049	-5.2489	-7.5273	-17.0974	-9.4823	-10.3654	-18.1779	-12.3909	-19.5729	-11.2280	-10.2396	-2.7617	-6.4811	3.0956	-14.9642	-12.0319	-22.4113
848.0049	-8.4067	-12.8659	-18.9069	-14.5629	-23.4161	-15.7686	-18.4231	-18.9811	-20.3846	-13.5609	-13.1994	3.2109	8.9453	-28.2786	-26.3884	-31.9999
856.0049	6.9223	-1.2965	-1.9706	0.4874	-6.8596	3.3092	-5.5145	-3.8495	-10.4185	-3.9469	-10.1695	-2.2358	2.7059	-12.6200	-19.8233	-18.2514
864.0050	14.7425	13.8443	12.3838	12.9922	14.3337	14.1691	9.4943	9.6465	11.6733	8.7288	10.5986	7.1821	-2.3199	17.0600	10.0986	13.0773
872.0050	7.9607	9.8553	10.2630	5.7115	10.2543	7.5112	2.9113	0.4576	4.5972	0.2391	9.8684	12.0130	0.8740	12.4771	5.5122	7.1966
880.0051	4.2995	7.1635	9.0602	4.1964	7.8242	2.1555	3.2493	2.0425	4.0855	3.4535	9.9310	9.6668	0.7237	8.8218	11.4359	2.7448
888.0051	1.4435	4.9607	5.0586	-0.9300	5.8683	2.5293	3.2475	3.3108	9.9889	3.9718	10.9149	9.7129	1.1764	5.6872	17.6577	2.1684
896.0052	-9.6071	-3.4765	-4.4702	-10.8481	-3.0783	-4.0039	-4.8730	-2.1746	0.3078	-12.4020	0.9473	8.0597	4.2108	-1.0626	-0.1374	-7.8085
904.0052	-19.0489	-8.8246	-6.9732	-14.2429	-6.3174	-10.3268	-7.9508	-6.4086	-5.3939	-16.9890	-6.2447	7.1692	4.3282	-1.0026	-3.1121	-7.3726
912.0053	-6.4360	-5.1907	-5.5455	-11.9298	-3.8269	-2.9098	-7.6146	-10.3669	-4.1787	-17.6440	-9.6674	-2.2702	2.2359	-6.7019	-4.6385	-9.9997
920.0053	11.2604	6.2417	-0.2542	-0.4650	6.9157	7.5988	5.2353	12.2658	5.2467	-5.3808	-3.0317	-0.1994	1.5974	-1.1318	3.7397	-2.0642
928.0054	7.6350	10.6086	11.6273	10.7001	12.8769	16.4891	15.2140	27.1387	8.6981	15.0793	6.1680	13.5523	0.1264	11.0274	18.4751	14.5457
936.0054	-4.5396	8.9603	9.3768	12.2059	8.1218	18.1481	4.4398	-0.3032	2.3884	12.0587	9.9511	24.7359	-0.2321	16.5476	11.8832	16.5739
944.0055	-7.7330	9.4848	-0.8585	10.8082	10.4631	12.7218	-0.1074	-11.2478	2.0847	7.4122	7.8001	32.6630	2.6782	13.5352	9.8037	12.3807
952.0055	-1.1449	6.3853	2.0286	9.0501	2.0131	14.8723	3.1026	6.4249	-9.2412	8.6515	-3.3814	24.7656	4.5843	-0.6339	4.4587	2.6062
960.0055	1.5054	2.5326	-2.4499	0.1567	-16.2375	11.1931	-2.5415	7.5726	-16.8999	2.1943	-4.1949	22.3210	6.9572	2.5813	-2.3891	2.9472
968.0056	3.1609	4.9275	-5.2391	-3.2112	0.0313	9.0611	-0.4283	0.0889	-7.6859	6.0790	3.3485	22.6045	5.6995	9.4482	8.4907	9.7989
976.0056	16.1727	12.9439	11.1372	7.2489	27.1830	21.3253	11.0213	8.9503	-2.5075	21.0221	10.4944	18.8688	2.5615	5.7646	13.3160	6.5818
984.0057	14.6853	12.7875	7.6677	7.0438	17.1749	14.9354	10.4363	15.2504	5.1431	23.6370	16.4171	26.2586	4.7332	12.9327	13.9975	10.3005
992.0057	1.6920	3.7863	-7.1781	-1.3562	4.7393	2.1525	1.9712	3.8138	-0.9685	11.7313	3.7015	21.9791	5.8079	6.9134	8.8194	6.4583
1000.0058	4.5748	2.1586	-1.6803	-3.7337	10.1571	4.8820	0.4792	0.7382	-17.6250	6.8796	-5.9436	18.0795	7.0603	-3.2809	0.0406	-2.4567
1008.0058	5.1206	2.4317	1.2388	-4.2515	-1.5860	3.1240	-0.0002	6.4987	-13.6752	7.3910	-3.3420	22.7444	8.0792	3.9761	3.9148	4.3188
1016.0059	6.3588	6.6354	8.4573	5.3402	-2.2464	10.2368	1.2031	4.0018	-8.8487	8.8423	-4.5229	22.8542	4.6273	10.2833	6.5342	9.5774
1024.0059	17.6744	18.0669	25.5957	17.0697	27.9234	24.9848	13.9577	10.7616	0.5555	26.7991	9.5182	26.3718	0.1857	25.9756	19.7111	21.7222
1032.0060	12.9633	16.8149	18.7844	16.1214	31.3683	19.3844	17.7297	15.5190	11.5997	31.6772	15.3701	23.3650	-1.8884	33.1020	27.7115	29.6268
1040.0060	-3.6482	3.8732	2.3004	3.6938	10.7069	2.9997	1.1584	-2.3087	-4.9462	6.6138	-3.5832	22.1608	3.8236	10.7498	4.3117	7.4969
1048.0061	-12.4665	-6.7413	-0.8383	-11.8800	0.3217	-9.2857	-8.4642	-11.8597	-15.0273	-6.7394	-6.4959	15.5103	6.8858	-3.7593	-4.5389	-9.2668
1056.0061	-12.0722	-9.6593	-4.5838	-14.3360	-5.8756	-9.7828	-6.4147	-7.3815	-9.4057	-1.5416	-0.8755	1.7141	2.7512	-1.3454	1.6896	-7.5134
1064.0061	-7.7258	-6.9898	-6.7364	-8.4046	-5.0106	1.8595	-5.3102	-7.0088	-14.1517	4.2997	-3.9367	3.0603	1.9142	-0.4997	-4.2361	-8.3765
1072.0062	-2.7432	-3.4656	0.0711	-1.4156	-6.9734	11.1976	0.1600	5.3783	-12.1487	8.6650	0.4514	-0.5537	-0.5732	2.2334	-3.9166	-5.1844
1080.0062	1.9189	1.9421	5.7002	5.8565	-10.3938	11.3401	4.9908	17.1750	-2.9452	11.1407	8.7099	2.6920	-1.3401	11.1806	0.4560	5.4231
1088.0063	-2.9738	1.5860	5.9210	3.8848	0.8292	8.2168	1.2385	3.1674	-3.3543	9.4716	7.4341	12.9465	0.9627	10.7461	-2.6025	4.9573
1096.0063	-4.3242	1.9248	8.9102	7.1978	12.3401	15.9499	4.3140	2.3075	-2.4516	6.0237	2.0249	2.2762	-3.2836	7.4152	-4.9859	0.5946
1104.0064	5.9276	11.3686	14.5881	22.0689	18.6316	24.4805	16.3989	22.4611	6.3184	11.9184	7.0230	-5.5338	-8.7220	20.8841	0.9628	12.6273
1112.0064	0.7021	8.7519	11.9334	23.1944	6.8560	13.5986	10.4486	12.4339	6.2933	12.3920	7.8314	-1.1090	-7.6429	18.7676	0.5134	13.2646
1120.0065	-10.9186	-2.5001	4.4702	8.3982	-13.6974	0.7623	-6.6877	-10.0276	-4.4888	0.9500	-4.4711	10.4770	0.2893	-0.5987	-10.2712	-2.5105
1128.0065	-8.4105	-2.2703	4.6164	0.4773	-4.5320	-2.5703	-5.8351	-5.6227	-9.6720	-2.0992	-6.3859	20.0331	6.1204	-5.4318	-9.8879	-4.5914
1136.0066	0.1503	3.5831	12.2149	4.8868	4.1178	-1.5354	-0.9755	1.1553	-7.2188	-2.5781	-0.7869	19.4931	6.3725	-9.9602	-6.3085	-5.0598
1144.0066	9.5953	9.4544	19.0879	13.4455	2.3551	7.1601	0.3659	-3.7010	4.3527	8.3522	6.4145	18.9680	2.7186	-4.2619	1.7138	1.1036
1152.0067	5.4783	11.0436	16.8524	18.1498	16.4331	9.2600	4.8562	-7.5008	10.8942	21.8521	11.3193	22.0468	-0.4645	6.3817	11.2508	11.3926
1160.0067	-8.7067	2.4805	7.3397	5.3450	12.5509	-2.8752	-1.4905	-5.7635	-1.7454	3.3999	-2.5981	30.6204	7.1237	-2.7547	-3.7981	-0.3365
1168.0067	-6.1411	-1.4150	6.3285	-4.5654	0.9118	-6.6647	-3.7348	2.0220	-3.4499	-11.3735	-11.4476	19.5922	7.5784	1.4287	-9.0533	-2.1421
1176.0068	6.5351	6.7339	14.1745	7.6362	10.5447	2.1881	7.3810	9.7992	6.5210	-0.2114	-2.4762	0.4563	-2.0058	10.6516	8.3248	10.7985
1184.0068	5.3240	3.5610	8.4905	5.9451	3.7661	-0.2465	6.4832	10.3575	4.8898	10.0996	0.6890	3.9014	-0.1071	1.8917	10.1201	9.1949
1192.0069	-1.6366	-5.7819	-1.2352	-3.3032	-8.9440	-6.0476	-1.2474	2.6566	0.5428	7.1966	-4.2364	-1.8811	0.6237	-1.3501	-1.9841	1.0292
1200.0069	6.9174	1.3745	8.4761	5.2770	4.0530	4.2708	1.6055	0.6312	-4.3787	-3.8167	-7.6515	-13.2790	-3.6828	-0.9710	-8.5114	-3.7023
1208.0070	12.9912	4.5895	12.6446	6.8233	11.1516	4.5406	8.5507	9.6992	-3.7300	4.7489	-1.6666	-14.9454	-4.5977	-0.1067	4.4678	5.2326
1216.0070	5.5720	-0.0765	3.7655	4.4468	4.5866	-4.8446	9.0662	11.5602	1.1926	11.5601	1.0561	-16.3772	-5.2946	0.5057	12.1299	12.0583
1224.0071	5.9235	1.6301	6.8304	7.0472	2.3539	0.4605	5.8347	8.6155	-2.4208	-2.9851	-4.9828	-18.5082	-5.4489	-1.6349	-0.5756	4.5337
1232.0071	5.3428	-0.4495	12.0191	4.5317	-1.9752	1.5682	5.5037	8.3247	-0.2128	0.2885	1.5699	-23.9079	-7.7630	2.6439	2.6636	6.1211
1240.0072	1.4844	0.2693	13.4634	3.0949	0.8990	-1.5779	3.8081	2.6636	3.7771	-0.7159	5.2958	-15.6616	-6.1890	3.7744	8.1617	6.7249
1248.0072	3.5177	2.5787	15.0705	-1.4100	9.6240	-1.6593	0.3475	-3.6287	-0.3771	-12.1454	-1.2256	-4.8840	-1.2655	2.2534	1.7868	2.2603
1256.0073	3.5271	1.3744	14.3147	-1.3859	8.3810	-3.9419	2.0806	-0.2607	1.2942	1.2643	4.8772	0.4840	-0.0705	1.8159	6.6628	5.2630
1264.0073	6.7112	8.6848	17.4876	10.0863	9.6795	0.6249	8.0928	9.7501	6.7458	7.5839	12.2545	7.4572	-0.4775	2.8061	14.8075	9.2784
1272.0073	-1.8024	4.3607	10.5861	4.9213	1.8009	-9.0828	2.9418	4.0422	2.4739	-4.4140	5.5243	5.8254	0.3550	3.6079	12.4321	9.0233
1280.0074	-9.9002	-4.2165	4.9967	-3.6179	-10.4958	-18.0172	-5.7887	-4.0927	-10.5059	-11.6549	-5.3417	8.4081	4.7385	-9.2138	1.2531	-1.2224
1288.0074	14.4745	12.4574	21.5902	14.9200	4.6448	6.1594	7.8052	12.3459	-3.0657	0.0915	6.6818	4.0179	-0.3684	-2.4105	8.6387	6.2770
1296.0075	17.4856	16.1376	20.7925	19.1165	5.3151	9.1870	10.5925	9.2250	16.1357	20.3632	28.6565	7.7685	-4.2965	17.3080	21.4827	21.6325
1304.0075	-7.2569	-2.6138	4.0445	-3.0037	-12.4513	-12.3542	-8.9932	-13.4551	2.5417	2.7619	13.0298	18.3323	5.1810	-3.5431	0.2218	-1.7518
1312.0076	-3.7334	-5.0053	5.2662	-6.4472	-2.0434	-8.9246	-6.2739	-7.3172	-10.3722	-18.1198	-6.9527	-7.0565	2.2580	-20.0199	-11.3753	-16.4981
1320.0076	-2.0072	-7.9434	3.2534	-7.5855	-0.3771	-8.2583	-1.4173	-0.9430	-1.2557	-2.8480	-0.8116	-16.7319	-1.7183	-13.2123	-6.1270	-8.9400
1328.0077	-11.0765	-16.5118	0.4873	-15.2867	-11.7091	-15.7503	-8.3331	-6.9228	-5.1767	-6.4448	-4.2726	-17.9853	-0.0580	-19.0193	-14.7709	-17.6371
1336.0077	0.5382	-6.3134	9.6229	-3.2242	-3.7236	-1.3260	-2.6527	-5.0438	-4.2887	-18.0376	-6.8947	-36.3843	-8.1601	-11.3988	-11.2736	-14.3504
1344.0078	6.9292	0.0109	7.2829	6.9288	-6.3848	8.0312	1.1443	-1.0813	5.2397	-1.6045	1.2326	-28.5111	-9.9766	3.7273	-5.9726	-2.6544
1352.0078	2.9543	-3.3663	3.3312	6.9605	-10.9549	-0.3598	1.9950	5.5072	3.3256	3.7183	0.3139	-26.3689	-8.2763	1.4722	-7.7256	-3.0465
1360.0079	6.9990	0.6508	11.4515	4.4761	2.0784	2.8018	3.7242	5.4165	5.1414	-5.3200	-1.9415	-23.2079	-6.8369	0.9063	-4.2639	-3.3616
1368.0079	7.7438	0.6443	12.6487	-0.6513	2.4076	9.6672	1.0979	2.2167	9.6444	-3.1464	-2.7321	-11.9435	-4.0757	8.3222	-5.6026	-2.5258
1376.0079	8.4201	0.4917	9.1140	3.3510	-3.4521	3.4691	2.0368	3.1915	11.4440	0.2174	-3.9219	-19.1274	-7.0438	15.5876	-2.0879	3.2533
1384.0080	13.9643	2.8943	10.6666	4.4264	0.7693	-0.6331	0.9648	-2.9511	10.3072	2.2677	-0.8749	-15.8852	-5.2295	8.0555	-0.7486	1.4585
1392.0080	10.4628	0.4733	12.8023	1.7236	4.2348	-1.7976	2.0858	1.3832	4.9145	6.2295	3.6611	-9.9634	-1.9180	-5.7760	-1.8193	-4.5253
1400.0081	3.4225	2.7514	16.7656	3.0600	8.0076	-0.1627	7.6459	13.3972	6.6758	3.9032	5.0420	-1.1748	-1.2167	1.3547	10.0215	5.5790
1408.0081	4.4547	5.5580	19.0773	3.5923	7.8025	9.6918	7.9485	11.8737	9.1278	4.0716	5.6910	1.9024	-2.9759	16.1404	14.1088	14.4231
1416.0082	5.2767	4.8492	17.6091	7.0704	3.1640	9.6122	6.7336	9.4752	6.4911	4.7952	8.3396	-6.2607	-5.7135	17.3754	6.9616	12.4517
1424.0082	5.2057	4.7557	19.6557	4.7047	1.9208	4.1457	3.6286	8.9015	4.2676	-4.1663	3.4987	0.7846	-1.2144	9.1699	1.1878	4.9647
1432.0083	14.3096	6.6161	24.0695	7.6601	-6.7703	8.7953	2.3945	6.0140	6.9809	1.7145	5.7100	-3.3065	-2.6489	5.2427	3.9267	3.7727
1440.0083	18.6851	11.0056	26.9921	14.9609	-10.1919	8.6043	3.7224	4.2690	16.9000	11.8237	20.1474	0.2938	-4.2162	8.4878	10.5553	12.2486
1448.0084	4.3010	6.1704	24.7998	3.6066	4.7133	-2.7696	1.7285	0.6991	14.3384	-3.3360	15.4162	8.5095	0.1944	6.5149	7.7297	10.1263
1456.0084	-8.3687	-1.2476	18.2798	-2.9701	5.6443	-14.1019	-0.7417	-4.1684	3.1670	-14.0297	5.4179	-1.2911	-0.6303	-1.4415	8.2333	4.3970
1464.0085	-5.6926	2.3594	19.0765	2.9613	-3.1230	-11.1324	-1.2346	0.2676	2.7384	-15.1762	6.3010	6.2633	1.4438	-4.5291	5.6644	2.7490
1472.0085	3.7591	11.9111	27.2148	14.0025	4.8823	4.6027	6.8866	14.4938	6.7461	-15.0232	9.4840	5.9118	-1.5276	9.6509	4.0617	9.6207
1480.0085	4.8650	14.3295	25.1406	17.8982	0.6831	4.2584	6.4414	8.1302	13.9961	-0.2280	17.4547	15.4728	-2.1040	20.7830	15.3770	22.3320
1488.0086	-12.0939	-3.9902	9.0430	-5.7582	-22.1978	-14.3690	-14.7494	-18.8044	6.2953	-6.6318	4.1655	30.8246	8.7552	-2.8304	-1.4687	2.5695
1496.0086	-17.1830	-13.1219	7.3581	-13.5461	-19.1996	-16.6521	-20.2335	-28.2159	-10.9231	-27.7410	-14.4790	2.7831	5.2362	-21.5036	-20.6370	-21.7697
1504.0087	-0.8650	1.0541	25.0861	4.4657	4.6682	-0.7834	-3.6673	-13.6103	0.7256	-15.5794	-1.8174	-11.3815	-4.3669	-8.3773	-2.0606	-10.9732
1512.0087	0.1377	2.9529	28.5507	8.8484	6.1740	2.7645	5.7965	6.4112	15.9475	-2.7548	7.7822	-11.8791	-6.7847	1.7521	7.5639	-1.2979
1520.0088	-6.8135	-0.7044	24.0354	6.3337	-2.7707	-4.0803	2.3335	5.0768	11.9422	-10.7583	3.3211	-13.4746	-6.2650	1.4461	4.1725	-2.3741
1528.0088	-3.9325	0.8212	29.0963	2.6110	1.4490	-2.1023	-1.7918	-5.7879	6.3879	-15.9662	-1.0217	-6.4050	-3.5455	-1.3491	4.9490	-5.1092
1536.0089	0.0625	0.5648	29.7476	3.8919	-0.8788	1.3356	2.1874	2.5351	7.7224	-13.7045	0.1505	-20.1819	-7.7875	3.3660	6.0979	-1.9344
1544.0089	1.4990	1.6364	26.9668	8.9067	-7.4938	-4.0059	2.9289	1.0256	16.8257	-8.1272	9.5455	-25.9847	-11.3090	8.8129	10.4366	8.2055
1552.0090	-7.2579	-4.6881	24.0323	1.1970	-6.7121	-12.5743	-2.9477	-6.5021	8.8837	-17.8197	-0.9543	-21.1062	-6.9565	-2.4815	0.4943	-0.0817
1560.0090	-12.6219	-8.5149	23.0533	-8.4185	-11.5219	-16.2980	-5.3579	0.6085	-2.2584	-31.1233	-11.9525	-15.9575	-2.2306	-0.7018	-4.2354	-4.2498
1568.0091	-10.2220	-7.9373	26.1412	-13.6199	-15.5170	-17.1104	-7.5251	-4.0830	7.1382	-25.6940	-3.0542	-7.6443	-0.5745	4.7967	5.7277	2.7352
1576.0091	-17.4513	-14.6640	19.1158	-16.5015	-16.0737	-21.9793	-12.5163	-12.6200	-2.0680	-28.7316	-12.9190	-10.0180	1.1177	-11.8765	-7.2767	-9.5817
1584.0092	-17.0879	-14.4576	13.0466	-18.1244	-12.7213	-24.1761	-14.2216	-14.0742	-11.3536	-36.4580	-20.5614	-8.3985	3.6243	-14.5967	-15.1598	-14.5888
1592.0092	-0.5298	-0.0175	23.7425	-5.7912	8.0876	-7.4153	2.2735	2.5890	11.1547	-23.2747	-0.0588	-17.2299	-4.1202	-1.0948	9.8050	1.0086
1600.0092	11.1592	14.1824	26.0296	16.2029	14.9483	17.0203	20.1010	31.2116	27.3375	-0.3732	13.3517	-15.3126	-10.3659	16.7703	25.9239	17.3152
1608.0093	1.6378	2.9564	-2.5018	1.4864	-7.4343	10.7711	3.7940	7.8087	23.4268	11.0971	3.4503	5.2107	-2.9080	23.3421	15.1429	16.2009
1616.0093	-9.6616	-12.1607	-33.4767	-19.5044	-10.9349	-7.4275	-10.7966	-20.3089	10.3957	3.1089	-12.4115	-2.6965	1.5182	-0.5324	3.7845	-5.1613
1624.0094	-1.9717	-4.4438	-41.7205	-9.1282	-3.8707	-2.5094	-0.0498	2.4680	3.8260	1.9376	-11.2664	-8.3387	1.1601	-7.7980	4.4372	-8.3031
1632.0094	-8.9638	-9.3427	-57.5485	-13.4571	-20.3154	-5.8486	-6.2135	-2.4581	1.3248	4.6314	-8.8335	-1.7506	3.4228	-4.7594	-2.1550	-4.3591
1640.0095	-12.1508	-11.9418	-76.2671	-18.6701	-18.8560	-4.7022	-13.1107	-15.9591	-10.2010	-2.1167	-20.0527	3.2529	7.7789	-20.4153	-13.0582	-17.9510
1648.0095	13.6804	1.9238	-69.3294	-5.5417	1.6252	15.6408	1.7184	7.1094	-5.2569	15.9004	-16.9796	4.8247	7.1720	-14.5641	-10.7989	-14.9764
1656.0096	10.6590	-3.2929	-66.1865	-8.4238	-3.8196	6.8591	2.4984	7.6032	4.2636	25.8559	-5.5409	-4.7420	3.0575	-4.5006	-6.7609	-3.7199
1664.0096	-6.6985	-7.0984	-72.4487	-12.7698	-10.2434	-5.1715	-5.5004	-5.5326	-7.4150	2.6654	-8.7995	-1.9187	4.8180	-11.5242	-8.9731	-6.5795
1672.0097	-3.9102	-4.9988	-68.1444	-5.8577	-4.7801	2.7318	-2.2733	-0.7170	-15.8520	1.5473	-16.8451	-6.6291	3.1561	-15.0728	-15.8983	-10.6605
1680.0097	-3.4371	-3.1242	-56.3375	2.5461	0.3376	7.4841	5.2955	8.4239	-9.8153	15.3815	-9.5874	-9.6748	-1.2489	-9.1971	-7.4666	-1.4252
1688.0098	-1.1708	7.7310	-45.0711	9.9910	9.2715	16.0477	11.5920	14.1149	-1.4336	21.1381	5.0897	9.1018	-0.8134	8.3100	12.2373	15.4250
1696.0098	-3.9306	1.9827	-44.6989	4.5424	0.3954	10.5056	3.7451	6.0204	-10.1579	18.8728	-3.2836	14.1694	3.0827	3.6626	-0.7916	5.7562
1704.0098	-5.3147	-1.2897	-36.8063	1.1672	-5.9586	4.5373	-0.6680	4.2457	-17.5091	8.8100	-8.5213	13.9819	5.8792	-8.5163	-9.1323	-2.8261
1712.0099	-0.6382	2.0063	-27.4549	0.6146	0.8446	9.5560	4.6612	7.7757	-5.0817	14.3139	2.8922	9.7318	2.0408	2.3434	5.4569	10.6036
1720.0099	-9.8418	-12.6954	-36.7169	-16.1746	-16.0949	-5.7269	-10.0532	-10.2971	-10.6070	10.9746	-8.5646	9.8292	6.7249	-5.9207	-11.3460	-4.2319
1728.0100	-11.5084	-14.5281	-32.2480	-23.1667	-20.4146	-11.5610	-19.4897	-23.6104	-13.9903	-8.5633	-16.3406	12.6493	10.4868	-14.3790	-20.3222	-18.4582
1736.0100	-11.9415	-13.4734	-27.8992	-21.1395	-4.8817	-10.3756	-13.7816	-26.4816	-1.6180	-6.1527	-8.8396	-3.7321	3.2524	-13.9630	-8.2951	-14.4218
1744.0101	-15.7409	-19.6838	-34.0792	-26.0494	-2.8375	-17.9267	-15.0242	-26.6731	-10.6014	0.4263	-13.3413	-3.2805	6.2381	-25.8836	-13.9110	-24.4740
1752.0101	-2.1669	-6.0707	-16.1019	-13.6217	11.1505	-4.3088	-2.4813	-6.1160	-8.2221	1.1773	-5.9381	-1.8076	3.6534	-10.4717	-3.2486	-14.2256
1760.0102	3.7938	4.4233	-2.5529	3.2043	22.8112	6.5435	11.5216	12.4886	3.6143	6.3455	4.2853	-9.8122	-4.0641	4.3594	9.8072	2.1707
1768.0102	1.0298	1.7992	-7.4850	1.7964	16.2615	2.9818	8.1542	8.4981	-1.6481	6.9136	2.7281	-7.1426	-2.2554	-2.1010	6.6473	-0.3761
1776.0103	-5.7197	-5.6560	-14.6169	-10.0666	5.7652	-6.7663	0.2298	-5.1693	0.5433	0.1321	3.2860	-12.7665	-2.3163	-4.3298	7.6773	0.9011
1784.0103	-12.7006	-15.4073	-24.8642	-19.1713	-15.2730	-13.5603	-10.4894	-11.4682	-9.6690	-10.3656	-7.9620	-12.7685	2.3694	-21.0460	-11.3777	-12.3230
1792.0104	-2.2869	-10.2243	-20.5083	-8.6052	-19.3544	3.4474	-6.9479	-1.3133	-19.5390	-4.0450	-11.3282	-14.5404	0.8877	-18.3626	-20.9006	-16.0364
1800.0104	-7.9193	-7.0602	-15.1854	-4.1071	-5.4551	2.6633	0.0904	1.7136	-4.7429	4.2190	-1.8482	-12.0659	-3.5104	2.1872	-4.7448	1.0372
1808.0104	-18.6758	-13.2746	-18.8751	-16.1102	-0.4887	-10.9274	-5.7060	-2.8295	-11.5820	-10.6969	-12.2793	-0.6563	4.2220	-10.2113	-13.4415	-9.6166
1816.0105	-2.1286	-5.4467	-6.4017	-8.9250	12.6356	7.8256	3.5442	10.9549	-17.0470	-8.1087	-12.0650	-12.4613	0.4479	-9.6279	-14.3635	-12.2334
1824.0105	7.2056	5.6613	9.6150	5.3019	25.0332	21.7913	15.6212	16.7356	6.8161	14.6839	10.6517	-14.7957	-8.9865	18.0347	11.8176	13.7534
1832.0106	4.0570	5.3801	7.8613	6.7310	18.2559	13.3431	8.3021	-1.0720	7.4507	15.3652	12.2875	-7.1351	-7.9575	19.2373	13.3690	15.4629
1840.0106	1.5243	0.8632	-2.6815	1.3595	9.6894	3.5361	1.7199	-3.5415	-7.2843	5.5755	-1.6789	-0.2602	-0.6737	-0.0157	-0.1833	2.4341
1848.0107	-1.0271	-0.0175	-0.8079	-1.7106	6.5944	-0.6374	4.8544	12.1619	-4.0125	5.4649	-3.2379	11.2090	4.0372	0.7182	1.9390	7.7671
1856.0107	-1.7898	0.4061	7.0640	0.9062	2.1191	-4.4884	5.1343	12.6389	-5.9145	0.7711	-1.9618	3.3871	0.5600	10.2213	4.8190	13.2524
1864.0108	-5.6263	-3.9884	0.2259	-6.7677	0.9616	-11.0496	-1.8608	1.5971	-13.3282	-12.5404	-9.4462	0.3651	3.1292	-2.3920	-4.7131	0.2888
1872.0108	-3.7240	-3.8435	-2.8594	-8.3403	7.2164	-4.6087	-1.6362	0.7840	-6.9791	-13.5180	-11.1762	-1.9446	2.9442	-6.4342	-9.4797	-7.9008
1880.0109	-2.6694	-0.7489	1.7656	2.4483	0.3518	-1.7808	1.6233	4.3628	-4.3799	-1.7020	-4.7370	-3.1831	-1.3860	6.1822	-2.6332	2.2038
1888.0109	-8.9547	-6.1454	-2.0361	-2.3537	-13.4962	-9.8795	-6.0893	-4.5896	-14.7107	-0.6848	-7.8525	7.4482	3.1382	0.7674	-6.9837	2.2166
1896.0110	-9.4073	-9.3428	-3.7385	-9.2348	-4.2735	-6.6777	-8.5255	-13.3483	-17.3197	-9.3748	-12.5890	-4.4407	1.3886	-6.3718	-14.0283	-8.2406
1904.0110	-7.9079	-6.3672	-1.8529	-6.3768	6.5594	-1.0455	0.2296	-0.5770	-10.7774	-4.9339	-5.7325	-11.2831	-1.9032	-4.2306	-4.4997	-5.4634
1912.0110	-2.8268	-4.3602	-0.3253	-2.3868	3.6309	6.4205	3.6191	7.0886	-9.2410	5.5269	-2.3658	-8.9871	-2.2660	-2.4107	-2.9603	-1.1636
1920.0111	0.7359	-3.2705	1.8118	-4.0051	4.0405	8.0566	-1.8039	-6.8273	-7.5829	-2.2027	-4.9041	-11.5791	-3.1723	0.5507	-8.0167	-3.5507
1928.0111	-7.6576	-5.9452	-0.0433	-10.9563	3.2322	-4.3993	-6.2266	-14.8314	-2.8880	-8.9993	-2.9356	-3.2065	0.0761	-1.9156	-1.5375	-3.2493
1936.0112	-10.2419	-7.2182	-2.7077	-7.8601	2.0304	-7.0011	-6.6178	-16.7694	-7.8301	-4.9903	-4.7789	-3.9914	-0.3347	-5.5213	-2.6786	-6.3366
1944.0112	1.2049	0.8960	-1.4043	0.3530	-0.0599	-2.4128	-4.2197	-11.7278	-11.7147	-7.4794	-3.1509	-3.8646	-0.1833	-6.2099	-1.4794	-6.3342
1952.0113	12.6933	9.3244	3.6077	9.6534	-9.4879	2.3709	1.7341	2.9067	-1.3707	2.5078	11.2357	2.7012	-0.0022	-2.4858	9.7763	5.5193
1960.0113	10.5010	8.3908	2.1042	12.0132	-7.7023	5.0355	1.6667	1.7949	1.3438	14.3716	13.3392	12.4161	1.0744	3.5822	4.2557	9.6007
1968.0114	2.6533	2.2526	-5.2898	1.4399	0.0878	-0.6508	-3.0011	-6.2404	-7.8327	4.2959	0.0176	14.6573	4.5573	-0.6706	-5.2794	3.2052
1976.0114	7.1050	0.8969	-0.4295	3.7832	0.6642	1.5336	-0.9732	-4.8083	-8.9740	1.9512	-5.2639	-4.9291	-0.5746	-6.1827	-8.0487	-0.7970
1984.0115	12.9856	5.0204	7.0961	7.4545	10.7882	4.6463	3.6802	-0.1420	-1.0834	10.3121	3.4418	-2.5048	-1.0921	-3.2138	-4.0243	-0.5766
1992.0115	4.9115	2.6437	-0.6640	-0.1116	10.5617	-3.4133	3.0996	0.7905	1.9129	10.4322	10.1231	4.0468	1.3039	0.4082	6.3272	-0.4229
2000.0116	-4.6904	-6.5094	-9.8989	-5.7877	-5.9895	-7.5126	-5.1606	-6.1228	-9.2329	1.7574	-4.1907	-3.4568	1.3261	-3.7724	-7.1593	-11.6896
2008.0116	3.5980	-4.8324	-4.4272	-8.5119	-2.2094	-2.3567	-6.2686	-4.9822	-13.9925	-4.7053	-12.0366	-0.5210	4.6341	-9.4465	-16.5501	-16.8053
2016.0116	18.9351	6.9006	7.3399	7.3784	-3.8958	8.2015	1.2181	1.3360	-2.4362	7.4456	4.6230	-5.0814	-1.1761	-1.8759	-1.2022	-4.5571
2024.0117	20.0277	11.4399	12.8710	22.8869	-15.7502	15.2260	3.0228	3.9839	5.2467	24.0599	13.3055	2.3061	-4.1466	8.4800	2.1030	2.7169
2032.0117	11.3401	8.3708	11.3112	15.5118	-4.0048	8.7491	4.5496	3.7593	6.7125	26.2584	13.4752	11.3399	-1.6200	12.0824	9.6928	9.1388
2040.0118	2.3026	3.1184	3.6809	5.9990	-1.7257	-2.4871	-1.7203	-7.9026	-6.4177	8.8730	6.0598	7.7674	0.5152	3.2030	4.2428	2.4284
2048.0118	5.1282	2.8568	2.6700	3.9634	-2.1156	-0.6116	-4.4223	-2.0568	-17.4947	-6.7357	-3.9134	10.2465	5.8165	-10.7946	-18.1240	-13.6420
2056.0119	10.9961	9.7045	8.7779	11.5115	9.4285	3.2619	7.9979	11.4409	1.4806	6.3116	11.5144	2.3658	-0.6917	2.3136	5.0997	3.4133
2064.0119	-0.9082	6.5332	-0.1050	9.8907	-5.2292	-5.9267	2.2259	-1.7778	2.7343	9.3767	15.9079	7.7881	-1.6946	10.1286	19.9252	12.4792
2072.0120	-5.3437	-2.7483	-10.0727	-2.7223	-12.7967	-7.1180	-7.1173	-6.6380	-17.8244	-2.4426	-3.5396	11.3925	5.6798	-8.8755	-4.6336	-7.5838
2080.0120	2.3188	-2.2925	-3.0559	-3.0988	-0.1464	-1.0806	-1.6324	-2.9134	-12.6865	2.7819	-4.6968	-3.2364	1.1343	-6.7977	-1.9946	-7.9162
2088.0121	-1.8107	-1.0532	2.8711	-2.6343	-3.7998	-3.5431	-2.5561	-5.5026	-3.9189	-0.7175	1.0068	-0.2791	-0.1008	1.0632	7.1238	-2.3437
2096.0121	-11.5032	-7.4995	-3.8365	-6.4367	-8.6702	-11.8115	-6.5330	-9.3560	-8.8658	-8.9278	-3.4835	-5.1694	0.3445	-8.1343	-2.3718	-7.5342
2104.0122	-15.5346	-14.2802	-11.6068	-10.7635	-7.5514	-20.0170	-9.3915	-15.1550	-16.5651	-9.2532	-13.1353	-14.7177	-0.2022	-13.7978	-11.1636	-14.9043
2112.0122	-2.0526	-5.9065	-0.7846	-5.0530	0.8985	-5.7767	-2.8460	-1.8676	-12.5977	-8.8395	-10.2378	-13.1604	-0.0111	-12.2592	-11.8435	-17.1229
2120.0122	9.4747	5.6339	8.2560	7.4586	7.7741	9.1216	3.0394	-0.7264	5.4728	5.8948	9.2719	-4.2779	-2.9139	-0.9863	-1.4391	-3.1983
2128.0123	5.1303	2.6194	-1.7510	5.3243	-2.8736	1.0795	-3.0033	-10.1804	4.8287	14.7043	9.3263	8.9785	0.6711	3.2161	-1.4052	0.6089
2136.0123	7.5602	3.1564	0.3844	8.7227	-6.9934	1.9083	0.9818	4.5232	-0.3057	8.9365	3.1774	0.9047	0.0753	-2.3340	-4.9139	-4.0959
2144.0124	-0.6907	1.8247	1.8937	6.6587	-7.0972	-4.2586	-1.4435	-3.6435	3.4492	1.8002	6.6078	1.6337	-0.9348	-1.4180	1.3755	1.7087
2152.0124	-4.5255	-1.7636	-3.5767	-2.7571	-4.6598	-9.1866	-5.7502	-9.0989	-6.4221	-3.6952	-0.9491	10.8570	4.4846	-6.4505	-2.6875	-0.6404
2160.0125	14.0437	10.1028	11.3857	10.9757	10.5035	11.4851	6.1401	8.2344	-0.7833	7.6845	4.9884	9.8274	1.7031	-2.1044	-0.7128	1.8743
2168.0125	10.5146	12.5682	17.9054	11.2650	15.4673	9.3432	6.7416	2.1807	15.4078	15.4827	19.3237	19.0852	0.3202	14.0521	13.7324	13.0900
2176.0126	6.5190	7.8362	13.5920	4.0986	13.7113	2.1656	6.9569	7.7629	10.6537	11.0218	13.8816	14.2261	1.5362	10.6463	14.6248	9.9441
2184.0126	8.6214	6.3174	14.9450	5.9924	9.8189	9.5975	6.7579	9.5896	7.5680	9.9419	5.1743	7.1644	0.2365	1.6616	7.9616	2.6034
2192.0127	-8.9559	-5.3089	4.4495	-7.1552	2.0133	-2.0576	-4.7478	-12.4172	6.2697	1.2416	-2.1308	4.8307	0.3841	0.7027	4.3665	-2.6088
2200.0127	-5.2650	-7.0580	0.0296	-6.7715	-3.9750	-3.2861	-4.9405	-8.7367	-0.0336	2.6636	-5.8662	-4.1186	-0.6131	0.2160	-2.1220	-7.8234
2208.0128	5.9166	-1.1206	6.1067	1.3317	-8.2108	8.1304	-1.9704	1.0151	0.8662	9.3282	-3.0626	1.1561	0.3421	0.5315	-6.9079	-8.4814
2216.0128	0.5491	1.7579	7.9173	3.5203	6.9952	8.1625	3.8234	4.3632	7.8143	0.6576	0.8080	-4.8125	-3.1872	2.5864	1.3541	-2.5439
2224.0128	-3.3247	2.7636	3.3321	8.6663	8.0069	2.0650	7.5472	8.2636	11.1825	-0.0856	3.0674	-11.4500	-6.4325	5.3431	8.0074	4.0512
2232.0129	-13.3852	-7.1590	-11.5221	-0.5459	-11.3100	-7.9618	-0.1588	5.9430	-0.3564	-1.7244	-6.0867	-7.1865	-1.7618	-2.0817	-1.1957	-0.7981
2240.0129	-5.1907	-3.6580	-6.3251	0.7830	6.7273	5.6897	6.0944	10.3316	-3.4325	-1.5731	-6.7356	-17.7695	-5.2303	-1.4459	-4.1968	-0.5039
2248.0130	11.5186	5.6753	10.2148	9.3988	14.7023	19.7327	10.9228	9.2510	9.5817	12.7736	6.2137	-18.7845	-10.1026	17.6068	3.3884	11.4717
2256.0130	-3.5850	-5.6102	-1.9000	-4.2240	-8.7357	-3.6263	1.3404	5.3625	4.7788	6.5797	-0.2419	-10.2392	-3.7541	12.4137	5.4282	8.9547
2264.0131	-17.6581	-13.4824	-16.2600	-15.8906	-10.9443	-16.6114	-4.9469	0.6796	-9.8739	-12.2182	-16.3506	-6.7845	2.3361	-6.8368	-0.3691	-3.7568
2272.0131	-13.6794	-12.4334	-12.1495	-17.4327	-6.5818	-7.9630	-8.3517	-8.2066	-15.1055	-17.1374	-21.2359	-6.7375	2.4329	-5.9186	-8.8955	-8.5606
2280.0132	-9.1910	-8.7369	0.5309	-15.2190	5.6449	-8.0868	-3.2909	-2.3884	-8.5986	-14.7053	-16.2467	-3.4952	2.8043	-6.0872	-3.6198	-4.8153
2288.0132	-12.5805	-5.9494	5.7802	-12.4981	10.8525	-10.0021	-3.4582	-7.4772	0.9895	-13.0496	-9.8539	8.8835	4.5399	-9.1732	4.1113	-2.1649
2296.0133	-17.7244	-7.6419	-3.1637	-8.5502	-12.8021	-2.5095	-11.2175	-15.2234	-4.6388	-15.8632	-11.9078	8.9067	2.8964	-3.4408	-5.5175	-6.7075
2304.0133	-6.7797	-0.7852	2.3557	0.6694	-9.6778	10.2303	-3.0457	1.2049	-2.8819	-8.3414	-5.9597	6.0438	0.6298	2.6648	-6.1813	-2.8656
2312.0134	4.3931	6.1645	17.5178	3.0591	10.9743	12.6203	3.8805	2.4974	11.4640	3.3080	8.6901	9.9261	-0.3344	7.9761	6.3751	6.4890
2320.0134	9.0608	9.0903	21.2891	3.9491	9.7590	8.5324	0.9539	-6.3837	14.9276	4.9068	13.8073	14.3273	0.6143	8.2348	12.2746	5.0077
2328.0134	14.6301	11.5396	23.6884	5.5160	9.4372	8.7813	2.5430	-0.8752	19.2033	10.5379	15.5121	21.8194	3.4863	4.3389	14.3253	3.1373
2336.0135	11.3081	8.5215	23.1118	4.6634	10.2366	7.4031	4.5226	6.2819	21.5919	10.6003	13.2040	18.5508	3.0421	4.5975	8.5385	3.4587
2344.0135	8.7782	7.7582	19.6278	5.7239	4.6644	5.1398	3.7403	10.2410	16.9335	3.4962	8.0719	16.4359	3.1330	7.6843	1.9936	2.5162
2352.0136	5.2013	3.7787	16.1788	-2.1821	0.9689	-1.3204	1.8419	9.1747	12.2353	1.2501	7.3984	15.4982	4.2464	9.8575	5.3502	6.3984
2360.0136	-0.9797	-2.1575	12.2409	-7.9266	-5.1288	-7.1816	-0.8201	7.4502	2.7288	-3.3827	3.0964	9.9525	4.3759	5.1191	2.1835	7.0546
2368.0137	0.3330	-2.6266	10.7010	-3.9959	-16.7228	-6.7962	-6.0677	1.3677	0.7483	-6.4745	-2.9781	11.0577	5.3992	-3.2157	-7.5945	-0.2426
2376.0137	3.3174	1.2961	14.1491	2.6766	-11.4436	-4.7157	-2.3272	2.6850	6.3150	-7.8013	0.2997	1.4732	0.8926	-0.7274	-2.9689	0.4599
2384.0138	13.2256	12.4822	26.3821	13.2641	12.6163	3.3211	11.6229	15.2022	12.7247	-0.8125	13.4277	-5.0727	-4.7168	9.5284	15.5489	13.0498
2392.0138	15.2308	9.6170	23.3882	5.3687	9.7391	0.0182	3.8957	-1.8411	17.0369	5.4418	15.4702	3.7001	-1.2613	5.9490	15.4571	9.7992
2400.0139	10.6570	2.2304	13.0242	-5.0786	-2.4125	-6.0247	-7.7064	-14.2842	11.5219	-6.0738	6.3952	6.9494	3.9597	-6.0086	-3.6875	-5.4349
2408.0139	18.7124	10.1202	24.7830	6.8851	5.7566	3.7516	4.3101	7.2823	17.4923	0.2286	15.7018	2.7602	0.1855	1.3539	1.0592	3.9557
2416.0140	5.4889	1.5267	21.4304	0.4228	-2.7818	-6.5303	0.9461	0.9614	17.8838	4.0131	15.3902	-0.1660	-1.3931	4.2221	8.3792	9.2519
2424.0140	-7.7088	-7.9182	9.7500	-12.3122	-9.2811	-13.8195	-9.9641	-10.9769	-2.9192	-17.5254	-6.5229	2.0529	4.3636	-12.4016	-7.2569	-8.6139
2432.0140	6.3240	1.4486	16.5766	0.7740	-8.6577	1.5889	-1.4892	4.7644	2.2783	-9.0454	-1.4007	-0.9689	1.0169	-4.4912	-5.1440	-3.1337
2440.0141	1.1539	-1.6808	10.0527	-1.4565	-25.5292	-7.9661	-5.3605	3.0699	7.0412	-5.6120	3.2643	3.4514	1.4929	7.2139	-1.8078	6.9947
2448.0141	2.4471	0.1588	15.4705	-4.7569	-5.6676	-4.1967	-4.2221	3.2666	-9.4507	-21.5209	-10.2461	5.6211	4.8069	-0.4008	-12.0862	0.0475
2456.0142	21.9891	14.8818	33.8143	16.0142	24.3623	20.5807	14.3077	17.1710	4.4258	1.9559	4.0431	-7.9205	-6.2008	15.6123	2.5522	12.1460
2464.0142	10.8078	9.2043	23.0183	11.5493	6.2362	4.3890	6.3974	5.0452	16.5116	8.7706	12.6369	1.0593	-4.7737	22.6392	10.1254	16.3573
2472.0143	-1.6186	0.3829	20.8970	-1.6767	-0.8383	-10.2689	-4.7487	-6.3183	1.0651	-17.3794	-3.0098	3.8974	1.8300	1.2826	-3.0351	-0.2871
2480.0143	-0.9731	1.6054	25.8995	1.5354	1.1368	-7.0169	-1.7006	-1.7748	-1.0392	-19.7547	-2.5202	-3.8264	-1.0551	1.4085	-1.5068	-0.1501
2488.0144	-4.9185	-1.7441	18.4305	-3.3254	-12.0998	-14.9629	-8.0509	-6.3507	4.2140	-21.7649	-3.1245	4.6766	2.6129	2.5665	-5.4294	-1.2666
2496.0144	8.2891	7.9786	37.4144	9.9292	4.2075	0.9560	1.4386	1.9419	12.1446	-19.8007	-1.8014	-4.3647	-3.1507	5.1955	-2.2525	2.5419
2504.0145	14.8600	17.4889	49.6299	19.7126	12.1145	8.2997	12.1659	14.4445	21.3444	-3.9703	15.2828	1.3525	-6.7526	24.8410	20.9416	22.7070
2512.0145	-2.7488	1.4153	30.4130	-4.2293	-6.9906	-18.0210	-5.1350	-4.3296	10.3149	-14.9378	6.9369	14.2418	3.6777	11.3633	9.8052	10.1015
2520.0146	-8.0492	-6.4288	26.3819	-10.2413	-1.2583	-15.5248	-12.5846	-19.8010	0.0501	-31.1314	-11.1024	-1.3320	2.4343	-7.3082	-14.5157	-11.3624
2528.0146	-4.0493	-2.9105	31.3655	-3.7291	-4.3246	-6.6962	-7.3059	-10.9103	1.9515	-24.4394	-4.6903	-6.6792	-1.6933	0.8634	-7.7828	-3.0815
2536.0146	0.8051	0.0238	37.2454	3.7295	-14.7602	-14.4089	-3.0800	0.7001	5.0412	-19.6459	3.7509	-10.5561	-2.9878	-0.9991	1.3227	2.9560
2544.0147	9.5544	13.7683	46.0414	18.8878	9.0223	-1.7414	8.8899	12.5195	16.9108	-18.9062	9.4928	-7.3878	-6.2360	9.2518	9.1960	11.4015
2552.0147	5.4281	12.6085	35.1760	9.7045	17.4746	2.2256	10.0477	12.7568	22.2914	-13.3966	12.0945	1.8899	-4.3225	21.9474	16.3491	18.2138
2560.0148	6.5493	7.7246	29.3522	6.1048	10.8865	-2.1073	6.5257	7.9698	18.5013	-8.5286	10.1838	-3.2278	-3.2267	7.0101	12.1099	8.1659
2568.0148	16.0879	19.1465	29.3116	18.7805	15.7145	8.2989	12.2056	15.9634	22.5851	-5.9879	15.4430	5.9125	-2.8620	10.8601	16.0406	13.3233
2576.0149	4.7233	12.7792	3.0473	8.6486	5.3866	-0.6001	6.5631	10.3600	16.5898	-8.9038	11.4039	9.2803	-0.3301	16.6904	16.5188	14.7966
2584.0149	-2.6806	3.6589	-20.1643	1.5248	-1.2561	-8.2222	0.0807	0.0157	5.9434	-9.6261	3.0961	0.4636	0.9658	-3.0867	6.1778	-1.1909
2592.0150	4.0055	6.3058	-30.3203	2.8968	-6.4234	1.7838	0.9850	3.9395	8.0530	-4.6554	7.9325	0.6306	1.2695	-5.8620	3.6584	-1.9655
2600.0150	-3.9942	-3.9790	-47.2279	-11.5042	-22.8247	-8.7565	-9.7941	-8.1857	1.1803	-7.5954	3.3055	1.0166	4.8420	-8.6384	-4.3323	-9.2567
2608.0151	-15.7632	-14.5572	-62.6814	-22.8071	-19.9877	-21.7351	-16.7043	-20.3048	-13.3763	-11.1986	-10.4514	1.8848	9.5081	-27.6473	-13.9602	-23.5176
2616.0151	-15.4289	-14.3310	-68.1287	-19.6573	-10.6618	-13.5605	-10.5289	-14.3381	-17.4895	-9.8856	-16.0723	-11.4384	4.8567	-28.7853	-13.3595	-19.9734
2624.0152	-9.9546	-12.4376	-60.7463	-14.8110	-7.3375	-5.9596	-8.1815	-16.4809	-14.4595	-6.7118	-15.3399	-24.4884	-0.9901	-24.1127	-11.5064	-18.9052
2632.0152	-10.4257	-14.5287	-56.9376	-16.3007	-8.0297	-9.7195	-8.2509	-15.1485	-14.5570	3.0404	-13.5577	-17.4108	1.5303	-27.3936	-9.0928	-20.8275
2640.0153	-11.1161	-12.6962	-55.7184	-13.3830	-8.0991	-5.6502	-5.8897	-5.8322	-20.7911	1.3368	-18.2950	-11.3282	3.1233	-22.1852	-12.6522	-19.6568
2648.0153	3.0868	2.9996	-38.3197	4.4933	7.7198	16.4994	4.0276	2.0741	-13.2331	-0.2644	-13.1443	-13.9856	-3.1329	-6.7803	-6.1281	-9.9708
2656.0153	16.0703	14.2733	-25.5046	21.1428	12.0647	28.5582	18.2353	19.6617	5.3698	23.5874	6.7968	-15.4053	-10.1507	12.3027	16.0252	16.5681
2664.0154	15.8474	15.0475	-18.9191	21.0304	12.9234	24.6784	20.6588	26.8221	7.7872	32.1654	11.8642	-2.9474	-7.4643	22.7912	20.5191	26.3234
2672.0154	9.6243	13.4614	-14.3181	10.6103	24.1566	19.7394	15.6345	18.0384	2.8276	12.8830	4.4754	4.9005	-2.7738	19.6993	16.0897	17.4864
2680.0155	2.2422	7.6489	-20.7742	3.1966	15.2299	10.9128	12.4555	18.2991	0.1182	6.8363	1.5369	3.4070	-1.3537	18.5100	14.8153	19.3018
2688.0155	1.3146	4.3140	-18.5539	2.7410	11.2089	6.1400	11.0030	18.0828	-4.7477	14.1661	3.1005	4.7322	-0.5205	19.6073	9.1752	19.0216
2696.0156	-3.3119	-1.5755	-22.6653	-1.8537	5.0192	-1.6431	3.1497	3.0713	-7.4692	9.9814	2.6391	-1.3846	-0.3712	6.6649	1.2678	6.1033
2704.0156	-7.5871	-8.7554	-34.6193	-10.3395	-15.2377	-10.6742	-9.5072	-10.5165	-9.0834	0.4618	-4.7424	3.2892	5.0799	-9.9531	-13.3522	-6.4748
2712.0157	2.7874	-1.0955	-21.5682	-5.5072	-0.2395	0.7390	-4.1268	-5.7621	-6.4392	6.4822	-2.5312	13.3025	6.5876	-8.0524	-9.4846	-3.1499
2720.0157	7.0140	6.7906	-12.6041	1.5496	12.6950	8.0786	3.0162	-0.7400	-2.4936	11.6940	4.7689	17.9139	4.7244	-0.8494	5.2359	5.2866
2728.0158	3.2761	2.7232	-19.8331	-2.0715	0.6789	1.8794	-2.4170	-2.7340	-4.0483	6.1778	1.5355	19.8873	7.4828	-5.9816	-4.5559	-0.3460
2736.0158	5.6703	1.6095	-22.2642	0.8401	4.2603	3.3113	3.6429	6.8927	-3.1806	14.0889	4.8406	5.9024	3.3230	-6.9787	-4.6551	0.9762
2744.0159	6.6541	2.6866	-27.1729	4.0776	-3.1944	5.6016	3.1063	4.5431	-3.7960	21.7059	7.0695	7.1844	1.9807	-0.8568	0.4841	6.4918
2752.0159	5.5105	-0.1036	-24.0859	2.4005	-16.5158	9.8061	-5.0508	-4.6212	-8.7828	17.5006	-1.6480	13.0941	4.1782	-2.0851	-10.9989	-0.6167
2760.0159	7.8269	4.2009	-12.9685	7.9113	-1.9020	15.7915	5.7250	11.2506	-8.0251	20.2903	0.5665	6.4174	0.2592	5.8569	-1.1924	6.2941
2768.0160	10.8601	7.9924	-15.0467	4.8121	8.3062	10.3365	8.7345	13.0236	-5.6687	21.8163	7.3522	12.7048	1.7868	18.2130	8.8992	16.7471
2776.0160	6.9608	0.1776	-19.2632	-3.6353	2.1930	3.0745	0.7514	-1.5515	-5.6448	18.8363	6.9797	5.8609	2.2902	4.5660	-0.2984	7.2247
2784.0161	0.6698	-4.0156	-15.1370	-2.8090	-1.9989	0.6630	-0.0131	-2.9853	-8.3241	17.0789	4.1408	-1.7149	0.4823	-9.5184	1.0591	0.1241
2792.0161	0.4386	-4.7487	-14.2461	-6.1499	-7.6161	-2.7877	-5.0831	-6.7575	-18.2305	7.6503	-5.3157	3.9954	3.9918	-7.8299	-5.0595	-4.6178
2800.0162	7.5442	-2.6894	-8.2602	-3.2701	-2.3344	4.5266	-2.6570	-1.8247	-17.7550	7.2058	-7.1724	-0.8045	3.0025	-8.9314	-13.9539	-8.2852
2808.0162	18.8762	9.1883	9.6710	14.5093	12.1586	21.4034	9.0671	6.2972	-0.2670	27.9915	8.7196	1.3657	-3.2907	3.6232	2.1158	5.6001
2816.0163	12.3430	9.0595	11.4873	16.3913	2.7920	18.3198	7.6144	3.8961	1.6328	32.7262	13.3608	8.8035	-4.1269	17.6818	12.1520	15.6694
2824.0163	-2.1484	-0.8084	1.8881	2.2455	-1.0810	3.7070	5.1963	11.6559	-9.1345	14.7969	1.1478	5.8072	-0.0209	10.5403	5.6618	10.4047
2832.0164	-2.1683	-0.4222	4.0925	3.0031	18.6060	3.4520	9.9995	13.0374	-6.5810	9.0162	-5.3788	-5.4276	-3.0125	7.8302	3.4878	7.6119
2840.0164	-9.4489	-1.3299	1.0441	6.2791	12.5185	4.0102	4.9782	3.0094	-8.0514	4.4076	-10.8861	-1.2814	-3.3280	8.4383	-0.4788	4.6125
2848.0165	-8.3837	-1.3456	-0.1051	2.4147	1.4980	4.1616	-1.2704	-3.5569	-13.3723	2.5229	-10.2058	10.8208	1.4746	3.6376	-1.3880	1.4012
2856.0165	4.6382	4.2405	5.6932	11.1015	3.2280	9.0591	3.1953	-2.6247	-6.6254	18.7227	2.6408	4.5860	-2.2805	3.4338	6.4879	4.3743
2864.0165	-8.7162	0.6459	-2.3995	11.5757	-9.4641	3.9646	3.9613	11.4257	-6.6776	12.5728	-1.7639	11.5188	0.2117	2.9421	4.2913	5.3631
2872.0166	-17.5496	-5.2886	-4.4883	-0.9944	-6.2115	-2.8990	-2.1215	1.9728	-11.0034	-6.5635	-13.1507	10.4098	2.4475	0.9827	-2.1226	2.8999
2880.0166	-9.0731	-2.7117	2.0376	0.0218	2.9011	0.8558	-2.7616	-13.2359	-3.8577	-4.3678	-5.4514	-3.4349	-3.1319	-0.7637	3.3046	3.9925
2888.0167	-12.2921	-1.5009	-0.5076	1.7265	-3.6098	6.7873	2.9250	7.2855	0.3919	-2.0759	-0.2724	2.7820	-1.9988	5.0638	5.8153	9.4906
2896.0167	-16.8096	-9.1894	-6.7189	-4.8035	-0.9664	-2.8342	0.8802	3.1486	-5.2432	-2.1905	-5.6369	-9.3336	-3.4878	5.1573	-3.4836	6.0049
2904.0168	-26.9075	-21.3399	-22.2264	-16.6419	-14.1725	-25.7744	-12.8004	-19.7763	-12.3341	-10.7690	-15.0612	-14.3787	0.2615	-19.3018	-13.1401	-10.0678
2912.0168	-31.0623	-23.9960	-24.2767	-22.9516	-24.6779	-24.2252	-14.3161	-8.6327	-16.8288	-23.4858	-24.4454	-8.1314	5.3366	-29.3364	-17.4159	-16.5039
2920.0169	-10.4687	-10.2567	1.0709	-9.2051	8.8225	1.4090	2.1798	3.6738	-10.3458	-9.6538	-14.7768	-21.3389	-3.9899	-10.4362	-6.5547	-5.2732
2928.0169	-3.4702	0.2877	7.9284	0.2852	27.9917	9.3448	11.9167	5.8698	6.6885	6.3423	2.6180	-16.0345	-8.1259	4.6141	16.4130	10.7671
2936.0170	-11.8299	-3.1825	-1.9557	-0.5944	15.7968	2.3847	8.4745	4.6296	8.8491	5.0309	0.8212	-11.5503	-6.6107	2.7049	16.4102	11.1030
2944.0170	-7.4762	-4.5977	2.0895	-1.0994	14.9530	2.5789	3.3130	-3.7048	-0.1623	3.7053	-3.4712	-11.2970	-4.3310	-8.2036	2.6381	-2.7842
2952.0171	-4.7156	-3.0973	2.7979	-5.4828	8.1280	3.6372	0.0605	-6.9294	4.6748	5.5126	5.2221	-1.3546	-1.5338	-3.4803	7.3416	-0.5067
2960.0171	-5.8347	-5.1309	-3.9183	-4.9871	-11.8810	1.4069	-3.5910	-4.2825	3.1648	5.9626	3.3448	0.7331	-0.6326	1.9841	2.9590	2.7882
2968.0171	-6.0051	-6.8550	-10.1082	-3.7971	-15.3021	-1.4315	-5.9957	-3.1173	-7.2837	1.8436	-6.9801	2.1912	2.4846	-8.3905	-10.1126	-7.6109
2976.0172	-12.0321	-9.8671	-17.5870	-3.9149	-8.4155	-4.4587	-7.9146	-18.9855	-6.7561	3.0544	-4.2382	-11.5313	-3.3040	-7.6812	-8.0238	-7.4793
2984.0172	-7.9745	-9.0706	-10.2474	-1.8035	-0.3883	2.1481	-8.3560	-27.9355	-6.2143	6.8745	-2.8723	-17.3775	-6.1903	-10.3104	-10.4107	-11.4581
2992.0173	2.2486	-4.4866	1.2635	-3.8163	5.8880	9.3603	-3.0033	-10.7921	1.0846	5.8092	-1.9701	-9.6979	-1.7761	-16.0745	-8.5228	-17.9767
3000.0173	-0.9918	-5.3489	-3.2164	-5.4556	0.5373	1.9341	-2.0796	-7.8887	8.5642	7.5604	6.8541	-12.6197	-3.5891	-4.8668	-0.9671	-9.5831
3008.0174	-2.2443	-5.0006	-1.5613	-7.3709	3.0409	-2.2032	-2.1906	-5.1885	1.7962	4.4305	7.5196	-5.2579	-0.5404	-1.7296	-4.1168	-6.8689
3016.0174	-1.5078	-3.5898	5.6405	-3.3693	2.1370	0.3068	2.6481	6.7420	2.4448	1.2439	5.5433	-11.3809	-2.5246	-3.2542	-0.7914	-6.1863
3024.0175	-11.8220	-9.3480	-1.8651	-0.4834	-20.7992	-4.2280	-4.7380	-4.3565	0.4042	-1.9004	-0.6142	-19.1139	-6.2476	-3.0753	-2.9774	-6.2113
3032.0175	-20.1350	-16.0235	-12.8602	-13.0915	-22.7060	-13.3508	-13.2992	-14.7790	-9.6363	-11.8500	-10.3167	-8.1973	0.7754	-11.3256	-13.6918	-13.3213
3040.0176	-21.2378	-16.6155	-14.1489	-14.2671	-6.9711	-18.2334	-9.6072	-13.4269	-10.5931	-10.4227	-5.8267	-12.3095	0.4566	-16.6060	-15.1443	-14.8057
3048.0176	-16.5194	-11.9652	-6.3343	-4.9994	-3.8626	-9.8874	-6.7546	-10.7159	-9.4818	-9.8977	-3.8411	-16.1570	-2.5588	-14.7537	-18.9898	-16.4256
3056.0177	-14.9277	-10.3685	-4.7263	-7.1269	-0.0940	-6.2649	-6.2125	-10.8838	-2.6063	-13.9596	-6.8846	-17.4256	-3.7350	-4.6399	-15.5207	-14.9684
3064.0177	-18.5684	-11.0472	-9.0131	-8.2380	-0.1478	-8.3634	-5.1996	-10.4406	-0.7639	-10.5880	-5.7671	-15.8844	-3.9542	-2.8276	-6.9107	-12.4609
3072.0177	-9.9542	-4.9760	-2.3712	-4.3267	-5.7684	0.9987	-1.5791	6.7425	-7.3238	-14.4526	-6.1442	-5.7458	0.5279	-8.1472	-9.3639	-13.0553
3080.0178	-8.3148	-4.5068	-3.3729	-3.8233	-10.0289	-6.3911	-3.9101	1.9997	-4.8088	-11.0092	-0.6585	-1.1759	1.4282	-1.5639	-9.9971	-5.1896
3088.0178	-17.8502	-12.0996	-14.9193	-10.1706	-14.9493	-17.1155	-13.9330	-20.8342	-9.6836	-9.1750	-5.4845	1.8298	3.3242	-11.4459	-13.5070	-12.9100
3096.0179	-9.4742	-9.6018	-13.5726	-11.5423	-16.5257	-5.2204	-13.0608	-12.8052	-11.2882	-22.6967	-14.4868	-6.5697	3.7380	-23.0861	-20.1130	-26.1951
3104.0179	-2.9519	-3.6887	-7.1558	-0.8896	-13.9019	-0.8400	-6.1439	-2.7999	-1.9719	-12.5553	-3.4506	-8.3765	-0.1990	-8.5993	-17.6376	-13.0331
3112.0180	-7.7084	-2.7292	-1.2519	4.7141	-0.7880	0.5831	-0.0758	1.0241	-7.8208	1.7497	-0.5050	-0.1621	-0.7373	-3.8062	-10.3420	-3.4596
3120.0180	-6.1604	-0.4448	5.3001	4.5145	7.2634	1.9930	2.7623	2.8911	-10.0929	-1.7026	-3.4343	-0.8161	-0.9849	-5.1067	-2.3593	-2.4219
3128.0181	-3.9373	1.7511	8.1270	8.1134	3.8511	0.0864	0.6864	-5.3224	-3.2307	6.1283	5.0147	4.5306	-1.7839	2.5331	1.7840	4.5044
3136.0181	-0.6671	4.4867	10.0243	9.7766	7.4690	7.0239	4.7746	2.8828	-2.7445	7.3291	5.7450	3.4481	-2.6122	6.3946	4.4460	5.0719
3144.0182	-0.1078	3.5174	8.3382	3.5779	-0.4011	0.1156	3.2145	8.9894	-0.7751	-3.3676	3.9366	3.2353	-0.0389	7.2197	4.6390	3.7415
3152.0182	-6.2228	-3.1663	4.5558	-3.0766	-9.4474	-8.7867	-3.0404	0.1074	-1.2151	-3.6664	3.5909	3.7852	1.5281	1.8572	0.4832	2.0702
3160.0183	-7.0572	-3.4432	3.3362	-4.1506	-3.4759	-3.4045	-3.0456	-3.4920	-3.5286	-9.5321	-1.9217	-2.6599	-0.4441	0.5400	-1.8746	-0.4242
3168.0183	0.1292	1.5697	6.3566	-1.4594	-12.1104	2.0997	-5.1948	-2.5626	-6.8734	-12.8309	-1.2273	6.4453	2.1112	5.7846	-4.5897	2.6598
3176.0183	4.3513	2.3796	7.3658	4.7591	-16.5270	7.3613	-1.7542	2.5561	-8.2725	6.8191	6.4542	7.6001	0.8631	4.2458	-0.0229	4.9800
3184.0184	0.3853	0.9955	5.1760	3.5221	2.5145	-1.0026	1.5654	-0.6815	-0.5516	14.7685	7.6902	8.5980	0.8235	1.6699	6.2239	2.6391
3192.0184	8.0330	8.1835	17.5838	4.9151	18.5724	1.8815	4.2018	1.3454	1.4685	1.3167	4.5401	13.1705	2.9431	0.0646	5.3345	1.4760
3200.0185	17.8071	16.8715	22.5003	16.1077	18.1645	15.6039	11.6655	14.0006	3.8054	4.0093	9.7946	8.1612	-1.0484	6.4254	12.0235	8.0649
3208.0185	8.3554	10.0243	8.1584	9.9834	7.3239	2.0767	5.6829	6.3626	7.6860	11.0405	7.2975	16.1218	1.5041	14.1227	12.3930	10.7199
3216.0186	7.7559	3.3870	10.3352	2.4452	1.4668	1.0366	0.0345	-1.1696	-2.1406	5.9734	-4.0524	8.4953	2.1577	3.1062	4.3911	1.0758
3224.0186	7.0011	1.0089	9.4651	-0.0926	-2.5431	-0.0162	-1.1897	-1.5277	-5.9310	5.6457	-0.8014	3.9412	2.2237	-5.9864	3.5343	-5.1719
3232.0187	-1.5181	-5.0189	2.1789	-10.6230	-4.8924	-16.4640	-8.3916	-8.6257	-3.7102	-3.4801	-3.6731	12.5123	7.7042	-6.2013	-5.5221	-10.3527
3240.0187	12.1716	0.9156	16.1761	-5.6241	-0.2990	-0.6713	-7.7503	-11.3071	-5.5380	-12.4926	-8.9320	0.6590	4.0857	-10.0696	-11.3672	-16.8966
3248.0188	19.6779	7.3833	21.6357	0.0815	7.0146	5.3299	-2.8546	-9.7104	2.6605	2.4456	5.9086	6.3739	2.7230	-2.4078	0.7948	-9.3474
3256.0188	17.4333	9.3599	21.1681	2.8557	20.3450	-0.9489	7.0099	5.7470	12.4061	13.4899	11.6440	10.0577	1.9944	10.4769	13.0250	3.4326
3264.0189	20.6580	12.7558	21.3850	8.8477	9.1159	7.4178	7.1184	11.5248	12.4517	4.5790	5.1647	7.8442	1.2013	6.5335	10.2836	3.0074
3272.0189	12.8607	5.5242	11.3456	0.0156	-11.4546	-1.7618	-7.8247	-6.7974	6.3414	-6.9039	-0.5294	18.0421	7.3442	-4.5746	-6.5273	-6.4646
3280.0189	17.1457	5.6243	18.9378	4.2280	4.1963	1.2792	-2.3817	-6.3965	5.2649	2.5273	-3.1195	7.0579	2.9808	-4.2706	-6.5395	-5.4847
3288.0190	15.2364	5.5774	15.7045	4.3604	3.2654	1.6004	1.7014	0.4559	7.0673	13.0338	1.0903	9.8483	2.4961	0.2037	6.1081	2.3239
3296.0190	-7.1480	-8.8530	-7.3826	-16.1970	-14.5449	-21.1975	-10.1511	-4.9008	-8.1232	-14.6701	-13.1852	8.6064	8.5185	-7.2416	-6.0681	-7.1548
3304.0191	-4.8873	-10.4554	-4.0050	-14.0221	-11.0791	-13.0867	-9.4778	-4.6040	-18.3944	-27.9265	-28.6328	-13.5209	3.3433	-13.9828	-18.7501	-16.9687
3312.0191	6.0510	-3.0515	5.7789	-1.8371	-13.4713	1.7748	-3.0229	3.1072	-6.5123	-2.9655	-14.0242	-5.3158	0.7684	-3.0068	-8.6881	-3.7028
3320.0192	14.2933	8.8394	16.7264	11.4337	-2.5666	6.4954	6.1033	14.3866	4.2638	5.0114	-0.0232	4.3013	-0.7280	13.8241	2.5315	11.4379
3328.0192	17.0678	13.7410	26.4641	14.3761	10.3868	9.8413	7.1377	10.1994	9.0159	0.2279	0.8445	9.6932	-0.3246	14.2123	3.2961	11.1598
3336.0193	4.9289	4.4642	18.9521	-0.0324	5.2307	4.7715	1.1292	6.0213	8.2877	-5.4425	-1.4711	15.2936	4.1031	4.6918	-1.5913	4.6321
3344.0193	16.1288	15.5017	29.4311	15.3035	18.4615	20.6896	12.4568	19.8712	12.0205	1.3344	3.6247	9.2299	-1.6314	16.4270	5.1467	10.2164
3352.0194	21.7219	20.3047	33.7608	22.0663	17.5555	21.4636	12.1225	11.4916	21.0316	21.2540	15.1398	22.0481	-1.8889	29.0484	16.2724	19.9111
3360.0194	7.3650	6.3005	19.6853	-3.1562	2.9685	-0.1020	-4.5288	-10.2859	16.6815	6.3012	10.3552	32.5400	7.5952	9.2052	9.8969	9.0889
3368.0195	14.5354	8.2335	29.3267	-2.3766	2.0068	3.8414	-4.6250	-9.2481	19.0355	-4.9396	10.5952	21.3073	5.9847	-3.1518	5.6548	1.5847
3376.0195	11.1921	5.6658	32.1178	5.3202	-11.0444	1.4130	0.1851	2.4973	24.9525	9.2489	20.0432	9.7690	-0.4131	8.9012	10.2093	11.4586
3384.0195	4.5041	5.4002	30.0753	4.1065	0.7909	-0.3874	4.1869	9.9470	15.9531	-2.2805	12.6808	5.6574	-1.1157	14.3933	8.0796	12.8300
3392.0196	6.2684	10.8500	38.3104	4.3208	22.2495	2.4318	6.8115	7.6514	12.4747	-13.7204	9.1449	10.7982	0.4111	13.3295	9.2155	12.2209
3400.0196	-6.4523	1.7436	31.5601	-4.1330	8.3778	-11.0229	1.6085	5.4437	6.9194	-14.7500	7.3074	12.7661	2.8736	8.6505	10.0375	10.8401
3408.0197	4.1590	7.4229	39.8475	3.6958	13.3987	-0.5742	6.7775	12.5679	9.7731	-11.6882	9.3096	5.7239	-0.0359	7.0362	9.9292	7.7847
3416.0197	9.9836	13.2492	46.2886	12.7632	19.3312	1.4533	11.3828	12.1949	27.0588	-1.5647	24.7867	4.3376	-3.7640	8.8606	18.6973	15.7557
3424.0198	-9.6130	2.5624	30.5544	1.1914	2.7879	-11.7608	0.8432	1.3455	16.5632	-16.7584	14.2804	8.9318	0.4663	-2.0984	13.3632	9.8701
3432.0198	-3.4711	3.6038	39.6711	4.8822	7.5513	4.4746	1.4322	-0.4324	8.9537	-16.8525	3.2380	0.0653	-3.0356	-0.1544	4.3934	2.7081
3440.0199	-4.2971	1.2906	43.1493	7.5504	2.2657	-2.0437	3.9787	2.3769	18.9629	-0.2059	11.8565	-3.4033	-6.5743	12.3189	12.5684	14.1446
3448.0199	-17.6556	-6.6318	26.3656	-5.6881	-13.1038	-19.0013	-5.9296	-3.3074	7.2895	-18.8034	-2.7024	6.5131	1.2150	3.0670	7.5358	7.5400
3456.0200	-10.8795	-4.2228	29.3341	-3.1513	-3.6302	-9.6368	-2.9061	0.5693	5.7384	-23.8689	-10.0721	-2.8766	-0.8408	0.5224	-0.7116	1.0617
3464.0200	-8.9770	-2.8822	33.7349	-0.6296	1.7546	-9.9331	4.1782	12.9768	14.8181	-15.4274	-2.6502	-6.1629	-3.2851	10.1424	5.3347	10.2746
3472.0201	-7.2625	-0.8279	37.7334	-1.9366	3.6529	-5.2393	3.5241	14.1200	10.7563	-24.3291	-9.5168	-3.7987	-2.0865	13.5991	3.4937	6.8950
3480.0201	-7.1877	-0.6630	41.9863	1.3444	5.1938	-6.9639	3.2882	7.9719	17.8703	-22.3057	-3.4162	-12.7984	-6.3872	16.1471	5.3714	5.3797
3488.0201	-18.8536	-8.7322	30.3753	-10.5978	-5.1946	-26.9626	-5.8535	-7.1157	18.4265	-24.8632	1.4024	-6.4963	-1.9536	4.3071	10.7029	1.5517
3496.0202	-16.5421	-9.8686	30.9959	-12.7348	-4.7477	-20.8511	-9.4075	-13.6839	6.4373	-33.2123	-10.8301	-11.7183	-1.4839	-6.5305	3.2335	-10.7329
3504.0202	-8.3721	-4.8812	38.7224	-2.6272	-2.4627	-10.1311	-2.2194	2.3211	5.7116	-31.5231	-15.8725	-17.5930	-4.1098	-2.7903	-1.3199	-10.2909
3512.0203	-6.4196	-3.1381	32.8456	-4.0603	-5.2822	-11.2070	-0.2749	9.6971	12.2715	-27.1308	-13.0744	-7.5265	-0.8818	-0.4379	4.2888	-2.6106
3520.0203	-2.2201	2.1394	29.4933	3.5801	1.6140	-2.1512	5.0139	7.4521	23.5324	-12.2178	1.6631	-11.8325	-6.8344	11.0990	15.5908	9.7850
3528.0204	-3.9943	2.3567	14.9794	6.5798	-8.2103	1.0512	3.5146	6.7041	17.1751	-4.2820	6.0727	-7.2542	-6.3316	13.6467	13.8218	11.0036
3536.0204	-14.8192	-8.5126	-16.3467	-5.0870	-29.8884	-8.3404	-7.3023	-0.1712	-1.8227	-11.3314	-13.5322	-3.6541	0.1093	-0.0202	0.4470	-1.2974
3544.0205	-21.7549	-10.9968	-36.6421	-7.6647	-23.7424	-14.9831	-7.5122	-6.2422	-1.2214	-13.6007	-18.8540	-8.7732	-0.8198	-3.6282	3.6245	-1.7957
3552.0205	-13.9401	-4.8701	-44.5402	-5.1858	-7.2250	-7.0835	-4.8300	-9.7939	-1.4952	-9.1899	-12.4803	-4.7993	0.5024	-10.9532	3.1210	-6.9854
3560.0206	-1.7279	0.1641	-49.2950	1.8383	-5.9263	5.3786	-1.7576	-4.7795	-0.3141	-1.2854	-7.9097	-9.8901	-1.3622	-9.8686	-5.6817	-10.6612
3568.0206	4.6951	5.8362	-53.3101	9.4122	-3.8012	9.4174	5.7757	7.5918	12.5778	9.0009	2.1730	-12.2294	-4.6601	4.8577	0.5000	1.0765
3576.0207	6.9825	5.9082	-58.7026	12.0511	1.4489	15.4165	9.9795	10.4220	11.5019	28.4617	8.5701	-10.0450	-5.3932	4.1663	4.1335	4.8324
3584.0207	-3.3542	-1.5454	-66.0957	5.5311	-4.7381	11.4125	5.0252	4.9088	2.4149	32.6452	5.8856	-3.3368	-2.4539	0.2579	-1.2732	1.4692
3592.0207	-13.4275	-9.6072	-74.0536	-12.5627	-10.7000	-2.1136	-5.2466	-1.7095	-8.3553	8.6543	-8.1602	5.4171	6.3502	-11.7157	-12.8450	-11.5064
3600.0208	-7.3038	-10.4220	-70.7961	-11.0208	-13.3230	1.3900	-5.5845	-0.1668	-13.4055	6.5679	-13.9931	-2.9454	5.8392	-23.5060	-22.3384	-18.0177
3608.0208	-0.2943	-2.6645	-60.2452	5.1616	-16.9135	10.1569	0.9268	5.7274	-3.1596	19.5927	-0.4525	-6.0901	-0.7189	-9.7069	-13.8801	-0.5145
3616.0209	4.7964	4.7628	-54.6773	12.7624	-3.6422	13.6529	6.3366	5.9715	1.9010	23.3668	8.0015	-4.6156	-3.1017	-3.3775	-4.9834	7.9832
3624.0209	2.3383	4.3364	-50.0097	12.4063	-0.7737	11.7926	5.0385	2.3887	-0.3797	25.6447	8.6116	3.7087	-0.7753	-7.2566	-4.2577	6.0410
3632.0210	-6.5608	-0.4059	-45.0657	1.5208	-15.6869	7.6936	-5.3646	-5.9051	-8.6675	8.6518	1.7241	15.7087	4.5895	-4.9735	-9.6734	1.3178
3640.0210	1.7900	4.9182	-33.0073	7.9578	2.7414	15.5342	2.5121	0.7870	-9.9489	9.0563	1.4229	4.0670	-0.0174	-0.7920	-8.4878	1.1535
3648.0211	0.5374	5.3367	-26.1826	13.5312	12.4225	9.7379	11.4655	10.3171	1.2628	26.6197	12.3392	0.5897	-3.8811	5.4285	5.8620	13.0470
3656.0211	-17.2621	-10.5358	-40.6987	-9.9555	-10.2760	-8.9031	-5.6137	-6.2825	-11.2611	3.0766	-3.5002	1.5984	2.8174	-6.6540	-6.7110	-1.2467
3664.0212	-12.3423	-12.2136	-45.9322	-13.8827	-8.4683	-8.8270	-10.2281	-12.6277	-18.1245	-7.9274	-14.1377	-6.3952	4.1377	-16.4660	-23.0415	-16.7333
3672.0212	-10.9185	-10.0769	-40.2331	-7.8786	-11.2666	-11.5101	-6.3340	-7.6330	-6.5495	5.5950	-1.3541	-3.3617	2.5184	-12.8580	-12.2897	-7.5910
3680.0213	-15.8854	-13.0863	-34.5592	-7.9410	-14.8055	-8.2684	-7.1358	-8.7779	-16.5704	-2.4392	-8.9546	-12.4845	-0.0228	-19.7334	-13.5266	-9.5423
3688.0213	-2.0607	-1.3192	-18.0402	8.7007	10.4672	8.8703	6.5491	2.5413	-10.9712	6.2896	-7.2370	-21.7765	-7.5006	-6.0857	-7.5265	0.2678
3696.0214	-2.1730	1.2610	-15.5805	10.3680	12.2222	4.5863	11.2291	9.4452	0.8498	18.6524	3.8364	-13.4942	-7.4016	5.4310	8.7241	11.1524
3704.0214	-1.4212	-0.4373	-20.1168	5.1381	9.1034	5.7502	8.5715	9.4695	-9.2425	15.3128	-1.1119	-9.1230	-2.9680	-9.1175	5.6675	0.6174
3712.0214	8.6746	6.0429	-15.8308	11.7629	12.1085	14.7555	8.1706	1.3157	-0.4728	23.8717	6.8499	-5.9040	-5.0995	1.6962	6.1802	4.8181
3720.0215	-4.0867	-0.9911	-23.1293	3.6410	-2.4910	1.8902	-3.2050	-15.6553	0.6656	16.3693	5.3173	-0.2176	-3.2010	8.4199	2.1726	2.0265
3728.0215	-5.9408	-2.4801	-22.7497	0.7261	5.7674	4.7159	-0.2292	-6.4033	-12.6351	7.1325	-5.2217	-3.0614	-0.7910	-7.6758	-2.8298	-8.8151
3736.0216	4.6393	4.6562	-11.9796	12.3769	9.5951	19.3031	9.6874	6.9555	-5.7276	21.7224	6.8889	-10.2008	-6.7451	1.2287	5.8264	2.2161
3744.0216	1.1266	4.3062	-7.2740	13.8083	0.0600	12.4562	7.3324	7.0450	-1.9003	23.7807	12.1645	-1.5847	-5.7936	14.9825	5.6106	10.4450
3752.0217	0.0811	4.1571	-4.4611	7.0396	15.2507	3.1592	6.0124	3.0201	-4.8854	13.8258	4.7899	9.1051	0.4874	3.2680	3.9630	5.9003
3760.0217	2.2099	4.0658	-5.7308	4.1029	17.7426	8.4144	2.6951	-6.1459	-8.8011	8.5158	2.2010	6.5980	0.7925	-6.0005	0.3547	-1.2616
3768.0218	13.0670	12.2122	4.4033	12.6986	17.8487	21.2909	10.3140	9.7824	-4.1971	15.8604	14.3211	5.3521	-2.4931	12.7330	3.8572	7.7364
3776.0218	17.1974	16.1148	8.5839	14.2292	20.3365	15.3998	14.2410	12.7335	11.6804	24.3360	30.5895	7.7976	-3.5421	19.2754	19.6345	18.8297
3784.0219	1.2536	3.7693	-4.1217	-1.0696	0.9784	-0.5765	-2.9333	-9.0112	3.5935	9.4438	19.6274	18.6283	4.6907	-4.4152	6.8331	-0.3028
3792.0219	-1.8221	0.0497	-1.0265	-7.0950	0.3486	-0.0636	-4.8509	-1.2368	-8.4542	-2.1010	7.3041	21.7067	8.9899	-7.3622	-8.4326	-11.7453
3800.0220	-3.8610	-2.2351	-6.7538	-9.5869	-0.9592	-3.3632	-7.1895	-9.7552	-6.4023	-3.8090	5.1893	13.4013	6.1482	-3.7334	-5.9550	-9.6145
3808.0220	-8.4321	-8.3471	-15.5232	-12.1338	-12.0842	-5.0832	-13.7879	-20.1594	-12.8665	-5.7411	-6.1518	8.3062	5.8707	-11.5071	-14.1927	-16.1041
3816.0220	3.5124	-1.0302	3.6705	0.5812	6.1929	5.9336	2.3884	6.1113	-11.3500	7.5171	-2.1515	-0.9687	0.8118	-2.3078	-9.2593	-8.2167
3824.0221	7.7547	6.2580	10.5878	5.9838	17.1202	9.7039	6.3377	4.0906	-2.2532	14.7875	7.8316	7.8956	0.0244	6.3261	4.8606	1.2240
3832.0221	1.0686	1.0615	0.7756	-2.4886	6.8563	4.9575	-3.4272	-10.0594	-3.2366	8.4523	2.0341	15.1026	3.5474	5.1022	-1.7586	-4.2511
3840.0222	-6.6229	-8.1861	-3.8941	-9.2458	0.1190	-4.7581	-7.9404	-11.8810	-10.1997	1.8846	-5.6129	4.8619	4.0100	-6.3589	-14.3956	-16.4889
3848.0222	-0.9247	-3.5792	1.2343	-5.3250	4.7558	5.2069	-5.0759	-8.5173	-11.6954	0.7566	-8.0764	6.0492	4.0917	-13.1218	-10.9785	-19.6131
3856.0223	17.8380	11.6509	13.9450	11.6090	15.5779	29.2627	11.4558	14.2235	1.5245	17.3136	3.2395	1.2187	-3.6088	12.3813	8.2803	1.6163
3864.0223	10.9612	8.4043	7.1111	8.1780	7.3893	19.1945	8.8295	10.6950	8.2155	26.4464	13.1527	10.0026	-2.2605	22.0464	14.1632	11.0501
3872.0224	-3.6089	-4.2220	-4.8528	-8.4764	-2.9291	-0.0416	-5.1757	-6.9616	-0.3830	13.0016	2.8136	18.2080	5.7759	1.2538	-0.1231	-4.1644
3880.0224	-0.7038	-3.9057	-4.1738	-4.1970	-5.7822	2.3606	-5.4180	-4.8617	-8.9332	-0.9232	-9.6134	3.3510	3.2706	-8.2043	-10.8443	-12.9306
3888.0225	5.8033	2.1004	-2.1001	2.7009	-11.2988	11.6686	-5.0366	-5.9986	-11.1630	3.3312	-6.9323	9.1201	2.9648	-5.8481	-4.9481	-8.3629
3896.0225	17.4933	10.1995	11.2412	12.2141	1.9712	20.8011	6.9993	8.3110	-0.7241	23.9391	10.2833	9.3690	-0.5519	2.8780	10.0544	4.5209
3904.0226	17.3593	12.8265	12.6155	15.2760	5.0955	16.1953	9.9937	15.6192	4.6224	24.2263	18.0732	14.6353	0.8021	4.4454	10.2828	7.4346
3912.0226	10.2810	6.5552	-3.6655	1.2364	-10.0501	9.3859	-2.5314	0.6607	-2.7835	15.1979	10.2016	28.5877	8.0977	1.3992	3.5304	2.4086
3920.0226	12.4914	6.2606	-0.9355	3.9241	0.6086	12.6719	3.7391	7.5592	-4.7704	21.2298	7.3654	16.4088	3.6530	7.4887	4.0300	5.1606
3928.0227	6.1063	7.6532	1.1648	7.8022	12.2007	11.7683	8.7851	14.1911	-5.4030	14.2678	4.2632	14.7614	2.3001	6.8982	5.6038	7.1091
3936.0227	8.3966	5.3257	-7.0031	2.3826	8.7739	13.4500	6.1553	6.2392	-3.6813	13.0054	2.1422	4.6591	-0.0476	6.0760	7.5963	8.8987
3944.0228	17.0806	5.4891	-2.1738	4.8622	10.0794	13.4515	5.9112	3.2389	1.6610	25.8197	6.8547	2.3274	-0.9367	7.7786	1.8922	6.7560
3952.0228	4.7079	2.7647	0.7651	0.7346	5.1958	5.5595	2.6874	5.7868	-0.4187	15.5036	3.5626	17.4849	4.4658	4.9394	1.9178	2.9527
3960.0229	-0.3246	1.6136	1.6678	1.4517	2.1771	4.6051	5.0736	11.4301	-1.5374	-2.1145	-3.9744	-2.1717	-1.1308	4.6639	5.2347	4.1029
3968.0229	6.1813	3.2710	8.6954	7.2084	6.1352	3.7659	3.3232	2.2900	3.9468	1.2002	-4.5214	-5.8237	-2.9920	3.4773	-2.3794	1.5474
3976.0230	-0.6567	-1.8578	1.9114	2.4772	0.7040	-6.0556	-0.3223	-6.2362	1.0110	11.5032	-3.1819	-0.5832	-1.6752	5.1145	5.5843	3.7935
3984.0230	-5.7174	-6.1489	-5.6197	-4.0422	-5.1602	-15.5547	-1.3743	-1.3407	-12.6333	-0.9357	-8.8327	-9.1194	-0.5428	-2.2401	4.5317	-0.6485
3992.0231	-2.7313	-7.8074	-2.4684	-10.0407	-11.4853	-15.6561	-9.0610	-7.7268	-14.9830	-17.9523	-14.4446	-7.4555	3.7426	-15.5831	-13.3191	-12.9344
4000.0231	-4.2251	-7.3736	-8.0007	-5.5309	-16.0429	-7.5726	-6.5697	-8.6343	-6.1774	-8.6548	-8.7828	-17.3121	-3.1724	-2.1578	-4.8785	-3.6550
4008.0232	-4.4267	-1.6420	-6.0364	0.1433	0.9711	-2.4130	2.6025	3.5108	-5.0116	-3.7547	-2.9102	-13.3824	-4.7827	13.0003	1.6399	5.7986
4016.0232	-0.9725	0.1975	7.0114	-2.2637	13.0742	-3.0635	4.0772	7.0483	-7.4778	-13.3617	-3.0210	-10.8576	-1.8361	3.4837	-3.5703	-0.1870
4024.0232	0.7579	3.0565	9.4010	4.3252	5.3757	0.3100	5.4033	8.0145	-4.4226	-12.7797	0.8052	-15.6289	-4.6863	-2.0254	4.7837	1.2177
4032.0233	5.6615	9.4762	14.1094	10.1488	9.5622	7.1243	9.3917	10.3144	4.9859	-1.2222	9.8225	-5.4879	-5.3669	11.3383	16.2307	12.5784
4040.0233	8.9623	9.6215	17.6399	9.3355	19.4520	4.3752	11.9959	8.8023	4.3955	3.7508	9.3261	-11.1953	-7.4707	17.9717	20.7197	16.7727
4048.0234	1.6223	5.4530	7.8314	4.1294	14.5805	-6.5194	4.8730	0.5443	-7.9368	-7.4829	-2.9464	-3.6249	-1.7840	4.7743	13.0792	6.1710
4056.0234	-3.5523	-2.1147	1.5954	-5.0373	-2.3218	-15.6136	-5.3284	-9.3861	-8.9822	-12.4629	-7.2483	0.1733	2.2929	-2.5042	2.8601	-2.6818
4064.0235	4.0861	-2.3934	8.2956	-4.8908	-5.9600	-12.7591	-5.3349	-6.6588	-7.2431	-11.8196	-5.6436	-9.5637	0.2895	-1.3347	-4.2370	-6.3085
4072.0235	8.9387	4.8307	20.8494	-3.2449	13.7146	-1.0930	-0.2939	-2.6719	-0.1715	-12.7583	-1.1397	2.7002	2.2011	1.7960	-0.4711	-3.7107
4080.0236	0.0402	-0.6708	17.3890	-7.9462	7.9370	-8.3544	-2.7830	-10.1366	5.2481	-10.6135	1.5972	-3.1995	-0.6722	5.0103	8.6029	1.0301
4088.0236	-1.3715	-4.4121	4.1807	-8.6971	-13.2749	-16.6408	-9.0149	-7.9982	-13.4059	-21.9693	-10.7985	-6.0770	2.8695	-5.6480	-5.7087	-9.2699
4096.0237	7.2520	2.6257	3.1705	-0.4702	-9.4962	-3.0276	-3.0077	3.3144	-9.2847	-14.3118	-4.9002	-1.0378	2.8847	-4.0448	-6.9703	-6.4378
4104.0237	1.6945	-0.5727	0.3377	1.3893	-8.8354	-6.2987	-2.2403	-2.8325	6.2398	3.5313	7.9777	-3.6743	-1.1350	0.4238	0.8068	-2.5514
4112.0238	-4.2871	-5.6068	1.7850	-9.2698	-5.8608	-16.6127	-11.7443	-13.9988	-8.7820	-15.1290	-6.8247	7.9734	7.5572	-16.8592	-15.1605	-21.1017
4120.0238	1.9962	-1.1869	10.4868	-6.6271	-1.7583	-6.8387	-5.7985	-8.7665	-4.7520	-14.6825	-3.1968	-1.9458	2.5884	-12.5684	-1.0155	-11.3769
4128.0238	5.3554	1.4975	7.7787	0.1138	-7.2887	-4.0805	0.5014	-0.7631	8.7265	2.6343	9.4295	-7.0879	-2.4835	-1.7678	14.6814	2.6657
4136.0239	2.6313	-2.1176	4.2386	-8.0508	2.0147	-11.3652	-3.7041	-4.1774	1.7220	-3.6685	2.1627	4.2266	4.7319	-9.9585	-1.6479	-8.5571
4144.0239	-8.7874	-11.1214	-1.7272	-17.3007	-4.1915	-18.0559	-9.1109	-13.0516	-4.5242	-3.4784	1.7132	1.7369	4.9053	-12.8892	-3.6725	-9.6462
4152.0240	-13.7173	-15.1300	-4.7280	-22.4989	-10.3891	-16.5728	-11.3951	-10.7577	-12.7414	-9.9897	-4.7386	0.8687	6.1897	-14.7988	-9.3115	-13.1142
4160.0240	-3.4925	-7.2482	5.4006	-16.4347	9.4147	-9.4891	-2.9939	-2.4187	-6.6641	-20.4179	-7.1164	-13.8200	0.9327	-6.4388	-8.2643	-9.8890
4168.0241	-3.5078	-3.0287	5.7259	-8.6586	5.9435	-13.5654	0.8674	0.3376	4.0124	-15.2810	1.8454	-14.6294	-2.2718	-0.6445	7.2819	2.2480
4176.0241	-6.6787	-5.3502	2.5455	-10.6021	0.0772	-9.6370	-0.1709	8.6420	-3.7792	-12.2721	-4.7886	0.6515	3.8546	-6.5170	-1.7587	-2.1609
4184.0242	-2.4535	-4.8884	1.3195	-10.9564	-4.4665	-1.3721	-1.4930	8.0158	-4.2545	-8.7085	-3.3489	-0.8118	2.2963	7.8950	-8.7375	1.3131
4192.0242	-4.3756	-6.2445	-7.0547	-14.2143	-22.6745	-11.4581	-10.7210	-6.7519	-3.0185	-14.3373	1.9188	1.4778	3.2924	10.9160	-7.7300	3.9317
4200.0243	-8.9808	-10.3665	-7.0506	-16.5746	-12.6340	-17.1237	-10.4928	-10.7926	-5.3972	-19.5018	-5.2548	-7.4067	2.6631	-6.5854	-10.3024	-5.3332
4208.0243	-14.6399	-13.1780	-5.5096	-14.1036	-6.5248	-10.7543	-8.0582	-12.7214	-7.0541	-12.7019	-7.5026	-14.1542	-1.0747	-12.4512	-7.7259	-7.9594
4216.0244	-15.4404	-11.0461	-7.8669	-10.1836	-11.2404	-4.4943	-8.6895	-10.2241	-13.6967	-16.6071	-10.9901	-8.5734	0.4350	-15.5805	-12.2531	-10.4694
4224.0244	-10.5438	-8.0939	-6.4899	-8.0606	-1.2427	-7.8866	-3.0128	-1.9932	-5.3324	-14.0232	-8.6015	-10.9694	-0.3464	-10.4601	-9.0667	-5.1515
4232.0244	-13.8223	-13.6476	-9.1620	-16.6391	-9.1844	-19.5042	-8.2433	-10.1998	1.4974	-11.9252	-5.9551	-10.4822	0.8874	-9.5541	-5.4412	-3.3162
4240.0245	-14.1261	-12.6845	-6.6581	-11.2128	-9.4150	-13.2266	-9.1217	-11.5583	-6.4740	-21.9402	-13.3545	-18.2339	-1.1335	-17.2585	-15.6285	-12.7029
4248.0245	-3.8709	0.4474	6.6665	8.0601	9.7881	5.1924	4.8424	2.6085	-0.9078	-7.9243	-3.9811	-18.9835	-7.4739	-1.1787	-4.5071	-1.7402
4256.0246	2.0713	5.1570	15.6548	8.9567	13.9511	8.6837	9.2683	4.8775	12.1240	9.5689	8.7539	-8.4194	-7.9072	14.4394	15.9061	13.1116
4264.0246	-9.6661	-5.7773	7.1485	-7.5055	3.1852	-5.2105	-2.1575	-7.1584	11.5936	-0.0172	1.6881	-1.0574	-1.6491	5.5709	6.2899	2.1691
4272.0247	-27.4069	-23.6385	-11.2594	-28.1858	-19.4360	-18.8912	-20.6966	-25.4279	-6.8563	-18.0426	-16.9581	-0.3576	5.4423	-12.5910	-20.5484	-21.4873
4280.0247	-20.9448	-25.1341	-11.7354	-23.9246	-21.5924	-11.2380	-19.4585	-25.3979	-15.0572	-20.6552	-28.5661	-24.2176	-0.5417	-21.5874	-28.5779	-28.6424
4288.0248	-7.5983	-11.6467	-0.4332	-4.6684	-0.5275	0.4189	-1.7507	-4.4787	1.0896	-3.5627	-13.6894	-28.2839	-7.2495	-7.1134	-14.0112	-9.4321
4296.0248	-12.6148	-9.8807	1.1566	-7.2496	2.1189	-5.2107	0.0914	1.9068	0.2815	-5.5367	-4.5103	-13.8411	-3.5213	1.4725	-8.4217	2.3883
4304.0249	-18.5478	-11.8453	-0.5450	-10.9067	-2.4025	-12.9980	-4.8844	-3.7235	-11.7677	-24.8300	-15.3182	-14.5911	-1.3267	-6.4281	-12.2984	-1.4975
4312.0249	-19.2828	-10.4021	-1.3771	-8.4519	0.7344	-13.0041	-4.3140	-6.7694	-5.6450	-17.6134	-11.1040	-7.8928	-0.9233	-5.7200	-7.5000	1.2790
4320.0250	-9.8489	-5.9336	7.6784	-4.7066	12.8518	-3.7843	1.4766	-4.6789	6.1831	-7.3716	-0.7472	-14.0266	-4.6301	-5.4570	-0.4489	2.8323
4328.0250	3.0637	5.8763	24.8224	6.6439	20.1699	6.3641	10.5018	9.4837	20.7653	-6.8113	11.6708	-15.6030	-7.7748	1.1792	10.8748	6.2668
4336.0250	-6.4832	2.0544	20.8021	3.3807	-3.6525	-1.7512	3.4108	6.8339	23.5066	-0.3976	22.6228	1.0540	-4.0282	11.8701	13.6428	9.8282
4344.0251	-20.1642	-12.7987	6.3091	-12.2821	-15.9143	-17.8120	-12.7757	-15.6950	4.7758	-14.8798	3.8212	0.3281	1.6094	-6.3971	-10.5679	-8.2965
4352.0251	-16.4118	-10.7969	11.4139	-12.6186	6.8729	-14.5583	-6.9176	-9.2150	-0.0760	-25.7039	-5.7846	-8.0040	1.4342	-17.3818	-16.6663	-15.0212
4360.0252	-15.1198	-7.0023	13.8361	-5.1427	8.3987	-6.8610	2.4972	1.6014	13.4445	-11.1751	6.7704	-16.8983	-6.0373	-2.4723	3.2004	0.2529
4368.0252	-28.2493	-16.1251	0.5390	-14.4151	-11.8794	-19.6814	-12.3784	-17.4587	7.6842	-26.8552	-8.3774	-11.0151	-1.3599	-11.5108	-9.0153	-10.8179
4376.0253	-32.4914	-19.2397	0.6639	-21.2161	-12.9609	-23.9953	-18.0902	-19.5063	-7.5138	-44.2124	-21.0758	-3.8377	4.9484	-23.7274	-23.4103	-23.0025
4384.0253	-21.4022	-16.0221	3.8874	-16.9740	-14.0187	-18.2471	-13.0852	-13.6417	3.7701	-28.1438	-11.0338	-9.7467	1.5431	-18.6866	-15.0657	-15.9253
4392.0254	-23.6001	-20.8480	-4.2472	-23.6194	-21.3369	-28.3533	-20.9962	-23.1186	12.7338	-32.5520	-16.7669	-3.9999	6.1303	-28.5297	-24.9540	-25.9696
4400.0254	-22.3511	-14.0405	1.6832	-9.9789	-12.9487	-19.0906	-10.9437	-6.4046	-0.2970	-34.2994	-19.3420	-9.9734	2.2374	-24.7516	-21.8996	-22.1814
4408.0255	-7.8488	-2.7233	6.5104	8.0736	-17.2495	-1.8082	-1.9770	5.6855	-3.6221	-16.6234	-12.8467	-11.0086	-3.1924	-6.3703	-11.0702	-4.9798
4416.0255	-9.7079	-6.8386	5.8224	-2.1202	-19.6168	-6.3632	-9.8177	-5.4537	-2.4945	-15.0542	-13.4879	4.2627	2.8244	-4.6049	-18.2461	-7.8360
4424.0256	-1.5385	5.4154	25.6905	10.8697	10.1585	7.9153	7.3287	11.2142	-0.4096	-0.0517	-1.6938	5.4487	-2.5134	12.2580	5.0355	8.1207
4432.0256	11.1503	15.1779	32.1508	22.1834	12.5538	17.0202	14.2222	19.7908	5.9537	10.7694	0.9762	11.1794	-3.8586	21.9253	16.8519	20.9420
4440.0256	2.2933	2.5171	25.3058	8.3799	-1.6492	4.4797	1.1400	3.1964	-0.6624	0.0242	-11.0227	8.5073	0.3200	2.5126	-0.3907	6.5443
4448.0257	8.9852	7.1848	36.8903	15.1037	11.2054	13.6282	8.7096	5.8550	1.6362	10.1988	-3.4761	-1.6457	-5.5886	4.9991	12.2230	11.0076
4456.0257	12.2337	9.5808	37.3595	13.6573	9.1451	13.0724	9.1090	8.9488	12.8296	11.6865	3.5737	4.4756	-4.2385	12.4800	16.0292	15.7551
4464.0258	-0.8987	0.6319	31.7585	0.3406	-1.5058	0.4570	2.3278	7.6390	9.3852	-0.3349	1.0470	9.3143	0.3717	9.6287	9.1260	12.3443
4472.0258	4.6519	3.2911	38.5541	2.1308	-1.4326	6.9697	4.7743	11.0863	8.6128	3.2494	1.9955	6.5273	-1.8805	20.4146	13.7873	17.5468
4480.0259	8.1593	3.0783	38.1318	2.6837	3.6909	7.1403	5.5382	10.6948	11.4950	3.8163	-0.2505	-0.4072	-3.3894	20.6884	8.3403	13.1531
4488.0259	5.7512	4.9811	33.8528	4.4192	16.4036	5.1890	11.9680	20.2756	11.6041	4.8427	0.6160	1.0934	-2.6619	16.5768	14.0724	13.2088
4496.0260	8.9364	7.1836	28.2522	4.1970	8.2277	6.9867	7.8087	17.6599	7.8574	-4.9325	-4.3742	3.8304	-1.0788	23.0465	6.2312	12.8659
4504.0260	13.7388	9.2268	29.7790	6.7354	1.9841	8.8681	0.0471	4.0041	1.5043	-13.6264	-8.6088	6.5954	0.2183	23.0208	-8.6615	6.9780
4512.0261	22.7122	18.0323	40.7695	18.6522	8.3674	15.9967	8.5891	12.8832	9.7545	9.4017	7.2081	20.1875	0.4530	23.2399	9.3354	17.6517
4520.0261	15.2298	11.4577	38.9806	15.3711	-8.0503	6.1824	3.9337	12.0343	12.7553	9.7545	9.6353	20.7479	1.7247	17.1528	5.5039	16.7200
4528.0262	6.5912	4.9925	37.4897	4.6091	-12.2991	-3.2503	-5.2740	-1.3088	5.9892	-11.5614	0.5226	17.1608	4.1855	5.0837	-3.4837	5.1021
4536.0262	12.2710	8.2511	39.7163	3.0334	-8.4061	-0.2337	-2.0585	0.8410	14.0813	-12.0730	7.1572	9.9502	1.7846	5.5778	9.6068	5.5524
4544.0262	8.3200	3.5651	36.9832	1.8583	-15.9086	-7.6287	-5.2564	-1.4257	16.1167	-18.2982	5.1330	-2.7075	-0.9047	6.3954	0.5336	-1.0509
4552.0263	3.0239	-1.1989	40.2736	-4.7001	-7.9235	-12.8643	-8.7055	-11.4782	10.3815	-21.8096	-2.6255	-3.3261	0.1276	1.7727	-1.5822	-7.5886
4560.0263	1.5812	-5.0612	38.2055	-9.9485	-4.7357	-15.0753	-7.0793	-10.7345	10.9866	-18.2780	-0.7107	-12.2296	-1.2901	-6.3554	3.9964	-10.1504
4568.0264	10.7061	2.9876	40.0579	0.8874	2.0573	-9.1085	0.5716	5.9201	11.3788	-21.8498	-0.7073	-13.4808	-1.4080	-8.0966	-1.7408	-10.4559
4576.0264	21.7881	12.3789	46.9447	9.9026	11.3893	0.6942	7.1415	11.1521	20.1815	-10.1037	4.9470	-5.7402	-2.8766	7.9933	7.8658	3.3532
4584.0265	5.6438	-0.0454	32.6224	-3.7679	-5.4724	-14.3465	-4.3283	-6.0458	18.5089	-13.2851	2.9580	-5.6645	-1.4057	7.4599	4.9562	2.9091
4592.0265	-0.3192	-0.8540	22.8617	-7.4697	-6.6048	-15.9052	-6.1782	0.3669	1.0406	-38.0543	-14.3028	-4.0583	3.3716	-5.6880	-6.2057	-7.5708
4600.0266	9.4956	10.1706	23.1575	9.3290	3.9524	4.1129	9.0321	18.8047	5.8998	-22.1008	-7.1047	-13.3771	-5.1101	11.5674	10.4871	9.0572
4608.0266	6.0670	10.4377	9.2108	14.2335	-2.7905	9.0447	9.5715	13.5073	14.0859	5.8197	8.2208	-3.4133	-7.2096	26.4402	21.4438	21.3322
4616.0267	15.8612	17.0783	-1.2346	15.7774	-6.7984	16.8927	5.8063	11.2132	6.1712	3.9224	4.1455	15.2840	0.2483	19.5983	14.9694	14.1637
4624.0267	27.0457	24.1326	-7.5753	25.5812	-5.8042	19.4278	11.5534	16.5216	13.7643	18.7335	15.4019	14.0118	-1.9863	23.4736	22.8706	22.7362
4632.0268	21.4110	20.9951	-23.6385	20.2178	4.2218	7.2684	14.3866	16.8523	21.9289	35.7977	24.9986	24.3625	1.7688	16.4159	34.0034	26.3384
4640.0268	18.5573	17.9277	-38.2230	11.3773	10.3100	5.7987	10.8705	12.2595	11.6882	21.2843	12.5357	22.7348	5.9799	-3.2420	25.9575	10.7453
4648.0268	15.0537	15.9973	-48.3147	12.5019	3.6181	6.4474	7.5495	4.6156	6.0030	20.9053	13.5174	16.1246	3.3101	-0.4281	21.0715	10.3840
4656.0269	8.8427	9.4368	-62.5305	2.9694	2.2481	0.9976	2.8572	-4.1431	1.3410	22.5850	11.6869	16.3669	5.2443	-4.7116	17.6913	7.6914
4664.0269	4.1763	0.5664	-76.3067	-8.7499	-3.6271	-3.4223	-7.0211	-20.2182	-3.6529	6.0477	2.3033	0.0695	4.8166	-20.3998	0.1078	-8.8204
4672.0270	4.4404	-2.0287	-80.8880	-9.3916	-7.7182	-0.3178	-8.3003	-19.8784	-7.7063	12.1065	4.3284	-1.6702	4.8362	-21.5247	-8.6641	-13.2334
4680.0270	7.9237	-1.8378	-78.9279	-6.1311	0.4722	9.2400	-1.6756	-5.3736	-20.2922	19.0751	-4.4126	-3.0842	5.3492	-25.9912	-14.7031	-16.5588
4688.0271	8.6011	2.8330	-65.7372	3.9384	11.4405	13.3625	4.1357	-3.6174	-12.8981	20.7986	0.9670	-10.1524	-0.8226	-15.2188	-9.9926	-8.3643
4696.0271	10.2036	9.4212	-50.6185	9.5908	14.2814	12.9016	10.3948	4.5531	0.3892	30.9426	16.9756	1.0471	-1.9505	3.0387	10.9124	9.2641
4704.0272	3.2288	1.1721	-53.5351	-0.8996	0.6237	3.1338	3.4113	4.6661	-11.0894	17.8766	2.5166	4.0657	3.9652	-12.6952	1.2412	-0.6161
4712.0272	-5.5758	-7.8885	-55.9753	-6.5535	-6.5891	-10.0891	-4.6623	-8.9183	-13.2837	12.5023	-0.9942	-4.5169	3.5036	-22.2037	-9.9200	-11.3818
4720.0273	-0.7081	-6.1530	-49.6214	-0.7752	-16.3719	-5.0730	-2.7774	-2.3361	-15.3160	17.7944	0.7880	-11.2775	0.2851	-15.5331	-7.2462	-12.1017
4728.0273	9.5669	1.5248	-38.3414	8.3254	-21.9893	11.3949	-0.4498	9.3078	-16.9175	10.7940	-8.5566	-5.5503	0.9198	-8.0381	-15.5718	-9.7031
4736.0274	19.9409	16.2577	-17.3053	22.4366	13.1454	22.3396	14.7488	17.1552	7.6574	31.3962	15.0661	6.4656	-3.2497	14.6319	5.3149	14.1914
4744.0274	12.2349	13.5398	-14.3944	17.4975	19.6294	16.2825	17.2099	18.0239	7.6897	39.4000	23.5745	12.0462	-2.5406	16.1362	19.1935	20.6574
4752.0275	-3.6201	-1.8029	-23.0686	-2.0807	-7.5026	5.2650	0.5640	5.4065	-9.7491	13.4081	-0.5882	11.1873	3.3026	3.4707	0.8581	5.7159
4760.0275	2.8555	1.9364	-16.5417	1.7058	5.6990	10.1854	3.4283	-1.4785	-4.5252	14.6750	2.9248	-1.7695	-2.4319	6.9806	6.1957	5.9227
4768.0275	7.1964	3.4094	-19.0538	3.0164	16.2878	10.9358	4.5525	-6.9165	-5.2388	24.4548	9.6419	-1.5805	-2.3266	0.4970	6.6991	0.9106
4776.0276	2.6245	-4.1985	-26.2215	-10.2307	13.1312	-0.3605	-1.6239	-9.4644	-7.6244	18.7905	3.4583	4.7574	4.2625	-8.7442	-4.4593	-8.7306
4784.0276	2.6377	-3.0879	-24.7972	-9.6373	18.7042	-3.3494	1.0354	-5.2625	-6.1986	13.1237	2.0708	-0.1729	3.6580	-13.3026	-1.2463	-12.4746
4792.0277	-0.4247	-5.2811	-32.5064	-6.8527	0.1142	1.8013	-2.2638	-3.1277	-9.2379	12.6849	-3.7385	-0.5245	3.2180	-12.0062	-8.4642	-14.3322
4800.0277	4.7107	-4.7638	-32.6229	-2.7972	-11.6944	7.5598	-0.9755	3.5471	-5.2456	20.3941	0.9962	-5.7124	0.0789	1.0796	-13.0032	-5.1451
4808.0278	12.5317	5.9263	-16.1261	5.8628	7.8322	12.0633	7.2949	9.7723	-3.2567	24.0258	15.6399	3.9438	0.4439	2.8223	-1.8776	4.6256
4816.0278	10.5348	9.2522	-9.2766	6.6098	13.3024	14.7296	9.1510	13.4197	-1.6806	24.0155	18.3251	19.4773	3.8682	4.4363	3.9839	9.2633
4824.0279	7.6303	5.1206	-12.2305	3.0627	-0.4186	10.5581	1.8645	5.8359	-5.0816	16.5020	10.3685	18.2581	4.7461	5.5304	-4.7311	5.4953
4832.0279	7.3835	3.9653	-8.3250	0.0979	1.4007	3.8848	-3.4609	-5.2967	-14.5569	6.3115	2.4378	19.5099	7.2495	-3.7735	-9.4278	-1.6185
4840.0280	16.1676	9.2049	-1.8777	7.2242	12.5225	8.3814	6.6946	5.1047	-6.1599	17.7433	7.4745	8.3078	1.6638	2.4119	6.2402	6.1974
4848.0280	21.5852	13.0309	-2.9248	12.8388	4.8953	15.8157	6.3384	2.3711	3.6410	25.6480	16.8832	8.1497	-0.7810	6.4581	10.7757	7.4490
4856.0281	13.7345	7.1083	-7.6282	4.0236	-9.2891	13.2442	-6.3699	-13.4482	0.7117	17.0701	14.0317	20.3240	4.7553	-0.9273	-3.0309	-4.7537
4864.0281	10.0422	-1.8543	-13.9072	-5.3607	-14.8157	0.0816	-10.4901	-13.5952	-6.3785	13.5599	4.6174	14.0044	7.4260	-10.0981	-14.2805	-13.1403
4872.0281	6.9298	-6.4878	-16.1609	-10.4585	-9.0167	-6.8765	-11.6866	-17.7932	-11.4231	14.5677	1.2163	13.8023	9.5802	-23.3199	-17.4623	-15.7510
4880.0282	-1.7584	-3.8561	-7.0855	-3.5220	4.3331	3.5475	-4.8468	-16.8475	-3.7124	12.8601	6.2016	4.7076	1.4404	-14.1378	-4.9360	-6.3113
4888.0282	-11.4498	-5.2280	-8.4211	-1.9494	-0.4215	0.5764	-4.4474	-13.5639	-5.4322	-1.1128	1.4321	-4.9512	-2.4562	-5.8072	-3.8393	-4.2760
4896.0283	-14.7128	-11.9888	-20.0949	-12.0053	-9.9108	-11.8426	-10.5917	-12.2131	-17.2254	-12.6611	-11.4112	-2.4774	4.2213	-18.5067	-18.4961	-15.0496
4904.0283	-1.4972	-3.8516	-8.0420	-0.7791	-2.1451	-0.0514	-1.1753	1.6153	-9.1643	-4.6795	-6.1149	-10.7075	-0.7443	-8.7933	-14.0999	-10.3663
4912.0284	4.3960	3.3899	5.2613	8.0335	-0.0197	8.3055	2.7427	2.1771	2.9075	7.9195	5.5523	-4.0022	-3.8954	8.3596	-0.5017	1.3613
4920.0284	-7.2652	-5.3736	-10.1450	-2.7033	-12.7485	-2.3508	-3.9673	-2.6924	-0.5151	10.8272	-1.8737	8.8788	2.3559	0.1339	0.4975	-1.1058
4928.0285	-10.4880	-10.4492	-16.0776	-7.4026	-27.6966	-4.0946	-12.6944	-8.0348	-13.4573	-0.6025	-17.5451	12.5237	7.0704	-12.0031	-15.5051	-14.7880
4936.0285	-5.2251	-5.5006	0.4944	-0.2352	-24.6153	4.8005	-14.2202	-16.2313	-17.2773	-2.9797	-15.6542	13.5248	4.7528	-5.6390	-19.9864	-13.5410
4944.0286	1.1742	6.1682	8.6712	14.5560	-6.8026	11.9313	1.3533	1.9814	-7.3337	8.3258	-0.7047	12.4948	-0.5314	6.9454	1.0998	5.6769
4952.0286	6.2634	11.2530	10.4025	17.1492	2.6711	13.8980	6.6607	9.4551	-3.6224	9.5536	4.0911	16.6760	0.5653	5.4685	6.6197	10.5991
4960.0287	5.3132	7.7307	13.5968	13.9065	12.1956	13.9576	6.0179	1.1517	0.7599	15.4191	4.2473	10.9156	-1.6977	5.7222	4.3827	9.0384
4968.0287	8.0144	10.1531	11.9050	14.5291	20.8071	13.5009	11.8751	11.2438	7.8506	21.2185	5.0055	13.0183	-1.3373	11.4956	11.7273	11.7378
4976.0287	9.7506	7.4474	7.3227	3.2571	21.1242	9.2535	6.3226	2.7984	6.0018	13.1758	1.0315	13.9176	1.9185	9.4792	8.3614	6.5756
4984.0288	-1.9319	-4.4714	-4.0308	-9.3484	16.2098	-0.9212	-3.0037	-16.9140	3.1440	4.8974	-3.1726	-3.5833	-1.0770	2.5855	0.3121	-3.4577
4992.0288	-13.6538	-16.6301	-14.8452	-24.7122	3.2418	-15.3081	-11.4276	-17.2378	-7.8565	-9.9805	-15.8731	-5.2487	5.0443	-15.9792	-13.7159	-22.9186
5000.0289	-13.8911	-21.8847	-15.6683	-31.1606	-2.9532	-17.1476	-13.3190	-12.5830	-17.7564	-17.7117	-26.1564	-13.6487	6.2240	-24.3115	-22.4878	-31.4835
5008.0289	-16.3836	-19.4619	-24.4885	-20.0264	-13.9605	-8.9569	-10.6021	-10.8903	-15.6096	-8.5428	-21.6231	-19.8987	-0.3311	-10.8697	-16.6658	-18.4960
5016.0290	-22.8341	-24.2313	-30.7742	-21.9206	-30.8175	-9.0619	-16.6892	-14.3725	-21.8761	-8.7288	-25.7868	-14.0220	1.7214	-11.2097	-25.4950	-18.7180
5024.0290	-16.8850	-22.9063	-15.7945	-20.2362	-18.6428	-4.3578	-12.3801	-9.5314	-23.2029	-14.8165	-29.9430	-26.2001	-1.2869	-14.5896	-30.4978	-20.4490
5032.0291	-10.1481	-12.4656	-6.6391	-8.3733	-5.9232	4.8877	-1.5592	2.6415	-13.5493	-8.8194	-20.7130	-24.9038	-5.1911	-2.4748	-15.1887	-6.0235
5040.0291	-8.3103	-8.2206	-1.7722	0.1082	-5.6149	6.6258	3.9316	10.6223	-9.2809	5.2025	-13.4753	-17.0806	-6.2656	9.5166	-5.8578	7.2278
5048.0292	-2.0809	0.7200	10.8731	9.0396	5.9610	6.7126	9.1090	13.5665	-0.6450	9.0068	-4.3787	-6.2580	-5.7950	15.5926	3.6101	17.1293
5056.0292	-7.9971	0.3321	8.3138	0.1188	2.8965	0.8667	1.5446	-0.0681	-0.4799	-0.4457	-2.3435	9.7719	-0.0504	9.9607	11.4803	14.1529
5064.0293	-10.5469	-3.8601	10.2881	-2.4677	-4.7001	1.0467	-0.1828	1.7214	-10.9981	-5.3502	-9.3717	0.2863	-1.2458	5.5122	8.0559	5.6874
5072.0293	6.0522	8.5955	29.3687	12.2701	8.9041	9.9749	13.0342	24.5830	-5.6624	0.8895	-1.5157	0.5683	-3.0667	13.0113	13.1531	13.7473
5080.0293	12.1453	13.5346	31.1633	15.5833	19.1749	8.5883	15.8694	21.2310	3.5301	13.6341	9.8419	9.9199	-2.0542	14.8509	22.5195	21.6379
5088.0294	9.5217	13.7364	23.2769	17.6901	17.1492	7.8349	12.5568	11.1915	6.2964	15.7504	13.2876	12.4609	-2.3279	12.2767	21.7655	19.6506
5096.0294	1.4667	9.3293	15.7436	8.7186	8.4222	2.2919	4.6287	3.5571	4.9939	2.9268	10.0530	19.0845	1.8812	7.6182	14.9002	12.1186
5104.0295	-10.6586	-2.9419	3.7016	-2.0466	0.8740	-8.6227	-4.5843	-10.0948	-4.9045	-5.5927	-3.5939	8.5557	2.1148	-1.6283	0.9425	-1.0237
5112.0295	-5.3740	1.7154	6.8095	8.3763	1.7105	-2.4061	-0.4004	-2.2505	-8.3668	-10.6754	-5.9884	-1.6093	-1.4758	-2.6850	-5.4688	-2.7102
5120.0296	-1.9998	3.6453	12.9280	7.4418	3.0495	-0.2843	2.6704	1.2669	-4.1611	-8.9014	1.3828	-4.3350	-3.0941	-0.0699	4.3384	5.3640
5128.0296	-4.7483	-3.9161	6.9522	-0.0086	1.3013	-4.7977	-0.4994	-6.6856	-4.2990	0.8522	-2.7939	-8.9462	-3.5458	-1.6933	3.3782	4.7120
5136.0297	0.6034	-1.2456	8.7581	2.6306	-6.9546	-0.2097	-0.3917	2.4956	-7.3635	-6.4320	-6.2886	-8.3204	-2.0602	-1.4482	-4.9698	1.6736
5144.0297	-1.3724	0.8986	17.0886	0.9519	-6.9236	0.5139	1.5788	6.6470	-7.0126	-15.1311	-1.4366	-9.4368	-3.1758	3.1373	5.5108	7.6905
5152.0298	-3.7914	1.7432	17.8052	1.4285	13.8943	3.6438	8.7670	7.7891	1.1229	-1.5713	3.9466	-8.6995	-5.8995	10.3733	17.3832	16.9411
5160.0298	-0.9194	2.6690	12.9240	2.8029	25.0449	6.0627	14.3939	17.0844	1.2193	4.5524	3.2177	-11.7492	-6.4904	14.2587	14.0011	16.2310
5168.0299	1.0777	5.2660	11.5560	3.6567	20.0413	3.3297	13.6526	21.0053	-2.3779	-1.5738	1.6145	-8.2198	-4.4751	17.6777	14.1118	13.3420
5176.0299	3.9781	10.2255	13.7284	8.5549	18.1034	8.4254	15.0363	24.4583	4.8836	4.5287	8.2206	4.4637	-2.6021	21.6916	18.8758	16.5971
5184.0299	2.7653	5.9691	9.3826	3.5370	16.3934	6.8349	10.8111	16.8635	1.6582	8.8940	8.2759	5.3539	-0.9216	15.0495	13.0277	9.1209
5192.0300	0.3149	-0.9528	0.3615	-7.7345	14.0164	-3.1321	2.2797	0.1712	-1.7371	3.5801	1.5990	0.5127	0.9609	6.1094	7.4094	-1.0646
5200.0300	-6.6179	-6.8233	-3.3031	-11.9663	7.1490	-6.6277	-2.0384	-8.0698	3.0244	-4.3088	-2.0745	-12.6631	-2.5566	2.1740	4.7870	-5.0992
5208.0301	-9.9313	-10.1612	-0.1760	-13.8330	-3.8943	-5.7261	-8.5987	-14.6307	-3.0579	-15.4455	-5.8398	-17.8837	-2.6623	-5.5934	-6.0128	-18.2859
5216.0301	0.9609	-5.8823	3.4565	-10.8925	-5.1480	-3.0843	-6.8085	-8.2001	2.0977	-8.0361	0.9985	-11.6310	0.2249	-11.5261	-6.7012	-22.3701
5224.0302	6.7335	-0.2329	8.5586	0.9163	2.6617	2.2670	4.1944	7.1975	11.6441	7.2375	7.5258	-13.1814	-3.3453	-6.8561	3.2900	-9.9036
5232.0302	8.9050	6.7629	16.9929	11.3833	9.4670	10.5109	6.5893	6.0603	6.9995	2.7447	3.2231	-9.7782	-5.7702	5.8948	2.2909	-1.1209
5240.0303	7.4146	6.9588	16.7552	13.0477	2.9586	8.4686	3.0857	-0.8642	7.3668	1.1800	3.5347	-5.6553	-5.7920	11.4694	-0.1009	6.8324
5248.0303	-2.3059	-0.5184	7.8395	3.0696	-12.5679	-1.9131	-1.6195	0.3086	2.5287	2.4978	0.2780	6.7925	0.0596	6.7596	2.4159	13.0573
5256.0304	-1.6500	-1.9840	-0.7810	-7.3680	-13.1884	-2.8323	-0.5552	11.6194	-4.9787	-4.1308	-6.4389	11.6195	4.7916	11.0538	2.2349	15.0293
5264.0304	1.7432	0.2353	-3.4987	-0.8175	-0.6938	2.0623	7.8580	21.6669	-3.8625	-3.7957	-7.3851	-8.9507	-2.1891	16.2680	0.7943	14.7656
5272.0305	-0.2795	1.9254	1.9948	6.7855	6.0356	6.0188	7.4026	11.1404	-6.0834	0.6356	-6.5661	-10.1281	-5.0072	10.9232	2.4342	9.0155
5280.0305	-6.0068	-3.6489	1.8002	-2.8805	2.9206	-4.3487	-1.7615	-7.5857	-5.0898	0.9737	-5.6208	-1.8699	-1.0904	2.0701	4.5618	0.0276
5288.0305	-10.2241	-9.7470	-1.7367	-13.9911	-2.2391	-15.8134	-9.0689	-14.2560	-7.8366	-9.9892	-14.0643	1.4538	4.4796	-13.1485	-1.1678	-13.9600
5296.0306	3.0888	-2.4858	0.2151	-10.2579	-1.9689	-2.1839	-7.1405	-8.2095	-11.0568	-11.5608	-14.0680	5.0520	6.4948	-18.5262	-3.6809	-18.9120
5304.0306	14.6376	5.2626	5.3984	2.0540	6.1463	6.6572	1.4900	-1.5325	2.7307	9.5192	5.9005	1.0671	0.9253	-6.2163	3.1658	-7.3756
5312.0307	12.9752	9.0269	12.9816	8.6075	11.8201	3.6449	4.7082	0.8489	12.5774	12.3983	13.8676	6.4376	-0.3407	3.3418	8.0227	0.2537
5320.0307	4.8417	5.3450	-0.9175	5.2880	-7.3288	0.8045	0.5548	3.4376	6.5273	0.1627	5.5917	3.7554	0.1325	5.0168	5.7284	0.6364
5328.0308	-5.2092	-3.6321	-15.2948	-0.2730	-21.6941	-4.1234	-6.4678	-2.0771	-7.3189	-3.0690	-6.4391	2.3456	1.9260	-0.2560	-7.5993	-4.3662
5336.0308	7.1415	6.6185	8.4065	8.2818	7.9336	12.0071	0.1887	-3.1879	-11.0516	0.5939	-8.2059	10.3261	1.6042	3.2972	-6.8333	-2.5017
5344.0309	19.7529	19.1886	22.6246	26.0619	25.5984	24.7347	15.9850	10.9412	4.5423	19.1349	7.7461	1.8853	-7.4683	20.9750	15.2162	16.5007
5352.0309	9.3001	10.8660	10.3548	21.9529	1.4408	9.3658	10.2745	9.7125	7.4928	24.4235	10.6252	4.6129	-5.6927	18.5161	15.6172	20.6016
5360.0310	4.2219	0.0125	3.2505	2.8802	-12.4678	-4.7690	-4.4561	-4.3598	-6.3119	5.3663	-3.6370	10.2250	3.6043	-2.8171	-4.0632	3.5790
5368.0310	8.3232	1.2492	5.3122	1.9753	-2.6202	-5.8243	-2.7297	-2.9284	-5.5855	1.1556	-4.2020	5.9314	3.7445	-6.2116	-8.4350	-0.4399
5376.0311	14.3041	12.5961	17.7485	14.1853	10.0278	8.0712	8.3827	8.5006	7.7342	7.3423	12.1631	6.1343	-1.7275	7.6467	9.1541	13.9974
5384.0311	11.4461	13.2184	19.5637	12.1065	9.1072	8.3045	10.9048	14.9843	10.5190	1.8786	17.3414	3.9273	-2.6048	8.8703	17.1901	18.1425
5392.0311	0.8964	2.0158	15.1796	0.6625	3.9090	-9.8553	3.3949	9.1360	5.7334	-3.8941	7.9225	4.9693	1.9859	-0.2207	3.7541	6.5831
5400.0312	2.9858	1.3430	22.1522	-2.2116	9.5111	-10.2458	0.2831	-3.9476	10.1953	-4.7962	12.7929	-1.6427	-0.3544	-1.6931	4.7103	1.7746
5408.0312	4.0525	-1.1102	15.2133	-10.2371	3.6208	-14.7980	-5.1459	-8.9526	8.7696	-13.4932	11.4185	-2.5824	2.7817	-10.8488	-0.1400	-8.5174
5416.0313	5.3859	-5.3710	9.2370	-12.1438	-8.2406	-17.1757	-10.7519	-7.6426	2.1415	-16.0544	-3.8454	2.5478	7.8677	-19.5404	-19.2045	-20.7809
5424.0313	11.3918	1.5726	14.1659	3.9525	-14.9897	-1.6781	-9.0032	-14.4571	9.2105	-4.9793	2.9839	-3.8839	-0.2404	-9.2186	-12.0260	-11.2787
5432.0314	9.5579	5.4526	14.0376	9.7120	-22.2388	-0.9123	-8.1649	-10.5771	10.4508	-4.8910	10.1120	3.8013	-0.2479	0.4278	-8.1019	-2.1107
5440.0314	17.1100	12.0631	24.6494	16.7475	-3.7442	3.7704	5.2827	14.8654	9.6607	-1.5030	10.8047	4.4902	-0.4823	8.5413	-6.7505	8.0371
5448.0315	20.9052	17.3644	27.2137	21.0576	12.1627	12.2212	11.7032	13.4857	17.2836	6.8314	19.2429	1.6754	-4.6176	12.9058	6.9596	17.5782
5456.0315	11.3197	9.7477	19.3468	9.0077	2.3463	5.6751	-0.5968	-6.3159	16.2980	0.4056	17.1509	8.6010	-0.9065	8.9701	-0.3644	7.6657
5464.0316	8.4906	7.1707	26.7550	7.6427	8.6758	1.0186	2.8478	0.0195	17.5865	-0.5127	16.3468	0.2844	-3.1503	12.2993	0.3657	7.3624
5472.0316	-6.4290	-3.4751	18.9709	-7.5195	-1.6599	-19.9532	-4.2928	-6.1141	13.9574	-13.9363	9.6967	-0.7260	0.4910	2.3555	4.0565	3.8754
5480.0317	-19.8254	-18.0688	6.1750	-24.1300	-25.8182	-36.3723	-21.3783	-24.0715	-2.4846	-39.8301	-8.7708	-9.7223	4.7868	-20.0620	-16.3534	-18.1699
5488.0317	-5.5227	-4.5773	29.2058	-5.6057	3.5651	-15.8843	-5.2244	-8.8753	3.9443	-32.8732	-2.0516	-20.8225	-3.1676	-14.6387	-7.8854	-14.0151
5496.0317	1.7636	6.0518	48.5449	-3.5188	27.3346	-10.6710	7.5946	6.9369	22.9065	-22.4326	15.7492	-6.5450	-2.8678	4.2183	19.1342	4.1432
5504.0318	-6.6220	-3.2218	35.0645	-18.7619	7.5517	-28.9178	-3.9624	-3.0358	18.7085	-32.5667	13.9646	-3.4551	2.5157	-0.3541	13.5103	-2.6277
5512.0318	-9.3082	-9.5579	21.4640	-20.9084	1.1250	-30.2424	-11.9468	-16.4034	7.9390	-35.0986	1.3867	-9.1134	3.7246	-16.9692	-5.1479	-19.6403
5520.0319	-9.3278	-15.6377	14.7553	-25.7993	-5.3205	-27.6792	-14.3066	-18.9660	7.5565	-30.5505	-5.0009	-17.9625	2.5104	-23.0792	-11.0624	-23.4432
5528.0319	-7.1486	-15.5287	8.6820	-24.4155	-17.9852	-26.9622	-14.2916	-11.9938	5.8739	-32.0180	-4.1373	-19.9436	3.0128	-26.9993	-13.7065	-21.0102
5536.0320	-2.1939	-7.0688	17.4469	-12.5102	-11.6550	-13.7363	-9.3122	-3.0934	8.1877	-32.9328	-6.6986	-10.6446	2.9794	-20.0097	-17.1188	-17.2903
5544.0320	-4.8322	-5.3291	26.3224	-7.4894	-13.5115	-12.6042	-6.2466	0.5846	15.9289	-29.5600	-5.2692	-11.7855	-1.4471	1.9843	-8.3085	-3.5129
5552.0321	-7.4940	-5.3768	23.7027	-11.6834	-17.9389	-25.2528	-9.1166	-2.5664	9.9140	-33.5742	-3.6069	-2.8010	2.5184	2.7258	-0.4531	0.5959
5560.0321	-2.4939	-2.0497	25.4763	-8.8221	-4.7170	-18.7853	-5.1418	0.9132	4.9614	-34.1119	-9.3252	-3.5361	2.7649	-1.8867	-2.7018	-2.9382
5568.0322	-3.3632	1.1907	27.3611	1.3553	1.0022	-7.3641	2.3754	8.8938	11.4877	-28.1604	-9.4870	-11.9941	-4.2217	11.9572	0.9646	8.6223
5576.0322	-4.8564	4.0248	32.3388	1.5725	-2.0480	-7.0127	0.7226	6.8450	9.1023	-32.0309	-6.7189	-0.6080	-2.0344	17.9551	5.9218	15.4328
5584.0323	-1.9192	2.5453	37.3983	-0.6984	-5.4946	-6.4963	-0.9979	6.2090	5.6581	-27.1827	-3.7552	1.8637	-0.2857	13.6710	2.9963	11.6514
5592.0323	-0.5828	0.0613	30.5658	0.3800	-10.1403	-5.9247	-2.0819	6.5283	11.3815	-18.0196	-0.7942	2.9218	0.7973	4.6380	-6.1229	7.6484
5600.0323	8.6288	5.3168	34.8774	5.8115	-3.8669	1.0791	0.2261	5.2867	18.1941	-13.1443	2.9139	1.9815	-0.7705	5.5015	-5.0485	8.0350
5608.0324	10.6073	7.1279	41.1858	6.5768	2.9445	6.4560	2.5118	4.9162	16.0344	-4.1525	5.5390	5.1739	-1.8243	15.9619	1.7125	10.7798
5616.0324	5.9983	2.3741	35.9966	-3.3570	-2.1374	2.7448	-5.5610	-5.5542	10.0251	-11.2375	-0.9042	13.9569	3.5381	6.9385	-4.6371	1.8701
5624.0325	18.2201	8.7529	37.1374	5.6813	-10.1947	6.6068	-3.2217	-3.7969	19.6102	-7.8716	6.2269	3.8218	-0.3116	1.7264	3.9131	1.3341
5632.0325	18.3332	12.5657	20.4159	14.8016	-13.7304	8.0560	3.5398	10.0477	24.9513	12.7587	18.2316	13.0163	0.3427	5.6047	12.0992	6.7418
5640.0326	4.7654	5.3692	-5.8350	3.7797	-4.2440	0.1597	0.7836	7.2253	18.9105	9.8132	11.3925	21.7479	5.9424	-0.0233	0.9494	0.1718
5648.0326	3.9768	6.2030	-13.2164	0.4522	8.0156	-2.3396	4.4512	7.8919	16.0708	2.3110	5.6947	12.2960	3.9572	0.3194	9.8522	2.6358
5656.0327	2.2465	6.3695	-31.2396	-3.2435	7.9942	1.8119	5.4030	11.6286	1.5297	1.8798	-1.9739	17.2904	6.9325	-1.9592	13.5905	3.1224
5664.0327	2.0414	2.8000	-51.3781	-4.8579	6.6511	4.6570	3.3897	2.7495	-1.9555	12.1331	-2.3999	9.6244	4.6501	-3.1447	8.6959	3.2373
5672.0328	1.5426	1.1734	-58.3667	-1.5563	2.3728	0.8783	4.0847	-0.4137	0.9802	23.6255	1.3014	4.4233	2.0619	-5.9380	14.2668	7.6704
5680.0328	-1.2144	0.3515	-65.0365	-0.0561	-8.4926	6.2834	0.5141	2.5054	-15.8894	12.0307	-10.4240	7.1663	4.9929	-15.0990	0.0487	-1.2175
5688.0329	9.9800	11.0586	-54.5562	15.6677	-6.5531	19.5603	5.7182	5.6190	-5.0177	20.8769	4.1530	5.9380	-0.7660	3.6875	2.0156	9.6756
5696.0329	12.6060	16.5009	-44.5377	22.1256	4.2886	18.7836	9.7534	4.2667	10.6030	35.8762	16.7100	19.6787	-0.5541	11.8488	14.2391	20.4561
5704.0329	1.0446	6.9150	-52.2213	12.0500	5.1416	13.9108	1.4650	-6.5755	-8.4956	23.0432	-4.1535	21.3825	4.4932	-8.6658	-2.3559	0.4401
5712.0330	-9.9496	-3.1007	-56.4666	0.6579	-2.4825	6.0957	-5.9210	-16.3268	-17.7617	17.5094	-9.2161	13.5945	4.3027	-9.8601	-7.1926	-11.6716
5720.0330	-21.4445	-13.6450	-61.4631	-13.5235	-10.9259	-3.5347	-13.7189	-22.9285	-23.3050	3.4614	-18.7475	5.9920	5.6006	-14.3108	-14.8504	-24.2781
5728.0331	-18.5454	-14.6176	-57.2883	-13.5177	-10.7236	-2.0615	-16.0360	-25.0531	-28.0743	-5.1889	-26.4545	0.5279	5.9471	-23.2276	-27.4838	-32.4301
5736.0331	-14.4029	-13.2097	-46.2277	-13.3215	-9.6019	-6.1831	-15.2913	-26.1637	-21.1175	5.7364	-13.5000	7.5447	7.1299	-22.6719	-19.7707	-27.4279
5744.0332	-16.3754	-16.6756	-49.7304	-15.0198	-22.0749	-9.1452	-18.7781	-25.9027	-24.8400	-1.0725	-20.0794	1.4128	7.2101	-29.1161	-25.0489	-34.0867
5752.0332	-3.4678	-7.0580	-40.1860	-0.2811	-17.7611	1.2201	-9.3835	-10.8986	-17.1824	6.0600	-15.8270	-2.1696	3.1843	-18.8728	-22.3031	-23.4070
5760.0333	5.0286	1.8527	-21.5566	4.2124	11.2910	6.9632	4.4377	2.2200	-3.4269	20.5872	0.3764	4.4696	1.3577	-5.0395	-2.8088	-4.2392
5768.0333	3.6087	2.3848	-21.9314	2.3730	14.4330	9.9552	7.0097	8.1162	-4.4321	17.0461	-0.3834	5.5302	1.8634	-5.3467	-0.1868	-0.3817
5776.0334	4.6454	3.3862	-23.9504	9.0784	-4.0074	11.4603	6.7139	15.2832	-0.8690	21.4120	5.3912	7.1350	0.8856	1.6583	-4.4816	7.6984
5784.0334	4.4385	2.7266	-20.5037	11.6320	-1.8980	11.9726	5.7038	7.9725	-0.8353	23.7066	6.4448	0.5561	-2.5885	6.1663	-6.9161	8.8702
5792.0335	5.6298	4.3614	-15.7411	11.4963	5.9245	13.8969	7.0155	1.5410	3.1485	29.2962	10.8462	0.2164	-4.3464	6.0428	5.4895	11.1019
5800.0335	-4.9917	-0.3024	-16.8841	4.4217	-4.9248	8.6596	4.7949	4.9812	6.4082	24.8572	14.6225	5.4954	-2.1944	3.4455	12.1177	11.6275
5808.0336	-16.1090	-8.8415	-25.7380	-6.6349	-16.5299	6.9092	-4.2408	1.5271	-12.0083	1.3947	-8.7546	2.1294	0.9402	1.2963	-6.6661	-3.7695
5816.0336	-10.6133	-11.2462	-23.8326	-13.4156	-6.5456	0.4953	-3.4559	0.0424	-11.4170	1.0490	-14.6983	-8.3732	0.0316	4.6221	-6.9824	-6.6900
5824.0336	-15.3793	-14.6040	-22.6671	-17.0192	6.0959	-13.9493	-2.1748	-7.0130	0.4082	0.0908	-6.3382	-20.2043	-2.8773	-5.1655	0.3980	-8.6195
5832.0337	-21.1696	-13.0429	-27.2918	-10.3617	1.6506	-6.7005	-7.7309	-19.5439	-13.6017	-5.7669	-14.7191	-12.5447	-1.8607	-13.3380	-6.0555	-17.1885
5840.0337	-12.4181	-7.9196	-19.8817	-2.9524	2.2446	3.2403	-5.8834	-16.9053	-21.1213	0.4285	-16.8010	-7.1045	-1.1117	-14.3416	-7.7162	-17.7417
5848.0338	-8.4503	-6.6828	-14.3668	-6.0657	4.8261	-2.3584	-5.1478	-11.6779	-14.8534	-5.6767	-12.2110	-4.3233	1.9527	-21.1724	-9.3806	-18.9315
5856.0338	-4.7381	-4.4114	-12.8468	-3.6004	-3.8175	-0.6926	-4.8300	-7.9937	-12.4496	-0.9617	-5.0150	0.6173	2.4618	-15.8872	-7.4859	-10.4217
5864.0339	2.0781	0.6295	-3.1698	11.0424	2.2219	9.0276	4.7221	0.1452	-4.1321	11.2973	2.8678	-16.2000	-7.0720	-7.0866	-1.8547	1.3495
5872.0339	5.2283	8.2381	4.0243	20.9755	12.3148	21.4375	12.0066	6.3380	5.2505	16.0454	6.2322	-14.4781	-10.8324	2.4279	8.7982	9.2324
5880.0340	7.2952	9.9768	5.2666	19.3280	5.7727	29.3426	11.7629	10.1331	1.2416	23.1002	7.7896	-1.7813	-8.2116	13.0060	13.8871	15.1584
5888.0340	5.0789	5.4215	3.1632	13.1521	-0.5316	25.2443	5.5953	5.8635	-4.1439	14.5705	3.4326	-1.7145	-5.6329	11.5705	-2.1437	8.2000
5896.0341	-3.1356	0.4798	-4.9888	3.0285	-6.7053	12.8856	-0.8583	-1.9217	-3.1807	6.2134	1.8314	2.7126	-2.6641	15.7522	-1.9609	7.2315
5904.0341	-9.9389	-5.8835	-11.7576	-6.5543	-4.1670	-1.2687	-3.4811	-5.9733	-14.7238	-6.1667	-6.8668	-8.1520	-1.9784	6.1486	-1.8542	-0.4926
5912.0342	-6.0929	-2.8376	-7.1816	-1.4597	6.3241	2.3539	-2.8767	-5.5768	-21.8089	-19.9839	-17.7439	-13.0140	-1.4126	-7.6437	-15.7160	-14.2299
5920.0342	-1.7249	6.1720	-0.0230	12.0955	2.1272	11.5409	4.5586	4.9614	-7.0790	-2.5336	-6.2479	-2.7814	-4.7856	15.1100	4.1594	3.6688
5928.0342	-6.4872	5.2472	-0.3746	8.1152	4.0236	1.8658	4.1465	3.5535	-7.3654	0.3323	-4.2829	7.7853	-1.4913	16.1907	15.2128	7.3746
5936.0343	-9.5568	-1.7565	-2.4561	-5.5804	5.2064	-6.9610	-6.3398	-12.2265	-17.2784	-12.7242	-12.4525	13.2875	5.9717	-9.7431	0.3010	-12.0755
5944.0343	-11.2529	-5.4096	-8.5490	-5.4188	-9.3038	-10.1176	-5.0788	-5.1553	-11.7323	-11.7742	-7.8730	-3.7776	0.8499	-5.7105	1.8432	-7.7866
5952.0344	-9.2641	-2.1875	-15.0072	-2.3171	-2.1244	-11.0123	2.0802	8.9578	-6.6737	-14.6465	-8.6009	-8.9666	-0.7306	2.2272	3.1367	-0.1403
5960.0344	-2.4064	0.6996	-10.7111	-0.0007	6.2623	-2.5508	2.3504	1.7590	-3.8680	-4.9285	-6.8829	-3.7148	-0.3900	-1.8542	4.1812	-0.2683
5968.0345	-3.4518	-1.6018	-7.2034	0.0059	-3.4768	-2.2526	-2.1359	-3.7402	-6.5124	-1.0745	-4.7130	-0.0246	0.4926	-3.5150	-0.8194	-3.1856
5976.0345	-3.0153	-0.5972	-7.3833	-4.8566	3.2694	-4.2691	-0.9103	5.0467	-8.9207	-9.0039	-7.1763	9.4227	5.4082	0.4012	-8.1705	-2.5883
5984.0346	5.3040	8.0878	-1.2195	8.2356	16.2105	11.4846	12.7348	18.6569	3.6521	3.6340	2.3929	-3.0359	-3.5497	12.6434	8.5483	13.6816
5992.0346	9.9376	14.4339	8.1697	19.1585	22.3833	21.9528	19.0845	24.2459	9.1626	13.4757	12.1934	-2.4619	-7.3958	20.6486	13.7213	22.4224
6000.0347	11.2511	10.7221	12.8237	9.3319	17.9407	13.0733	11.7150	13.8979	8.4115	17.9698	18.7685	9.6604	-1.9113	21.4422	9.7812	19.7838
6008.0347	10.6256	8.3335	4.6178	4.5605	2.7866	6.9500	6.6694	9.4212	11.2220	15.7876	16.4970	9.5957	-0.4371	18.2196	15.7528	16.0372
6016.0348	3.7919	3.2006	-7.7183	-5.3840	1.0755	1.9191	1.1199	9.4137	0.9739	1.2444	-0.9355	19.2932	7.0222	8.5605	1.4994	5.2168
6024.0348	-1.6549	-7.8215	-6.3869	-15.0920	3.9559	-8.1446	-4.1960	-1.3863	-6.3562	-1.1628	-8.8404	5.3594	6.2397	-3.5824	-12.1743	-5.6025
6032.0348	6.8807	0.0809	4.9774	-1.8872	10.0352	-0.2190	4.6132	6.7332	4.2689	2.2545	-0.5421	-10.1130	-1.6912	-0.4065	0.2552	-1.9965
6040.0349	13.7468	11.3459	11.3482	8.1630	18.2761	9.3760	13.1185	17.3191	13.4881	9.3795	13.0374	-0.5910	-3.4179	18.0844	14.7240	14.8447
6048.0349	5.7519	4.3286	6.9877	2.8606	5.7191	-0.4387	4.4460	4.2224	9.1937	8.2314	12.5467	3.3080	-0.8651	8.4179	8.0276	11.7686
6056.0350	-2.2403	-2.1941	0.6256	-3.6739	-4.1153	-6.1680	-1.5130	4.7727	-2.7945	-4.2536	0.0562	7.8305	4.9325	-10.7927	-5.5512	-2.4463
6064.0350	-7.4815	-5.8631	-1.5513	-6.2332	-4.5550	-8.9651	-1.0302	4.4289	-10.4626	-3.1903	-2.7681	0.2065	2.0981	-1.4665	-3.0211	2.2390
6072.0351	1.5951	-0.9429	0.8376	0.7515	-3.1242	-2.2656	-0.2336	-0.4940	-6.0757	-2.4173	-5.0995	-8.0253	-1.7997	0.1835	-0.7255	1.2194
6080.0351	15.2761	9.7672	5.5809	10.8786	5.0573	14.2713	7.9536	13.2396	7.6019	9.3870	3.1324	3.4186	-0.7320	2.9845	3.5480	5.5151
6088.0352	-4.7710	-0.0797	2.0079	1.3418	-2.3496	1.5030	1.2234	1.4285	6.0970	14.9516	10.9958	14.1761	1.0161	9.7673	7.6226	11.4075
6096.0352	-18.8171	-8.4879	1.6291	-11.8016	-2.7880	-11.7660	-8.4335	-9.6231	-12.4317	-13.7292	-5.4191	12.6391	5.7494	-5.7822	-5.0421	-7.4366
6104.0353	0.5048	3.4564	14.1584	3.2033	9.0762	3.0223	6.0007	12.5682	-8.6835	-8.5719	-0.1161	-3.6827	-0.9460	0.6024	2.1967	-2.0598
6112.0353	4.8863	5.5832	15.4387	11.4408	-0.0905	7.2715	9.0673	12.2839	6.2123	13.8087	13.6987	-7.0958	-6.9615	16.2974	15.1082	13.6803
6120.0354	-3.1054	-2.8819	9.2633	-1.0984	1.7751	-0.6333	0.0569	-0.7375	1.1764	2.1246	-1.4626	-2.7467	-1.7109	4.7173	-0.3851	0.4910
6128.0354	-5.3753	-4.9994	11.4300	-2.3835	12.4690	-7.6070	-0.9783	-7.9672	-5.4708	-3.1060	-10.2767	-7.0589	-1.5929	-3.2027	-3.6341	-5.1353
6136.0354	-10.8730	-8.3391	7.8164	-4.8799	-1.4552	-14.1215	-6.9167	-17.1001	-6.6263	-6.0365	-13.3093	-4.9646	-0.4825	-11.0957	1.9857	-6.7646
6144.0355	-7.0843	-9.1370	4.6557	-5.8876	-11.2895	-8.9560	-8.1289	-12.4592	-5.5279	-9.8620	-12.5812	-11.3116	-0.9724	-13.9339	-7.0121	-10.3841
6152.0355	5.3656	-0.2448	13.8796	4.9842	2.6233	2.8586	0.1652	-6.5538	1.5195	3.4977	2.5570	-15.8286	-6.2209	1.8827	-4.2787	-1.4351
6160.0356	9.3908	5.0877	18.6820	7.5040	14.0616	5.4745	6.0874	-1.4107	4.2250	7.9750	7.5094	-11.7565	-6.4464	5.7297	8.9463	5.7263
6168.0356	8.4453	5.3356	15.5539	9.4070	1.3149	2.7144	3.2459	-0.4168	1.0341	1.7632	3.8506	-7.5098	-4.2159	-0.4808	6.4380	6.5058
6176.0357	11.7356	6.7426	14.5086	14.2190	-2.4106	7.9412	1.3548	-3.1366	0.5433	8.5148	3.0833	-1.9128	-3.5265	2.3819	-1.5588	3.8714
6184.0357	7.2418	0.7654	7.4741	6.3511	9.3520	5.1274	6.0208	3.7369	2.8883	19.0842	0.8886	-7.2176	-4.2052	5.7012	1.8957	3.5683
6192.0358	-5.4805	-8.7074	-3.2448	-8.4975	-3.1625	-9.0869	-4.1839	-5.7354	-3.9555	3.1832	-7.3456	-2.9523	1.1786	-3.1754	-5.1901	-2.7979
6200.0358	1.7186	-5.1254	4.2761	-6.6011	-7.1049	-3.2000	-6.0039	-5.2517	-6.0431	-7.3132	-5.9685	-5.4645	1.6036	-8.2688	-13.4080	-9.1775
6208.0359	15.7724	4.9666	20.3397	7.6367	10.1333	11.1739	12.3871	17.4938	15.8783	15.9763	17.5330	-19.5850	-8.3756	9.4251	5.9744	8.9376
6216.0359	7.5102	3.0606	18.4375	1.2000	6.6195	8.9091	7.8725	9.1204	17.8859	12.9519	18.1790	-8.7104	-6.2403	16.1531	13.6350	12.9781
6224.0360	-3.2527	-6.4945	9.2058	-9.6201	-7.2032	-1.5724	-3.7191	-0.8568	-4.1563	-7.0047	-4.3586	-7.7616	-0.4473	-0.0773	-2.4032	-5.4640
6232.0360	-0.3418	-7.0292	11.6790	-3.0460	-11.0648	-4.0532	-0.0025	7.3662	-1.4197	1.8389	-1.7012	-14.3365	-2.6272	-3.4096	-5.0539	-2.7638
6240.0360	5.8493	0.9669	18.3451	1.8734	3.5628	3.6123	4.6587	7.6671	6.0294	4.6818	7.9977	-8.2507	-3.5508	4.9164	1.9282	4.7020
6248.0361	1.8706	1.7669	14.6890	-0.9501	12.3976	-4.3931	4.5401	5.7145	2.8985	-3.4213	5.5552	-4.2743	-1.3198	4.9867	5.1055	2.2951
6256.0361	-10.3366	-7.7005	3.4361	-12.5869	-7.4447	-19.4941	-7.0649	-6.6697	-0.2873	-13.8316	-1.4375	0.8742	3.3298	-4.0528	0.5581	-3.1872
6264.0362	-8.3074	-10.7245	0.7594	-18.7736	-13.5587	-15.2239	-10.9142	-9.6748	-10.0666	-27.7911	-8.1618	-13.9082	1.7828	-10.2020	-9.1115	-11.8960
6272.0362	4.8406	-5.6745	7.7278	-7.9732	-5.1681	-5.5929	-1.0255	4.8522	-6.0163	-15.8503	-3.1637	-29.5515	-4.4468	-2.8244	-11.8310	-8.1668
6280.0363	8.2508	-3.6905	14.2094	-2.9352	-2.9219	3.9734	3.4068	8.1728	4.7942	3.1693	3.8888	-24.8813	-7.1342	9.9299	-5.0401	4.6232
6288.0363	6.8726	-1.4638	19.3618	-5.4685	5.1581	3.3641	7.6709	15.4805	4.9476	-3.4558	5.1044	-24.4612	-7.2363	16.1260	4.4353	10.6859
6296.0364	8.3372	1.5566	22.7297	-1.5067	8.5316	-4.8972	10.0431	20.1405	12.1472	-8.7750	7.1951	-25.3251	-7.0462	14.1408	6.8057	9.7296
6304.0364	8.4117	4.5864	22.0037	5.3499	11.0998	0.4318	8.6522	8.9090	12.5667	-2.9497	11.0554	-22.8412	-8.9438	11.8605	9.4904	8.1364
6312.0365	10.3413	8.9664	19.1909	7.5207	10.7288	1.0417	6.1744	4.4746	1.9890	-7.5972	10.2423	-12.4886	-5.5775	11.6040	9.1444	5.7735
6320.0365	16.6557	9.7626	21.2649	10.2589	1.2546	1.8055	1.8859	1.2130	4.4772	-2.9405	5.3692	-3.0676	-2.3457	11.0741	0.1536	3.2897
6328.0366	11.7168	6.2603	21.2143	10.5039	-8.7626	5.6793	-2.3350	-9.4770	9.9790	13.5076	10.9757	7.1363	-2.0232	8.3881	5.2639	7.5322
6336.0366	-7.0516	-5.4203	4.3729	-5.6927	-31.1631	-9.2287	-17.2717	-23.3087	-3.7602	-2.5104	2.9597	20.9974	6.8631	-9.1777	-3.9026	-4.6548
6344.0366	-13.5233	-14.0611	-1.3948	-14.2877	-25.9527	-14.3978	-22.3196	-26.7650	-21.1005	-22.4548	-18.6304	7.3647	8.2808	-23.2384	-29.1764	-25.5525
6352.0367	-5.6634	-6.7726	13.0115	-7.9114	6.9807	-9.5304	-6.2410	-13.9494	-6.8867	-12.4687	-5.6210	-7.7349	0.3011	-12.1574	-10.1550	-12.7190
6360.0367	-5.6512	-7.3878	6.1554	-14.6026	-4.9588	-20.1980	-10.3941	-19.7996	8.2500	-14.4856	3.3713	-4.5262	1.8922	-11.9002	2.4637	-6.4282
6368.0368	-10.4983	-15.9357	3.3239	-20.7973	-14.7092	-27.1255	-22.8920	-35.9885	-7.2282	-24.1538	-14.9561	-1.6468	7.1748	-30.5857	-21.6858	-27.4303
6376.0368	-7.3946	-9.1529	27.6726	-10.8738	5.6649	-20.5478	-10.6014	-20.8315	-6.4599	-18.7889	-8.0258	-2.1538	4.1618	-30.5437	-8.6825	-20.9970
6384.0369	-3.9497	-2.2036	25.0925	-0.4553	-10.5104	-11.0792	-2.8446	-3.7560	5.9377	-12.2037	2.6334	-6.5635	-1.7036	-12.7441	11.2663	-0.6533
6392.0369	-6.7080	-5.0825	11.1985	-1.6738	-25.9490	-12.8725	-10.9205	-10.2306	-0.8970	-9.2319	-5.4504	7.5566	3.1436	-5.6432	-3.0478	-2.9223
6400.0370	-5.3228	-0.6715	23.9833	-3.3733	-2.8531	-15.1135	-7.9675	-7.9818	-0.2199	-19.3295	-4.7770	17.6656	7.2725	-9.0717	-5.1848	-7.3279
6408.0370	-0.0871	7.8516	26.7088	3.5554	6.6563	-3.0443	-0.8625	1.6778	5.6066	-25.1198	-2.1408	15.8780	4.5000	-1.6376	1.0733	-0.6506
6416.0371	1.1080	5.7106	20.1153	2.3645	-3.3238	-1.9723	-4.5085	-1.9512	6.1233	-13.4177	-3.5206	24.3652	6.3010	7.8670	-3.2054	4.0493
6424.0371	2.1476	1.0988	24.6478	-2.2034	-3.6303	-9.2534	-4.9359	-1.9753	7.7310	-16.9777	-6.0550	8.4588	3.3925	7.3850	-6.3910	0.7171
6432.0372	1.0243	-1.3297	23.9878	-4.6882	-3.8800	-10.4916	-4.1959	1.2898	1.4742	-27.7043	-11.7802	-7.1278	0.4913	5.0957	-10.0378	-3.2186
6440.0372	3.5289	-3.5909	27.8459	-6.4006	-15.1413	-10.5796	-7.2616	-3.2565	0.6423	-20.6048	-6.3996	-7.6678	0.4614	0.0151	-7.4958	-1.5299
6448.0372	12.0061	1.2530	36.6873	3.8184	-18.1746	-4.8895	-5.2607	-6.0061	12.9972	-9.5864	5.9963	-13.7339	-4.7460	4.5733	-3.1571	3.4881
6456.0373	3.5599	-1.9875	27.0106	0.6229	-11.0851	-13.5296	-8.9820	-13.3028	14.3300	-13.0297	1.4646	-5.2610	-1.3484	3.9358	-13.4043	-1.7445
6464.0373	-5.3497	-8.7609	21.9908	-8.4771	-4.3644	-23.4923	-10.7621	-13.5739	2.9693	-25.3679	-10.7386	-6.6113	2.9446	-18.5152	-19.1402	-12.9780
6472.0374	6.6763	3.3558	36.3468	5.8566	8.4668	-3.1999	3.0062	6.0329	5.4194	-18.3499	-5.6795	-9.9574	-2.0219	-9.6400	-5.1498	-3.7904
6480.0374	5.8683	7.8978	36.0260	9.6633	10.3969	5.4403	7.9508	13.3188	18.2709	-4.7820	3.9461	1.1909	-3.6415	16.6354	7.0548	10.2073
6488.0375	-5.9395	-0.0280	24.0835	-0.9304	-0.1643	-7.6426	0.5818	5.0790	15.5627	-12.3999	2.1070	3.3390	-0.4384	8.8865	5.5207	5.8578
6496.0375	-2.1594	2.3199	21.0532	-2.1048	3.8692	-7.0258	-0.8318	0.0982	10.6552	-19.5886	0.1532	1.2438	0.1885	4.9485	4.6267	1.2481
6504.0376	0.6564	4.8912	8.4605	0.8094	4.7044	0.3111	2.2847	1.2517	15.8995	-15.7079	1.7059	-9.2562	-4.5243	12.2411	11.4098	2.0742
6512.0376	-2.1439	2.9116	-13.9311	4.5932	-9.6889	4.4597	4.5995	12.3208	13.1418	-5.4591	0.9053	-10.8387	-4.6549	6.5242	10.4989	1.7719
6520.0377	1.5252	2.3689	-26.5458	6.5700	-10.7501	6.4912	4.8078	15.2024	5.7367	6.4341	-1.8628	-3.6268	-1.3936	3.5630	-0.1061	1.4027
6528.0377	5.9975	7.3146	-32.7241	9.1963	1.5601	8.6391	5.1611	4.5807	5.5605	10.3961	3.1745	-1.2996	-2.3679	9.3161	3.5036	5.8248
6536.0378	1.8767	6.1486	-45.4894	5.5142	-2.5228	7.1069	1.5184	-4.7025	3.9532	16.0337	8.7505	7.4449	-0.1193	6.4437	9.6550	8.3039
6544.0378	-5.4284	-6.6086	-62.0133	-5.2929	-16.7145	-1.6702	-5.3632	-7.0989	-10.8247	15.1798	-4.1429	0.9658	3.6362	-15.8988	-6.2377	-6.0257
6552.0378	-1.2625	-2.4424	-59.1685	-1.0244	-6.7577	4.6339	0.3796	3.7982	-18.6412	10.9452	-7.8096	-0.1112	3.8905	-18.1112	-9.8375	-5.7867
6560.0379	3.5548	6.5419	-46.0177	5.0434	6.7759	14.5053	7.6423	7.8017	-3.0718	22.0224	7.3908	11.3582	1.7180	2.8742	7.3372	12.8374
6568.0379	1.5616	2.6974	-46.2505	0.5265	2.8969	10.4076	6.4262	9.2597	1.0569	20.4109	6.3959	7.6179	2.2723	-3.9492	6.4135	7.5853
6576.0380	5.6674	7.6363	-43.5408	5.0968	9.3802	20.5043	11.7494	22.3366	-5.3585	12.2738	2.8146	4.9175	1.6620	-0.5419	0.5536	5.8552
6584.0380	2.2362	6.4092	-43.3330	5.6835	10.1883	24.5965	9.2840	8.5326	2.4633	22.2558	8.8431	2.7376	-3.4369	18.7684	4.5176	14.7640
6592.0381	-4.7347	-2.8338	-50.2126	-6.4913	-1.6076	8.4895	-0.5963	-3.1058	2.4706	21.9487	5.3505	10.6262	3.0403	1.5290	1.1124	1.7688
6600.0381	2.4933	0.5667	-38.4668	-6.4159	2.6344	11.3553	2.6562	10.2411	-1.6405	11.7813	-0.2389	12.9641	6.5882	-7.2373	-3.8800	-5.0547
6608.0382	0.9338	-1.1474	-28.4886	-2.6234	0.4136	11.6197	0.8783	0.0709	-0.5902	10.7308	-0.9474	-1.9167	-0.3151	-0.8552	-3.1852	-2.3456
6616.0382	-1.5305	-2.2457	-27.4705	-0.7429	-5.7023	3.5756	2.0968	3.6518	-4.9184	14.5104	3.8430	-3.0643	-0.1733	-8.4346	4.7429	-1.5913
6624.0383	13.9336	10.1143	-13.0031	13.1242	11.3071	19.1194	15.8898	21.0080	1.6170	18.9913	12.0075	-13.5554	-6.7168	3.5239	13.9880	9.3643
6632.0383	15.9978	11.4428	-6.9229	12.9425	21.4223	18.1497	12.4880	3.4818	13.4843	18.6548	15.5634	-16.4473	-9.7035	11.2442	14.3218	9.5016
6640.0384	3.9887	3.5668	-14.4802	2.3482	13.9894	-0.5943	5.5304	-1.6692	11.9063	15.6441	14.1891	-2.0017	-1.6053	-6.1556	13.6196	0.2075
6648.0384	0.9586	3.0411	-19.1835	4.5261	11.9828	5.4765	5.9449	2.1080	2.8660	10.2513	2.8016	-3.0653	-1.6184	-8.7240	7.9320	-2.3920
6656.0384	0.0435	1.7162	-23.7396	3.5415	8.4277	10.0722	2.0627	-4.7408	-3.0083	11.1953	-5.2091	-0.4702	-1.5693	0.6774	1.7342	-2.9370
6664.0385	1.5160	0.0178	-22.8745	7.8844	-4.0257	5.5804	5.1007	7.2822	-2.0869	22.3200	-1.9694	-3.6379	-2.3903	0.1484	4.2382	0.0889
6672.0385	6.8797	1.5997	-19.6379	11.0564	-6.7045	9.9999	4.2309	9.4056	-5.7668	20.8467	-5.9573	-1.4538	-0.5622	-7.2283	-5.0542	-6.3300
6680.0386	8.1864	2.0084	-19.0741	2.7622	1.0520	10.0176	-1.0332	-0.3422	-4.5106	18.4690	-3.8757	14.5624	5.4589	-5.9429	-10.9355	-11.9217
6688.0386	4.2053	1.0744	-19.1834	0.2926	-0.6213	2.4916	-1.5269	-4.7011	5.1191	21.4377	4.3161	15.9250	4.4762	-1.1809	1.0818	-3.4174
6696.0387	-3.2708	-6.2053	-25.5672	-12.2109	-7.3618	-8.0414	-8.6667	-11.7276	-4.7841	5.8940	-5.7507	14.6788	8.5036	-14.7294	-3.6429	-10.7982
6704.0387	-0.4119	-7.8229	-22.1696	-13.6937	-5.7039	-6.6792	-6.9470	-2.4656	-12.3504	-3.0272	-12.5560	4.7068	8.6286	-23.3888	-15.1969	-19.8550
6712.0388	8.5460	1.9314	-7.9600	1.7271	1.2329	2.3911	1.1409	4.3757	0.6884	9.3704	-2.0523	7.1299	4.2159	-11.7931	-4.8068	-7.1010
6720.0388	-0.1397	-1.7352	-10.9247	-8.9914	-0.0799	-8.8576	-3.5890	-3.7539	1.9957	8.2707	2.2131	21.1600	8.9347	-9.2037	4.5619	-1.9937
6728.0389	-7.6242	-6.1892	-14.0681	-12.7617	-8.9447	-7.9113	-5.7515	-1.6586	-4.0025	-7.6368	-4.7919	7.7639	6.1295	-9.9021	-1.6481	-5.7915
6736.0389	4.7294	4.6582	2.7458	4.5776	-2.0708	18.2702	1.4768	2.1629	2.2837	-1.8495	-1.9045	-0.5811	-2.3253	3.7731	0.3308	1.3712
6744.0390	11.5318	10.5008	12.6578	13.3919	12.5583	21.5392	10.8497	6.8842	13.1998	21.3030	15.2427	-0.8884	-6.8351	14.8965	17.4027	13.1013
6752.0390	2.6756	7.3014	3.8068	10.4900	12.8144	7.4320	10.6687	7.9284	13.4472	20.2073	16.5137	2.8380	-4.7547	13.0122	20.8974	15.2507
6760.0390	-6.5320	-3.7215	-6.5548	-8.0682	6.5209	-2.3681	-1.6131	-5.1594	0.2899	4.6417	-1.0105	9.6934	3.1726	-0.0694	3.5053	0.9427
6768.0391	-4.7014	-8.6489	-4.5795	-12.1453	1.9149	-5.4340	-3.9799	-4.5911	-3.7687	2.6844	-5.4918	0.5672	3.6271	-12.2039	-5.9650	-10.9647
6776.0391	4.6537	1.7617	5.2374	3.7235	8.1581	3.6095	6.3467	11.8354	3.3887	12.0160	3.7894	3.0078	0.8850	-4.3888	1.0861	-2.3367
6784.0392	10.0698	6.0582	11.2540	10.6823	16.7900	8.4795	12.0332	14.5385	6.5752	27.2907	12.2849	4.5403	-1.9670	7.2196	7.9201	9.2281
6792.0392	8.4867	7.7479	12.6397	11.8783	10.0726	9.4526	8.0155	4.6306	8.9586	24.0497	17.3542	8.4008	-2.3763	7.1275	12.7770	12.1075
6800.0393	-2.3989	5.1576	3.7179	-0.2886	-0.8006	9.4357	0.0277	0.1007	4.8194	9.1048	11.6363	28.6712	5.1355	8.7454	13.7279	10.3091
6808.0393	-11.6479	-6.8329	-6.6670	-10.2988	-9.2508	1.0151	-5.9273	-3.3039	-3.6389	8.4401	-1.4817	22.4427	6.4914	5.4853	-1.5063	1.8418
6816.0394	-9.4115	-5.0219	-1.6600	-2.4241	-7.3244	-0.7683	-5.5371	-7.2671	-2.8342	0.9493	-3.2356	9.0337	2.0959	-0.5499	-7.3519	-0.3717
6824.0394	-11.6707	-2.2523	-2.2716	-5.3347	1.7971	-3.2618	-0.8711	-2.0605	-2.0508	-3.5774	1.2847	9.7141	2.1291	0.8107	9.1450	4.9197
6832.0395	-11.0762	-6.5595	-6.1420	-9.3466	4.7203	-5.2787	-0.3184	-1.5765	-4.8790	6.1452	-1.7750	6.1606	2.5605	-3.9236	8.2388	-0.7473
6840.0395	-1.1748	0.0073	5.2849	-0.2977	15.0275	3.1644	1.2728	-6.6209	-2.4450	5.0475	3.3523	0.4112	-0.7319	-4.9336	1.6536	-4.0001
6848.0396	-5.8261	1.7479	2.1956	0.3306	14.4333	-3.6761	2.4632	-5.2749	-0.9974	0.2157	10.0619	1.6607	-0.9824	-2.7323	11.2912	1.1893
6856.0396	-11.7777	-2.2979	-7.2337	-0.7952	-1.1287	-5.0411	-1.1329	-3.2710	-6.7861	-2.8953	-1.2433	5.8355	1.4705	-7.9274	6.7766	0.4345
6864.0397	-5.2293	2.7641	3.5397	10.4282	3.3321	13.6754	4.1871	2.6306	-5.9994	0.4666	-3.4920	-2.4168	-4.6544	3.3570	1.0242	5.6074
6872.0397	-10.4610	2.7118	-0.4191	9.8891	9.1957	10.5893	5.7703	2.9497	2.5492	4.8134	2.3744	2.5396	-5.0193	14.3875	4.6797	11.4114
6880.0397	-21.3460	-5.5020	-15.8420	-6.7523	6.1968	-2.2982	-2.3435	-2.5725	-4.4172	-12.6387	-8.9199	10.6584	2.6557	4.8473	-6.5334	4.0987
6888.0398	-19.8213	-9.3623	-12.5676	-10.3312	3.7432	-2.3494	-2.3251	0.6366	-15.9800	-18.6128	-14.6483	-5.0128	0.1585	3.0566	-13.6513	0.6502
6896.0398	-16.5300	-10.9270	-15.0387	-8.6014	-2.5860	0.0912	-2.3724	-1.3071	-14.0689	-4.7147	-11.2867	-10.6283	-2.5878	6.2411	-10.8161	0.6549
6904.0399	-10.1999	-8.1236	-19.0084	-6.4697	3.3678	9.6388	1.3782	3.4150	-14.1965	1.7868	-11.6398	-12.4253	-3.3736	6.6087	-10.5996	-0.9462
6912.0399	2.8464	2.5316	0.0600	8.0405	7.5952	17.3811	9.7308	15.5878	-7.4845	14.8632	-0.6070	-6.3473	-4.8243	12.1363	1.0027	5.0928
6920.0400	1.9734	5.2302	12.8487	9.4353	1.2122	8.7018	4.4222	3.4632	5.8674	17.7628	11.2882	11.5557	-1.3574	9.6998	12.5521	8.0059
6928.0400	-7.3622	-0.9639	7.5627	-1.7875	5.0260	-6.0025	-1.0936	-7.6374	0.6273	5.4655	7.5414	10.1917	1.3391	-0.6084	12.1868	1.8789
6936.0401	0.0730	1.9354	6.1213	2.2453	7.8054	-5.0139	2.8826	0.3497	-5.3785	6.0504	0.7765	5.8281	1.5019	-5.6643	12.4145	-0.1846
6944.0401	9.0988	9.0754	6.6361	11.3194	8.8537	7.5798	5.4831	1.5081	-0.3908	3.0940	-0.3186	1.2048	-1.7751	-2.9146	10.5015	3.9688
6952.0402	4.8591	9.1769	6.2523	12.1732	11.4196	7.5819	4.3128	-3.0879	-1.6072	2.4364	1.4332	5.0438	-1.9302	1.5421	9.1853	6.0126
6960.0402	2.7588	8.9380	8.0232	14.0210	9.5073	9.1322	4.5081	-1.4875	-6.1719	13.9055	0.8105	17.3094	0.5014	5.2170	12.5014	6.4798
6968.0403	2.5319	9.2024	7.0400	15.5927	10.6025	14.2444	5.5933	-0.3519	-6.6255	10.3076	-1.1679	9.8580	-2.6048	11.5883	8.2328	8.8910
6976.0403	-0.9780	2.6673	4.8053	6.0860	1.6280	3.6232	1.2668	-0.6512	-6.3440	-0.0074	-1.3482	1.4316	-1.8951	8.7893	0.2273	6.7138
6984.0403	1.5173	-0.8856	1.0656	-0.5718	-11.3085	2.2965	1.1285	8.8607	-6.4795	-0.1012	-0.2111	-3.7054	-0.6424	3.7890	0.7484	5.7227
6992.0404	4.3000	0.6440	-4.3929	-2.3981	-7.9258	4.8729	1.7669	8.4973	-1.8191	4.7552	1.9643	0.7639	0.2110	10.3593	3.1775	8.7053
7000.0404	-1.0334	-5.2240	-6.7464	-11.9539	-7.2079	-6.1112	-6.3435	-4.9945	-3.5922	3.0339	-1.5884	10.3323	5.5518	4.0454	-4.3229	-1.7439
7008.0405	-3.0625	-6.4589	-8.1650	-11.1461	-12.0682	-4.4181	-5.9494	1.7616	-14.6926	-6.1551	-5.7368	3.9814	5.6384	-5.9569	-11.7064	-8.3685
7016.0405	-1.9883	-1.8493	-6.6029	-4.8340	-5.4953	-1.8727	-2.2159	1.8135	-10.2003	-4.5309	-1.1013	3.9602	2.7720	2.6449	-6.0186	3.6137
7024.0406	-1.8967	-1.1198	3.1449	-3.3994	5.0709	-3.4224	-1.0502	-5.1412	-4.2090	-0.3167	1.4118	2.2467	0.2349	7.0209	0.0331	7.2800
7032.0406	7.4829	7.4223	11.6947	7.1040	8.6185	6.4441	6.7314	11.9920	-7.8102	0.7315	4.0512	4.1514	0.1807	6.7614	2.3445	6.1715
7040.0407	13.5737	11.6407	11.7660	11.0256	7.7309	3.6341	4.4101	4.1294	0.8528	6.1365	11.4059	13.8321	2.4854	2.1582	4.5843	6.6970
7048.0407	9.1441	5.7875	9.4858	5.2587	0.2145	-1.9834	-4.5536	-15.3805	5.5886	3.6472	12.1726	10.9979	2.7309	-13.2308	1.3474	-1.4069
7056.0408	10.1366	5.1730	3.9123	3.6557	-16.5141	2.9669	-6.6410	-8.5672	1.6123	7.3734	12.0951	19.3056	5.8982	-11.2341	0.0451	-2.3457
7064.0408	10.1872	2.9635	-0.7577	1.0062	-19.3471	-1.2218	-9.4945	-12.9588	1.9874	14.1486	13.0284	22.1069	6.5133	0.5134	-4.0607	-0.7611
7072.0409	7.4579	3.1130	6.0587	0.1497	-4.4315	-2.2946	-6.6930	-9.7711	-0.1266	1.3729	7.9025	15.3780	5.1984	1.5533	-10.4983	-3.3998
7080.0409	6.9943	4.5751	8.2030	-0.1856	-1.9309	0.2135	-2.7402	0.4241	-0.2708	-4.6060	3.7436	14.7200	5.2779	3.2261	-6.4377	-0.2093
7088.0409	5.1752	-1.7570	3.6043	-3.3267	-2.2605	-1.7527	-4.8999	-9.6398	-1.2818	5.5319	3.1884	1.5200	1.1014	2.8226	-7.8557	-2.1192
7096.0410	9.8870	-1.5308	11.4798	-2.4981	12.4333	1.3147	1.6616	-1.4535	-0.5004	13.2456	4.9323	-5.2551	-0.7739	2.3312	-8.6337	-2.4504
7104.0410	13.0766	4.7415	18.7477	4.8811	17.5049	4.0185	9.8977	13.4175	6.4657	8.6580	8.0821	-9.1109	-3.2279	4.3744	1.1958	4.4746
7112.0411	7.1150	5.9063	16.9987	9.4641	5.1140	8.0591	8.9823	14.9970	7.0595	2.5619	9.2656	-8.1889	-5.0424	7.8080	3.9773	10.2135
7120.0411	1.8859	-0.3287	11.3185	2.5513	-2.3336	6.3266	6.3944	17.4915	2.4473	11.0281	1.8182	2.6269	-0.8857	12.0395	0.1606	12.7016
