Time	Fz	Fpz	C3	C4	T5	T4	O1	O2	F7	F8	F3	F4	T3	T6	P3	P4
0.0000	-9.5829	-5.8087	-0.9483	-2.7015	-28.4271	-8.7609	-15.7621	-11.8638	-3.8595	-2.8967	-10.8654	-2.6547	-51.3494	1.9447	-17.2019	-2.6331
8.0000	-2.5838	1.3964	15.8958	10.3526	-17.8910	1.3272	-16.3986	-1.7646	1.2373	10.6755	-4.5974	10.0661	-61.8107	29.1569	-5.0511	10.0745
16.0000	-1.7405	-1.6132	7.4337	5.5798	-22.7610	-1.8024	-14.3939	-2.7552	-1.1442	5.9682	-3.3870	2.9223	-59.7723	20.6518	6.4871	8.0163
24.0000	-2.2665	-2.4407	8.4801	-0.5370	-15.0119	-6.9311	-5.8234	-7.5504	-2.4484	-2.5036	-2.3016	-7.9100	-18.5231	-2.5363	8.7622	-1.0999
32.0000	0.8342	2.6001	15.8546	5.3357	6.1887	1.6108	-8.5899	1.2024	2.1755	2.5814	1.9308	-6.5082	-42.3094	7.6430	2.3150	2.2197
40.0000	5.3400	1.5489	6.6393	4.5069	-2.7556	2.2089	4.7303	3.4742	0.1972	3.8560	5.4485	-5.9680	13.1445	10.7566	20.9828	7.6052
48.0000	1.9495	0.0314	6.8859	2.6665	-11.3481	-2.0966	3.7397	-2.3136	-1.1958	2.4115	1.1878	-0.7755	21.3496	5.6925	15.3806	4.4824
56.0000	1.6477	-0.0722	11.9193	0.7854	-7.2856	-5.1259	3.4931	-5.0286	-1.4713	-1.3029	1.8276	-6.2692	20.6978	-4.6227	19.1626	0.0020
64.0000	5.8996	2.1400	10.3263	2.8134	-2.5106	-1.3262	14.2160	-0.5851	-0.5202	2.0434	5.6295	-0.9952	65.6161	-0.6263	27.3721	3.9814
72.0000	6.0676	2.5251	1.8490	5.9585	-3.2579	4.9928	7.9104	5.9479	0.9346	7.8197	4.8200	7.4223	30.1630	16.5469	18.1703	10.2306
80.0000	5.4210	-1.3006	-1.4212	-0.5361	-10.3960	-1.8555	12.6908	0.2272	-2.6647	-0.8611	5.4818	-11.6436	50.2283	0.6418	28.5597	5.2023
88.0000	2.7960	-0.1387	13.4902	0.1711	-10.2718	-6.5751	12.7860	-6.9211	-2.5671	-2.6345	3.2036	-13.0098	66.0132	-7.6192	24.4170	0.5501
96.0000	6.0504	5.6136	26.6901	9.2712	0.5441	0.2261	9.7434	-0.8672	1.8503	7.2584	5.5764	4.2121	52.2837	8.5793	25.6118	6.7683
104.0000	10.1255	10.3937	35.0458	15.1395	15.5284	7.2758	14.7386	5.9057	5.2715	12.3208	10.4454	3.0661	68.2294	18.4943	25.2700	11.6905
112.0000	5.4990	8.8995	34.1117	16.9822	5.4308	7.8026	3.6940	4.3426	5.0580	14.4312	5.2970	1.5681	24.0089	30.8120	7.2458	14.2922
120.0000	2.2729	2.0544	16.5367	7.7296	-12.2514	-0.2347	0.3408	-1.6776	0.1936	6.8900	1.2462	1.0515	9.1354	16.4626	14.3999	8.5521
128.0000	1.0344	0.6037	9.5480	-0.4939	3.7841	-3.0589	1.9833	-2.7533	-0.2132	-3.0894	2.1971	-8.8398	9.0631	-8.7852	9.5279	-2.9662
136.0000	2.1992	1.9722	9.6742	1.7331	10.2898	0.9398	-0.6625	1.6252	1.3788	-0.8749	3.7854	-9.7942	-10.0467	-2.0079	6.4842	-0.4947
144.0000	3.0463	0.3096	3.8734	1.4255	-0.4208	-0.0656	-1.1284	1.6279	-0.0438	0.7724	3.3180	-2.9788	-12.8613	2.1616	16.3849	2.3714
152.0000	-0.7245	-1.7519	0.7562	-1.5175	-1.8375	-2.4925	-9.5396	-1.0459	-0.7073	-2.6136	-0.1032	-5.2667	-49.4569	-3.1402	6.1905	-2.0372
160.0000	-3.7384	-6.3019	-7.7754	-6.7874	-17.0226	-8.1991	-9.4270	-6.7558	-4.3346	-7.6986	-3.3920	-12.6624	-44.3679	-9.9880	6.4488	-4.5943
168.0000	-4.0474	-6.6270	-7.7933	-7.7245	-19.2840	-9.6378	-5.4854	-8.6679	-5.0254	-8.7085	-3.8122	-13.4711	-22.4059	-13.1505	6.6810	-5.4591
176.0000	1.3564	0.4571	5.6620	1.4056	2.2331	0.2535	-2.9409	0.9692	0.3541	-0.2925	2.2965	-8.6088	-19.5693	1.9065	6.7133	1.1698
184.0000	1.5406	-0.6596	-0.5273	0.7725	-6.3715	0.0556	3.1152	0.4137	-1.0030	0.6175	1.5297	-6.4861	11.4022	4.9914	7.7015	3.7135
192.0000	-3.8811	-5.5831	-12.4213	-4.2648	-24.4280	-4.9462	-0.0241	-5.7242	-4.4296	-2.9941	-4.9374	-7.2433	7.0013	1.9066	-3.5815	1.2879
200.0000	-0.1064	-1.7763	-6.6844	-1.0754	-7.4596	0.2316	3.0111	0.2480	-1.4753	-0.6335	-0.1502	-7.3727	11.6471	4.0089	-0.7763	2.6662
208.0000	0.0302	0.1566	-3.8999	-2.6127	6.6452	0.7056	9.1444	0.2476	-0.1601	-3.3133	1.0348	-8.6084	41.0576	-7.2094	-7.3355	-2.4498
216.0000	-3.7572	-2.7726	-6.6675	-5.2905	-6.2544	-3.8164	7.7653	-5.6223	-2.5446	-6.0596	-3.2014	-12.3715	44.4517	-10.0978	-13.6572	-4.3085
224.0000	-0.3407	-1.6083	-3.4780	-3.6826	-4.4232	-2.9490	11.4845	-3.5905	-2.2171	-4.5816	0.2491	-12.1350	56.3691	-8.5932	0.0613	-1.9130
232.0000	5.7944	5.0313	4.6248	3.7647	19.1285	6.8147	12.5281	7.3877	3.1866	3.5910	6.5612	1.6871	48.8071	2.4587	5.0736	3.0346
240.0000	10.5640	9.0442	10.7308	12.2050	23.6471	14.6321	11.0083	15.6782	6.2818	13.2527	10.5850	10.5162	33.5673	24.2402	12.6324	13.1606
248.0000	3.6066	3.4694	10.4170	4.9355	4.9289	2.7197	6.4095	2.2690	1.6888	4.3077	3.5884	1.7721	29.6251	6.4027	8.4511	4.2360
256.0000	-3.2583	0.5820	15.0689	-0.2271	-1.5876	-6.6037	-2.4993	-8.7239	-0.2651	-2.4426	-3.2521	3.0163	5.8866	-11.7356	-1.5328	-6.4895
264.0000	1.2338	3.7988	16.2784	4.1421	10.6050	0.3253	-2.5533	-0.2882	2.5817	2.5280	1.5298	6.8290	-7.6561	-1.4202	4.0691	-1.4029
272.0000	-0.5007	-0.6513	-0.0246	-2.9820	6.0926	-2.1414	-3.2963	-1.0071	-0.0901	-4.0335	0.3855	-2.7303	-18.7644	-10.8095	2.0646	-5.2191
280.0000	-1.1587	-4.4356	-8.9203	-8.4126	-4.7728	-7.7555	-3.1835	-4.9113	-3.1482	-8.3202	-0.9906	-0.3877	-17.9218	-21.3418	13.9247	-8.6680
288.0000	3.7221	0.2826	-0.5653	-3.1284	8.6824	-2.3076	2.7407	0.9298	-0.0551	-3.0104	3.9887	6.4577	4.0246	-15.0980	21.6276	-4.7712
296.0000	0.7766	1.8516	7.7222	0.9110	9.6235	-0.0843	-2.5978	0.2958	1.5070	-0.3274	1.4168	2.0652	-13.1563	-5.0257	2.9755	-2.7651
304.0000	-0.8410	1.2969	10.4226	2.8910	0.9583	-0.7643	-7.2008	-1.4908	1.1082	1.7901	-0.8503	3.0965	-28.8050	2.5513	0.0367	-0.2342
312.0000	0.3953	3.7628	9.0468	3.9465	14.3512	3.7949	-4.3500	3.0796	3.3839	3.3797	0.7390	7.7856	-19.7780	3.0101	-7.6306	-0.5285
320.0000	-2.3740	1.7443	4.0276	2.5717	6.7184	2.9094	-6.3241	1.1964	2.1408	2.2192	-2.1547	2.8466	-25.4071	5.5142	-17.5243	-0.2357
328.0000	-2.0301	-2.6917	-5.0831	-2.3894	-10.5979	-3.0586	-1.9961	-3.1468	-2.0090	-1.8562	-2.5346	-1.5011	-5.7677	-1.3148	-0.3873	-0.6516
336.0000	0.7683	-0.5292	-8.6574	-3.2752	7.2485	0.8582	0.9525	2.5450	0.1544	-2.2694	1.0118	3.2879	-2.9264	-7.4176	0.5616	-3.1077
344.0000	-0.6446	-0.2030	-9.6542	-2.9174	14.5463	3.4911	-6.4619	5.1476	1.5205	-2.5544	0.4816	-0.6976	-42.2745	-4.7496	-11.0633	-3.8945
352.0000	-3.6285	-6.1335	-20.7912	-9.4629	-5.5284	-3.7859	-7.1162	-1.4619	-3.2018	-8.7008	-2.9375	-9.4484	-42.0357	-12.7438	-5.6656	-6.4465
360.0000	-4.4863	-6.3903	-20.2559	-9.0492	-10.1135	-4.4867	-6.1316	-3.0253	-3.6404	-8.0287	-4.2393	-8.2885	-32.5430	-10.8837	-7.9742	-5.6939
368.0000	-3.4564	-2.1681	-4.3042	-3.5744	-0.9508	-2.1156	-3.8643	-2.6195	-1.0243	-4.4833	-2.6629	-8.5185	-16.4732	-6.1831	-11.6593	-4.1185
376.0000	-0.3101	-0.4559	0.4304	-1.4422	-1.8170	-2.1888	3.3456	-2.4072	-0.7870	-1.6375	-0.3785	-0.2398	19.1503	-5.4441	2.0534	-1.8632
384.0000	2.3139	0.7540	-0.0613	1.6089	-2.3650	0.8114	3.1096	1.4432	0.1164	2.9481	1.3601	8.3158	13.8039	3.6721	9.8409	2.8444
392.0000	1.4836	1.4788	5.5180	1.1293	4.8996	0.1952	2.1305	0.3487	0.7673	0.3611	1.8101	0.1550	9.2343	-1.9681	4.9962	-0.3537
400.0000	-1.3070	1.2585	8.9179	1.5248	1.4912	-1.4372	-1.6365	-2.8295	0.7111	0.4774	-1.2982	2.4216	0.5795	-1.7706	-3.5502	-1.7495
408.0000	-3.7557	0.8485	6.4241	1.8555	-0.4550	-0.5733	-6.1302	-3.0147	0.9975	1.5007	-4.1435	5.5816	-16.3534	2.3369	-15.5040	-1.6023
416.0000	-2.9658	0.5543	5.3065	-1.2535	5.7209	-2.0015	-1.3472	-3.5907	0.5487	-2.7588	-2.2833	-1.6137	1.8427	-8.6031	-12.1264	-5.4849
424.0000	-0.3683	0.6129	7.9068	1.3380	-1.1470	-2.0405	-3.3197	-2.4152	0.2334	0.5416	-0.5248	2.9162	-10.5605	-1.1991	4.1322	-0.9494
432.0000	-0.6419	0.7225	6.2628	2.3912	-1.3813	-0.5757	-7.6511	-0.7879	0.8102	2.4575	-1.2298	7.9586	-31.7863	3.5524	1.8199	0.3467
440.0000	-0.9395	1.2934	7.0610	1.0529	6.5104	-0.5001	-6.8206	-0.6691	1.4281	0.2191	-0.6935	5.0040	-29.3360	-2.9536	-2.2752	-2.9304
448.0000	0.7598	1.8068	12.6055	2.1096	7.0449	-1.2484	-6.9301	-0.7346	1.4568	0.1745	1.4196	1.2179	-32.7511	-3.2673	7.7666	-2.2071
456.0000	0.9747	2.7256	13.2340	1.2053	14.8086	-0.8706	-5.1526	-0.2295	2.2351	-1.0759	2.0973	2.2705	-25.2974	-9.1052	5.4815	-4.9804
464.0000	2.8776	4.9138	18.2951	5.3524	18.2584	2.5515	-6.1517	3.0948	3.8940	3.1312	3.8728	5.1417	-32.5838	0.1610	7.4840	-0.8999
472.0000	5.1968	5.0714	19.7527	7.8144	13.8262	4.0132	-5.6008	5.2075	3.7039	5.5227	6.1234	0.9301	-35.3558	8.9470	16.9100	4.2433
480.0000	0.1171	1.3968	7.4726	2.0545	4.6032	0.2966	-4.9654	0.2201	1.2625	1.0768	0.4318	1.4925	-22.8692	0.8934	0.9089	-0.4920
488.0000	-2.4220	0.4869	8.0541	1.1671	-0.5981	-1.8302	-4.7402	-3.3783	0.4080	-0.1035	-2.2839	-0.2247	-13.7146	-0.7308	-6.7075	-1.8794
496.0000	4.2909	5.1758	15.0208	4.8311	19.0383	4.0897	4.4138	4.2248	3.4321	2.4844	5.7061	-2.6761	14.5179	0.4804	6.2662	0.9073
504.0000	5.5524	5.0933	4.9930	6.6283	14.8774	8.6224	4.6444	9.2754	3.8030	7.3893	5.5837	7.2389	11.1894	13.3157	4.6558	6.7954
512.0000	1.3652	-0.2321	-1.8918	3.2538	-10.2014	2.2245	0.6113	2.0709	-0.4461	4.5887	0.3456	1.2149	1.6846	14.5847	4.4608	7.3505
520.0000	-1.3984	0.7407	1.3811	1.1547	4.5676	1.7643	-5.6962	1.1964	1.2751	0.9463	-1.1549	1.3360	-26.2575	2.9401	-9.6470	-0.4494
528.0000	-2.7513	-1.1959	0.6241	-2.9915	1.8898	-3.2338	-5.0655	-3.3719	-0.4499	-4.0366	-2.1699	-2.1364	-20.3162	-9.8129	-5.5316	-5.7385
536.0000	-1.2349	-1.4432	-3.9522	-2.7264	0.0197	-1.7307	-3.4036	-1.0332	-0.6403	-2.6420	-1.0707	-0.0404	-17.0361	-5.9028	-0.9328	-3.1618
544.0000	0.2921	-1.2141	-6.0223	-1.3471	-1.9363	0.3855	-0.6042	1.2918	-0.6407	-0.7308	0.2898	-1.8071	-7.6506	0.6598	1.5816	0.6310
552.0000	1.3738	-0.8366	-3.8661	-1.7959	1.1972	-0.1807	1.4464	1.2372	-0.6030	-1.9288	1.8517	-4.6510	-0.3457	-3.2569	6.5995	-0.4297
560.0000	-1.1853	-3.9382	-16.2694	-3.7144	-11.5668	-0.6099	-2.4950	0.6924	-2.3487	-1.4151	-1.9897	-0.1131	-16.4812	2.4803	-0.3464	1.3691
568.0000	-2.2425	-5.2755	-20.7188	-6.9552	-11.4403	-2.3494	-0.4526	-0.8808	-3.3231	-4.8450	-2.6696	-3.9548	-6.8995	-4.9182	-2.9989	-1.7776
576.0000	2.5114	-0.9450	-6.9715	-3.4146	3.6779	-0.2164	6.5014	1.8336	-0.9329	-3.3921	3.2102	-6.0138	20.3050	-7.8187	9.8222	-1.4164
584.0000	4.0368	0.9816	-6.7622	0.8188	3.4902	4.2837	8.4549	5.6525	0.4568	2.3504	3.8280	1.3929	29.4232	5.1031	7.3952	4.3885
592.0000	1.3431	0.0540	-4.2798	-1.8786	3.3509	0.4375	7.9345	0.8822	-0.3434	-1.6168	1.6147	-2.1575	34.1083	-5.0333	1.7558	-0.8940
600.0000	0.4938	-0.4345	0.9622	-1.6025	-3.0745	-2.7099	7.2923	-2.9250	-1.2251	-1.9678	0.4501	-2.2383	37.7721	-6.5007	5.7759	-1.4085
608.0000	2.5231	-0.7164	-9.3640	1.3177	-13.7597	1.6846	9.9961	1.8207	-1.4680	4.8397	0.3467	10.1764	47.9443	10.9281	8.9923	7.3832
616.0000	3.1099	0.2000	-6.4011	-0.1828	-3.6292	1.3528	12.5819	1.8577	-0.8226	1.7449	2.1791	4.2975	56.8939	1.8133	8.8702	3.5183
624.0000	0.8267	1.0906	-1.3287	0.5683	1.5631	1.9345	9.9762	0.8065	0.1802	0.8909	0.7868	-1.7382	48.6978	1.5514	-4.8691	1.7076
632.0000	2.6726	1.7235	-8.9203	5.3343	-6.7815	7.7914	9.0295	6.7287	0.9508	9.4531	0.4977	12.7434	41.8098	23.0843	-4.7246	11.4452
640.0000	4.5285	2.0005	-3.3084	5.0625	-4.7742	5.5070	8.2445	5.8023	0.8049	8.1044	2.7420	11.9236	35.0821	17.1261	9.6218	9.7762
648.0000	1.7406	1.4915	0.9120	2.1054	0.7979	2.1344	5.5950	1.7537	0.6440	2.8885	1.2311	4.2837	26.7712	4.6328	1.8347	2.9326
656.0000	2.8265	2.5080	-0.6087	2.8286	5.1712	4.2197	6.6971	4.2000	1.5596	4.4310	2.0934	9.5734	29.5117	6.0426	1.7339	3.6000
664.0000	2.3744	1.2194	0.3518	0.9024	1.5388	0.7289	5.2435	1.2868	0.3957	1.9919	1.6804	8.3911	24.1252	-0.3050	8.4508	1.1244
672.0000	-2.9165	-3.3603	-4.8400	-3.8759	-15.0929	-6.3100	-0.5448	-6.6551	-2.9275	-2.6804	-4.2372	5.9265	8.2869	-7.3372	2.8398	-3.1285
680.0000	-2.1095	-2.9258	2.6344	-3.0208	-15.0002	-8.1178	-1.7202	-8.2085	-2.9768	-3.3049	-2.9749	2.0750	2.8642	-9.4168	11.0451	-3.6026
688.0000	-1.3775	-1.0065	5.5128	-0.9058	-6.4666	-4.5986	-1.4121	-5.1087	-1.2612	-1.9352	-1.4925	-1.4207	0.6858	-5.4021	4.7349	-2.3448
696.0000	-4.7345	-2.8092	-9.7949	-2.3646	-12.4742	-1.9406	-3.6163	-3.5065	-1.6233	-0.0967	-6.2364	8.1093	-5.8241	1.8187	-15.1647	-0.9436
704.0000	-2.8831	-1.9693	-5.8882	-2.2716	-7.8561	-2.6057	-3.3985	-3.0671	-1.1857	-0.5815	-4.0855	9.4753	-8.1447	-2.6098	-5.2854	-2.2148
712.0000	-2.2158	-1.5071	-1.4669	-2.2682	-4.1634	-3.2133	-3.2670	-3.3877	-0.9818	-2.0431	-2.5816	3.2602	-9.8958	-5.7717	-1.8552	-3.3208
720.0000	-5.7763	-4.1894	-9.2988	-4.0985	-14.7621	-4.2125	-5.6847	-5.6172	-2.6188	-3.0827	-6.5890	-0.4623	-16.1483	-2.0710	-14.5714	-2.7305
728.0000	-4.2711	-2.4376	-2.1865	-2.5266	-6.9595	-3.1477	-5.0531	-4.3946	-1.4401	-3.2071	-4.0685	-6.1643	-16.8400	-2.9511	-11.7056	-2.8901
736.0000	-1.6950	1.2743	4.4543	0.8383	6.3598	0.6255	-3.2949	-0.4828	1.3559	0.1434	-1.3546	1.9774	-11.2270	-1.3439	-10.3077	-2.2951
744.0000	-1.7903	1.3582	4.1224	2.0653	1.3138	0.6563	-3.1266	-0.8914	1.2357	2.5923	-2.4819	9.6415	-6.1425	2.8375	-9.4124	-0.4290
752.0000	-0.6879	-0.0306	6.2375	1.4680	-6.8292	-2.3482	-1.2823	-3.2238	-0.5206	1.0951	-1.2403	2.0215	1.3104	1.7324	3.5473	0.7448
760.0000	-0.2064	0.2391	9.4597	1.4390	-6.3977	-3.4904	0.2034	-4.3291	-0.6560	0.4326	-0.5754	0.6657	9.1413	-1.0276	7.5962	-0.0114
768.0000	-1.1294	1.3156	11.7563	3.5629	-6.3464	-1.9581	-0.1688	-4.1564	0.1995	2.9029	-1.9051	4.5048	12.4111	4.2775	-0.3657	1.4513
776.0000	-2.2974	-0.3482	6.6635	2.8719	-15.6036	-2.7668	0.0716	-5.3864	-1.1155	3.2509	-3.7992	4.9509	16.5031	7.8726	-2.4297	3.1581
784.0000	-0.0388	0.7670	10.2644	2.6527	-9.7156	-3.2964	3.5830	-4.9253	-0.6967	2.4313	-1.1609	5.6939	29.7447	1.8853	7.4690	1.6392
792.0000	4.8714	4.7668	16.1856	6.7443	4.8478	1.9898	7.1879	1.5778	2.1917	6.4007	4.1956	10.0951	36.7323	6.3230	16.4767	4.6475
800.0000	2.0591	1.7128	5.2841	3.1155	-2.2893	0.4706	3.4816	0.2299	0.5543	4.0080	0.9827	9.9173	20.1611	4.5617	8.9115	2.9999
808.0000	-0.8940	0.3808	4.8769	-0.8235	1.7907	-2.5473	0.7671	-3.1132	-0.0257	-1.6074	-0.7896	1.8342	9.4761	-7.3799	0.0358	-3.5301
816.0000	4.6793	4.9483	11.8075	5.6389	13.5475	4.4347	4.2730	4.7402	3.2003	5.2096	4.8018	7.6901	16.0614	4.8973	9.4982	3.0813
824.0000	4.1439	2.1626	5.6385	4.1401	-0.6839	1.5976	2.1399	2.6392	0.9672	5.2567	3.0563	11.4112	7.7675	6.9962	17.6376	4.7121
832.0000	-2.2168	-3.1776	-1.2844	-3.9968	-9.9390	-6.3652	-3.7848	-5.8473	-2.5380	-4.5149	-2.3584	-2.5923	-13.1021	-9.6698	6.3566	-4.2196
840.0000	-3.9959	-2.9249	-3.6561	-3.5735	-7.1507	-4.1942	-6.6224	-4.5951	-1.6996	-3.8159	-4.0226	-2.3850	-25.3499	-6.1105	-6.9607	-4.1759
848.0000	-2.9494	-0.8755	4.0757	-0.7344	-3.5740	-3.3503	-6.4928	-4.2163	-0.4407	-1.4418	-3.0679	1.5446	-22.4777	-3.7908	-4.3790	-3.2202
856.0000	1.1926	1.4937	10.7680	1.7797	4.6838	-1.2089	-2.9367	-0.8382	0.8890	0.0038	1.7980	-1.2936	-14.1529	-2.6642	8.6273	-1.1525
864.0000	2.6141	0.5896	4.0740	2.1856	-1.6529	0.0247	-3.0343	1.4811	0.2771	2.3916	2.2025	4.4858	-18.6281	3.8639	15.4218	2.5936
872.0000	-0.6623	-2.7443	-0.5147	-1.4711	-13.2581	-4.7614	-5.5261	-3.7562	-2.2380	-1.2540	-1.3782	0.7528	-23.9157	-1.3515	12.6455	-0.1071
880.0000	-0.0140	-2.2406	-2.4114	-1.2621	-8.3001	-2.1824	-3.4055	-1.1478	-1.6624	-1.5485	0.0585	-6.3325	-19.4350	0.8084	8.0026	0.9770
888.0000	0.1742	-0.4535	-1.0992	0.1082	-0.5620	0.6298	-2.0520	1.0337	-0.1062	-0.1856	0.5031	-4.4109	-13.3889	2.4688	0.4331	1.0680
896.0000	-0.9394	-0.5815	0.2310	-0.9850	-0.1635	-0.8990	-0.3609	-1.1837	-0.3959	-1.8010	-0.4337	-5.7035	-1.2571	-2.2660	-3.0135	-1.2300
904.0000	1.4436	-0.3285	-5.7818	-0.6618	1.0733	1.9911	3.7821	2.7534	-0.2199	-0.2059	1.7116	-4.2911	10.8800	1.9216	1.2503	1.8319
912.0000	-0.2417	-1.1817	-6.9853	-3.4786	2.8707	-0.2277	4.0429	0.3078	-0.7724	-3.6345	0.4772	-6.7944	14.6722	-6.7188	-3.2848	-2.4670
920.0000	-4.1456	-4.9137	-11.4439	-9.2166	-5.7673	-6.5842	2.6563	-6.4223	-3.6139	-10.2301	-3.1026	-14.6053	14.6972	-19.2871	-7.2759	-8.4426
928.0000	-2.6985	-5.0523	-13.8180	-8.4614	-8.3254	-5.5962	2.8664	-4.6390	-3.7540	-8.5721	-2.1177	-11.9297	12.1765	-15.1057	-1.1540	-5.8780
936.0000	-1.0543	-1.7342	-3.3545	-3.7665	-0.6412	-2.6507	2.6134	-2.4289	-1.4250	-4.7302	-0.2618	-9.1182	11.5346	-9.0092	-1.0129	-3.5382
944.0000	-2.4820	-3.4637	-4.0423	-4.6831	-9.6286	-5.2641	1.2215	-5.4339	-2.9186	-5.7433	-1.9973	-11.9119	9.0300	-8.7974	-0.1284	-3.3928
952.0000	-3.9598	-3.5854	-1.1080	-4.9820	-9.1592	-6.6045	-1.9764	-7.2848	-2.8496	-6.7659	-3.2506	-12.7037	-2.5876	-11.3148	-3.7260	-5.4160
960.0000	-3.8302	1.3594	11.0894	1.4340	6.5000	-0.5236	-5.8473	-3.1317	1.4242	-1.3855	-2.5681	-8.0137	-18.6914	-1.5939	-18.5801	-3.4799
968.0000	-2.4757	0.5569	5.6186	3.1316	-2.6513	1.0592	-7.2187	-0.7683	0.8603	2.4784	-2.5339	-1.1726	-27.8425	9.1599	-11.6779	2.0054
976.0000	0.5325	0.2422	7.7308	2.2871	-4.4251	-1.2749	-3.2237	-1.3678	-0.1487	1.1754	0.5775	-3.0596	-13.8317	3.9656	7.5987	1.9822
984.0000	4.0092	4.5049	18.3885	7.3116	7.8333	3.1243	0.9411	2.7356	2.6476	5.1394	4.6436	-2.3565	2.0637	9.5197	10.9506	5.0111
992.0000	3.3552	2.5372	8.6653	6.7417	-2.4598	3.4000	-2.0076	3.5401	1.5404	7.2328	2.4947	6.5956	-11.4611	16.0048	11.4891	7.7793
1000.0000	3.0507	1.7253	2.0847	3.1492	4.1845	3.1535	-2.5383	4.5142	1.5034	3.8981	2.7228	6.7698	-19.0793	7.0288	9.4466	3.5232
1008.0000	6.5464	5.3334	4.3339	4.9439	23.5689	8.9290	4.0306	10.8846	4.3221	4.8338	7.5983	3.1780	1.0468	6.6447	7.2968	3.9602
1016.0000	4.9482	1.1002	-4.1764	0.1812	7.1896	3.2863	6.6884	5.6834	0.5937	0.8338	5.3006	-0.6754	17.3817	0.4579	14.1010	2.5879
1024.0000	1.0145	-2.7547	-6.8025	-5.6851	-3.8270	-4.6449	5.7246	-2.6733	-2.6256	-5.8408	1.3674	-5.8429	22.3772	-14.0802	13.8173	-4.0094
1032.0000	1.5978	0.5596	0.9845	-1.0745	5.2158	-0.4885	3.8518	0.3450	0.1197	-1.5702	2.0633	-1.1077	14.7991	-6.3813	6.3787	-1.8490
1040.0000	0.1471	-0.7373	-1.8738	-0.4825	-2.7318	-0.3986	-0.3676	-0.0164	-0.5528	-0.3251	0.0862	-1.4326	-3.2219	0.6038	2.4583	0.5810
1048.0000	-2.4588	-2.7910	-4.1812	-4.4737	-3.5829	-3.8154	-2.0461	-3.5785	-1.8747	-5.5430	-1.6838	-9.9075	-9.2915	-9.1597	-2.9951	-4.3704
1056.0000	0.4389	2.7032	7.8213	2.5703	11.3924	2.5722	-1.3337	1.9181	2.2649	1.2210	1.2915	-1.0591	-7.0686	0.9944	-5.7714	-0.5612
1064.0000	4.0049	5.2560	10.8728	8.8014	10.3961	7.8037	-0.9569	7.3811	4.0042	9.0810	3.7234	8.4635	-9.1234	18.3073	1.7500	7.8623
1072.0000	2.0971	1.7342	3.4188	2.6847	5.8056	2.8441	-2.0164	3.5597	1.5169	2.5548	2.3065	1.7233	-15.2218	5.1461	4.2298	2.3170
1080.0000	-0.4633	1.6339	4.2766	1.4105	8.5005	1.6074	-4.7983	1.3793	1.7993	0.9257	-0.1003	3.5936	-22.5906	-0.0192	-5.7461	-1.5057
1088.0000	1.5043	2.8170	3.7206	6.5683	2.0319	6.1315	-4.2088	5.4708	2.5482	7.8725	0.6407	9.3165	-21.2194	18.5218	-3.8883	7.2326
1096.0000	3.4612	1.6470	1.9448	5.5741	-2.7712	4.8439	-0.9206	5.4366	1.1637	6.6066	2.7839	2.8956	-11.1886	17.7071	8.5634	8.7628
1104.0000	3.1326	2.4677	7.6112	5.0692	2.3023	3.2727	-0.0594	3.5091	1.5610	4.7874	3.0478	1.2824	-4.3957	10.6999	8.4136	5.4546
1112.0000	1.4694	1.8167	2.4365	2.7026	2.4049	2.7509	4.3256	2.1092	1.0294	2.9987	1.2681	1.8942	20.4046	5.9518	-0.9103	3.1173
1120.0000	2.0934	2.8086	10.4461	1.5497	10.4592	0.2074	5.6306	-0.0574	1.4120	-0.2928	2.9901	-2.3504	26.5792	-5.5940	4.9460	-1.6773
1128.0000	0.9966	0.8774	5.9990	0.6994	-0.3679	-1.7962	3.3000	-1.9683	-0.0584	0.2595	0.7727	2.8706	19.3966	-3.3635	7.6153	-0.6525
1136.0000	-0.1313	0.1869	3.9863	-0.6671	-1.5019	-2.9757	2.3998	-3.2544	-0.4498	-0.7692	-0.5592	5.1851	17.6188	-6.5063	5.1788	-2.4588
1144.0000	-4.8188	-2.5427	5.3905	-5.2786	-6.5951	-9.3253	-0.6457	-10.8322	-2.5027	-7.4213	-4.4296	-5.0252	12.6184	-19.4782	-3.3569	-9.4238
1152.0000	-3.8335	-2.1053	-1.4678	-1.4309	-11.8365	-3.6354	-2.1401	-5.3465	-1.6981	-0.9863	-4.6892	1.7219	1.9603	-0.6369	-8.2094	-1.3052
1160.0000	-1.9687	0.9775	2.8306	3.6469	-3.0574	2.3804	-4.6059	0.4221	1.0987	4.2345	-2.6716	4.7916	-14.7677	11.6142	-12.6276	3.3324
1168.0000	-1.6066	2.2355	14.8314	4.4739	1.8950	0.1752	-4.7099	-2.1488	1.5531	2.2560	-1.1293	-3.3592	-13.5336	5.6998	-7.8867	0.8472
1176.0000	1.5539	3.5160	12.7064	9.2639	-2.6991	4.7499	-5.5424	3.2163	2.5369	9.6134	0.4763	8.6290	-22.0819	22.4250	0.6830	9.0500
1184.0000	-3.3103	-1.2492	2.1949	4.2699	-18.2223	-0.3611	-11.7053	-2.2475	-0.5457	5.7339	-5.1987	8.3150	-43.6880	18.0714	-6.6861	5.9228
1192.0000	-8.2353	-6.7524	-0.7333	-6.5337	-26.7012	-12.4593	-8.1633	-14.5040	-5.3772	-8.1883	-8.5572	-11.7803	-18.5052	-11.8305	-6.3220	-6.6891
1200.0000	-6.1637	-4.1888	8.5374	-4.4078	-15.9234	-11.2216	-7.9257	-12.9009	-3.5953	-7.6938	-5.5643	-13.4949	-20.9099	-13.9077	-1.2856	-7.4511
1208.0000	-4.7668	-2.1597	12.6291	-0.2110	-12.8246	-7.7086	-11.8747	-9.3650	-1.7612	-2.9478	-4.5820	-6.8643	-41.5456	-3.8579	-0.4831	-3.6013
1216.0000	-1.4544	-2.0207	5.0804	-1.2608	-10.0825	-5.6223	-4.6892	-5.5395	-1.8975	-2.5071	-1.5134	-3.9955	-16.6405	-4.6150	8.8117	-1.9329
1224.0000	-2.4583	-2.4673	2.4137	-4.1433	-3.1292	-6.1465	-5.2324	-5.6859	-1.7879	-6.1477	-1.5808	-8.3759	-21.8554	-13.1032	3.2691	-6.2967
1232.0000	-3.7668	-2.4883	7.4222	-3.9106	-5.6050	-7.8074	-3.3322	-8.7517	-2.2570	-7.3064	-2.4766	-15.2820	-7.1597	-14.2446	-0.7658	-6.8994
1240.0000	2.2359	0.8472	9.6501	1.8402	-3.2038	-1.9965	5.1977	-2.0967	-0.5520	0.1872	2.5416	-6.4350	25.6587	-0.2620	13.7289	1.7922
1248.0000	3.1751	-0.0541	3.0781	1.1466	-5.1831	-1.0665	3.5043	0.1664	-0.8748	0.9101	2.9882	-2.3496	12.3197	1.9980	18.3069	3.1502
1256.0000	2.8241	-1.8138	-2.1483	-2.4707	-6.9456	-3.2098	7.4357	-1.4575	-2.3994	-3.0217	3.1054	-9.1578	28.9634	-5.5848	19.7048	0.6845
1264.0000	2.9366	-0.5470	-2.4760	-2.2289	1.6033	-0.8561	8.0189	0.7470	-1.0828	-2.9197	3.7123	-8.8337	29.3713	-6.4098	12.9093	-0.3137
1272.0000	-0.7493	-2.6817	-7.7755	-4.4862	-3.9544	-2.3557	3.8475	-1.7450	-2.1376	-4.9626	-0.0521	-11.5146	14.6733	-7.2042	0.2151	-2.1850
1280.0000	1.5556	-1.7440	-8.5993	-3.2941	-3.2503	-0.4060	10.5485	0.3856	-1.9506	-3.2892	2.1056	-11.7569	43.1382	-3.8515	4.7878	0.7536
1288.0000	4.0468	1.7376	-4.2128	0.5721	10.2667	4.9941	9.6432	6.1338	1.0953	0.6828	4.9107	-6.0231	32.6768	2.1241	3.3192	2.8735
1296.0000	1.0727	0.8135	-4.0275	0.4609	6.4829	4.1974	4.4549	4.1105	0.8303	0.2209	1.9506	-8.3530	13.5707	4.2445	-7.3659	2.2068
1304.0000	-3.0304	-1.6087	-2.7449	-2.1969	-3.3804	-1.1552	2.0540	-2.7811	-1.1968	-3.4161	-2.1986	-13.3859	13.5072	-1.9047	-13.9833	-1.4430
1312.0000	-7.5380	-4.2319	-0.7128	-5.9183	-11.4595	-7.7857	-2.1075	-10.6190	-3.2527	-8.4045	-6.5973	-17.3430	5.5517	-12.6938	-19.4949	-7.4435
1320.0000	-6.4311	-2.9677	6.0090	-3.0030	-14.2191	-7.8518	-0.9397	-11.2226	-2.8818	-5.5490	-6.0412	-13.4465	14.8542	-8.1427	-13.5666	-4.9223
1328.0000	-2.6468	0.9813	12.5780	3.1910	-5.2206	-2.1128	-3.2074	-4.8250	0.2928	1.6534	-2.8522	-0.7068	-1.2541	3.8767	-7.1180	0.3204
1336.0000	-1.4093	1.9211	7.5798	4.4773	2.7016	2.6719	-8.3672	1.2302	2.0684	4.0821	-1.5313	3.9522	-35.2263	10.2103	-10.1995	2.2345
1344.0000	-1.1736	1.7107	5.9674	3.5956	7.4615	3.4617	-11.3081	2.9192	2.4216	2.6477	-0.5514	-0.3340	-55.1868	8.5136	-10.5891	1.1548
1352.0000	-2.9412	0.1909	9.4606	-0.1049	8.3415	-1.6913	-14.1488	-1.8625	1.2432	-3.1617	-1.2746	-8.1459	-66.5018	-5.2827	-7.9289	-5.2668
1360.0000	-3.1304	-0.4148	5.9671	-1.3083	6.5054	-2.1292	-11.5360	-2.3128	0.6630	-3.7876	-1.7073	-7.2585	-53.4276	-6.9550	-8.5302	-5.6419
1368.0000	-3.1130	-1.2916	-2.7942	-1.7165	1.0084	-0.8748	-10.1104	-0.8412	0.1461	-1.7033	-2.9490	1.6844	-46.3707	-2.3877	-9.7771	-3.3903
1376.0000	-5.4207	-6.1091	-12.0791	-8.8134	-10.7797	-7.6049	-8.4979	-6.6951	-3.7423	-9.1202	-5.0172	-8.2789	-37.5699	-15.7523	-5.1276	-8.2631
1384.0000	-5.3365	-5.4401	-10.9482	-9.0328	-6.7327	-6.6798	-2.6287	-6.6220	-3.5624	-10.4724	-4.0652	-17.0817	-10.3614	-17.3292	-10.7994	-8.5370
1392.0000	-2.7189	1.2556	-2.8207	-0.1445	9.4625	3.4705	1.1968	1.4390	1.6336	-0.1534	-2.1567	-0.9413	9.1379	0.4053	-24.5072	-1.9218
1400.0000	0.4021	3.3585	-1.2474	3.4843	10.8741	6.7996	4.4038	5.1827	2.8828	4.8996	0.0660	8.5829	21.6868	8.7928	-16.9117	2.7968
1408.0000	0.0122	0.4883	-5.9166	-0.3863	2.7780	2.3548	4.3875	1.9677	0.4810	1.0487	-0.4125	5.1136	20.7887	1.0632	-7.2594	0.4315
1416.0000	-0.9701	-1.2008	-12.4017	-4.4220	2.7304	0.2553	6.2046	0.4561	-0.6816	-2.7223	-1.2020	3.6897	28.6878	-8.0173	-8.3815	-3.3817
1424.0000	2.6932	1.5433	-10.4009	-1.1084	13.3902	5.8445	9.6731	6.7719	1.4391	0.3073	3.1803	0.7823	34.4484	-0.7206	-5.7749	0.6800
1432.0000	3.4700	3.2717	-6.5427	2.6190	17.5157	9.5965	5.6298	10.2599	3.1712	3.7701	4.1761	0.4737	12.0777	9.1544	-9.2525	4.2277
1440.0000	2.6931	0.8045	-16.1998	-0.9230	11.3187	7.6133	5.7760	9.2274	1.4808	1.7334	2.7639	3.6716	12.0610	4.8578	-7.0193	2.7269
1448.0000	3.3808	-1.6226	-23.8735	-5.8376	9.5575	4.4232	7.6077	8.1243	-0.3912	-2.8855	3.6806	1.2007	14.9014	-6.2799	3.3867	-0.8595
1456.0000	1.8742	-2.6087	-23.9111	-7.5743	11.1172	2.9246	2.3506	6.9511	-0.6256	-5.5727	2.8429	-3.2911	-10.9076	-10.8280	0.6313	-3.8302
1464.0000	2.4539	-2.5295	-29.1431	-5.7527	11.5011	7.1514	-1.4582	11.6393	0.1801	-2.7186	3.3083	-3.4067	-35.7715	0.0917	-3.7588	0.4565
1472.0000	-0.2907	-5.3074	-32.5196	-8.6792	3.2553	3.7844	-3.9737	7.8649	-1.8028	-6.3293	0.8535	-12.0918	-44.5791	-3.3034	-7.9245	-1.4537
1480.0000	-5.3930	-8.0911	-27.2814	-12.9777	-7.3300	-4.8416	-3.4119	-2.9771	-4.6427	-12.9074	-3.8667	-21.6357	-25.4291	-17.5277	-14.1409	-8.3936
1488.0000	-2.6432	-4.5552	-21.6035	-6.3775	-4.6477	0.5226	-2.5034	1.7705	-2.1625	-4.8216	-2.2662	-8.8226	-20.7381	-2.2366	-12.2327	-1.5692
1496.0000	-2.8001	-4.2600	-19.8023	-5.5715	-4.4906	0.4002	-6.3198	1.8189	-1.7228	-3.7423	-2.7468	-3.7574	-37.6485	-1.2460	-10.9183	-1.7129
1504.0000	-5.3593	-6.2104	-15.1295	-10.1443	-7.2607	-6.9895	-6.3175	-5.8733	-3.7010	-10.5063	-4.5474	-10.8273	-29.8762	-18.6629	-7.9530	-9.4303
1512.0000	-4.1266	-3.6338	-9.0440	-4.4417	-8.2831	-3.5529	-7.4744	-3.4694	-1.9203	-3.6356	-4.5004	0.5629	-31.2988	-5.2059	-8.0301	-3.8795
1520.0000	-8.2082	-6.5269	-12.8671	-7.5004	-18.9011	-7.7297	-10.6103	-8.7846	-3.9808	-6.6057	-8.9740	-1.5629	-37.0471	-9.1226	-16.2506	-6.6626
1528.0000	-7.6144	-8.4810	-18.0145	-13.0320	-17.3307	-11.4114	-4.6445	-10.9667	-5.8389	-12.9922	-7.4548	-10.0540	-13.6926	-24.4761	-8.3044	-11.7976
1536.0000	-1.9097	-3.8425	-15.0231	-5.5793	-8.0486	-2.5404	-0.6942	-1.4133	-2.4240	-3.7249	-2.4890	1.2719	-4.7631	-6.2360	-1.5127	-2.6326
1544.0000	-4.7906	-3.8322	-12.1564	-5.1816	-8.1662	-2.7995	-3.7627	-3.4282	-2.1340	-4.2589	-5.0171	-2.6188	-12.8869	-5.1517	-14.8967	-3.8088
1552.0000	-2.7844	-0.8204	-6.8769	-3.0580	4.5690	0.2329	-1.2967	-0.3140	0.1329	-2.5885	-2.5170	0.9298	-4.3022	-5.8475	-15.1955	-4.1666
1560.0000	4.4526	4.7277	0.7262	6.4884	11.1203	8.6820	3.5877	8.9561	3.7184	9.1801	3.2614	18.6225	11.1768	15.0880	0.8421	6.9418
1568.0000	4.1729	2.3979	2.7260	4.0931	0.1190	2.9980	5.6592	3.6017	1.0902	5.7316	2.9941	11.4596	24.3951	8.4490	13.0463	5.5185
1576.0000	4.3350	2.6187	6.3441	4.0260	0.3975	1.5583	6.1210	2.1421	0.9785	5.0311	3.2864	11.0165	28.2740	5.3091	16.6073	4.3612
1584.0000	5.2700	4.0352	10.2577	7.8525	-0.2926	4.1068	3.6894	4.3101	2.0990	9.2213	3.7707	14.7345	16.7712	15.4449	17.1660	8.5469
1592.0000	4.5121	1.9277	10.9445	2.7582	-0.0911	-1.3787	5.8924	-0.3393	0.1183	1.8330	4.3856	1.4553	25.9486	-0.8416	23.5594	2.2713
1600.0000	4.6969	3.7493	17.4904	3.6494	6.0876	-1.3763	9.8609	-1.3167	1.0578	1.6806	4.9898	1.1738	48.5021	-4.5769	20.9845	0.6011
1608.0000	2.7995	3.5436	20.4066	8.4018	-8.7170	-0.4234	4.5795	-2.4661	0.8481	7.6414	1.5035	6.7659	33.4910	13.2809	14.9194	7.4010
1616.0000	2.7943	1.5152	16.4945	7.3618	-16.9523	-2.1019	0.7725	-3.0597	-0.5447	7.2077	1.0629	6.4220	13.1695	14.9107	22.3765	8.5282
1624.0000	3.3211	2.8011	18.1074	5.4616	-1.5724	-1.3973	1.0262	-1.5332	0.8538	3.8663	3.0530	2.7351	8.5304	4.2246	19.6783	3.3202
1632.0000	2.6835	3.5392	19.3319	5.1568	5.8103	-0.3539	-0.1236	-0.7497	1.7922	2.6840	3.2205	-0.5912	1.7025	1.6093	12.6600	1.2945
1640.0000	7.1139	6.7930	22.0708	10.1293	12.4461	5.3753	3.7853	5.6531	4.0219	8.7286	7.2215	6.5110	12.8562	12.8745	20.1376	7.4326
1648.0000	7.7242	7.6276	24.2329	11.6590	13.2006	6.3957	4.0332	6.4800	4.5647	10.3235	7.6961	8.1534	14.1960	15.9929	20.7811	8.8513
1656.0000	2.8302	2.4038	13.3489	6.0067	-3.9114	0.2899	-1.8984	0.2145	1.0346	5.7793	1.9336	7.6762	-5.9685	9.9144	15.7141	5.2023
1664.0000	1.5951	0.9431	10.6983	3.9949	-7.3098	-1.5895	-2.6681	-1.6342	-0.0040	3.6137	0.8000	4.5932	-8.4783	6.5086	14.4918	3.5958
1672.0000	-0.1671	1.7904	18.9260	2.8560	1.3050	-3.3827	-1.9512	-4.6679	0.5309	-0.5821	0.7529	-7.3251	-1.7441	-3.1001	5.9818	-1.5431
1680.0000	0.1814	2.9567	14.5139	3.7714	5.7790	0.1500	0.6241	-1.5061	1.6900	1.8178	0.6450	-0.5672	9.5929	0.9274	-1.6612	-0.1294
1688.0000	2.3849	3.0418	7.0935	4.6485	5.6618	3.9502	3.3630	3.2782	1.9314	4.2796	2.4892	0.7437	14.3090	8.7299	0.6716	4.2864
1696.0000	-2.1181	-1.9137	2.1148	-1.1578	-9.9276	-3.7238	-0.1398	-4.7877	-1.8891	-2.3911	-1.9255	-9.4175	5.4869	-1.3377	-1.0751	-0.4831
1704.0000	-3.9078	-1.7292	-0.1307	-0.3488	-13.3778	-3.1575	-0.9298	-5.4993	-1.5980	0.1455	-4.9481	1.8381	9.8170	2.3413	-9.9002	0.0417
1712.0000	-0.6553	2.8671	7.8512	3.8531	6.4142	2.9714	0.6374	0.8621	2.1364	3.2383	-0.5394	2.2355	8.8709	5.9427	-11.9732	1.3437
1720.0000	-0.5347	1.7964	9.0422	1.0632	7.5461	-0.3437	0.2141	-1.3934	1.1892	-0.8146	0.3241	-3.2719	4.6680	-4.0861	-4.4288	-2.5280
1728.0000	1.0346	0.5342	1.5290	0.3679	-0.1196	-0.4538	2.6231	-0.2769	0.0165	0.6896	0.6767	4.0198	13.4463	-1.2518	5.3634	0.1281
1736.0000	1.9558	0.7738	-0.3437	0.6571	4.0403	1.9071	2.5215	2.6198	0.5175	0.5052	2.3532	-2.6746	5.8122	1.4968	3.8443	1.4704
1744.0000	-1.1009	-0.2477	-1.5929	-0.1885	0.6661	0.9672	-0.4117	0.3385	0.0743	-0.5484	-0.6895	-5.0695	-2.1340	1.7569	-8.0220	0.1848
1752.0000	-2.0085	-1.1313	-3.0790	-0.3944	-6.9218	-0.5447	0.4469	-1.7540	-0.8794	0.1341	-2.4692	-0.9435	7.5075	3.0472	-7.8286	0.8927
1760.0000	-1.5351	-2.4324	-2.5712	-2.5075	-10.7494	-3.9057	2.3126	-4.3368	-2.3447	-2.6947	-1.7615	-5.4564	15.7586	-3.5853	1.8373	-0.8668
1768.0000	-0.9061	-2.3177	-0.8996	-3.4027	-8.6273	-5.2243	3.4228	-5.1278	-2.4609	-4.0146	-0.9228	-5.2741	20.3815	-8.8725	6.9679	-2.7457
1776.0000	-1.7011	-2.0126	-1.0221	-4.4586	-1.6778	-4.7579	1.2492	-4.5738	-1.7415	-5.7261	-1.0026	-7.2667	8.3607	-13.1194	1.0849	-5.5516
1784.0000	-5.0016	-3.2514	-5.7289	-5.2319	-3.7203	-4.1050	-5.2302	-4.8437	-1.7648	-6.1232	-4.3212	-8.2377	-19.5379	-9.9208	-14.0297	-6.2094
1792.0000	-4.2035	-2.0501	-0.8077	-3.0618	-1.1795	-3.0131	-7.2327	-3.7778	-0.8357	-4.4734	-3.3690	-7.9160	-29.9343	-6.5217	-12.1282	-4.9114
1800.0000	-3.2022	-1.0846	8.1406	-3.1053	3.0131	-5.4221	-5.0589	-6.0616	-0.7284	-6.5404	-1.5394	-12.8138	-18.8119	-14.1096	-4.1719	-7.5424
1808.0000	-5.7325	-2.9118	4.3703	-4.5356	-5.8047	-7.6020	-6.7142	-9.0887	-2.0546	-7.1568	-4.8134	-10.5174	-19.7589	-14.0656	-9.5536	-8.1554
1816.0000	-3.8408	-1.6356	6.3560	-3.6196	2.0149	-5.7554	-8.1462	-6.1315	-0.8301	-6.6406	-2.3863	-10.3002	-33.2888	-14.2749	-4.9434	-8.1248
1824.0000	-1.6545	-0.1619	9.9807	-0.9560	3.9919	-3.8158	-7.3368	-3.8113	0.0730	-3.9279	-0.3112	-8.3716	-32.5895	-9.0110	1.3355	-5.1602
1832.0000	-4.8367	-4.9019	-2.9003	-3.3219	-21.1436	-7.1350	-8.4519	-7.8581	-3.6268	-3.5930	-5.4849	-5.7080	-29.7307	-1.7877	-1.0206	-1.7068
1840.0000	-7.5050	-6.7394	-6.3141	-9.9411	-13.7972	-10.9062	-5.4695	-11.6753	-4.8344	-12.5159	-6.2255	-20.5679	-16.1846	-21.1375	-10.2902	-10.6517
1848.0000	-6.9844	-2.1498	0.2024	-7.0437	6.6616	-5.3033	-0.5258	-7.7640	-1.1564	-10.6038	-4.6440	-19.2272	7.3772	-21.1739	-27.0864	-11.9588
1856.0000	-5.8437	-2.7138	-7.8000	-4.3548	-4.0809	-2.3465	-2.9920	-4.2501	-1.3297	-4.3526	-5.6402	-4.6805	-5.2490	-5.8897	-22.9847	-4.9216
1864.0000	-6.6671	-5.3635	-14.9201	-9.0761	-5.1352	-5.1220	-5.2343	-5.4714	-2.9184	-9.3646	-5.8400	-10.7654	-21.0241	-15.2885	-19.8943	-8.8782
1872.0000	-5.6413	-2.0139	-13.6027	-4.7872	5.7798	1.6655	-4.2104	0.2928	0.0870	-4.3455	-4.8082	-5.3851	-18.5381	-4.6953	-32.2456	-5.2681
1880.0000	-0.9598	0.5621	-13.2686	-0.0529	8.6365	6.6137	-3.2191	6.7323	1.9499	2.6746	-1.3746	9.4016	-21.1202	7.1938	-19.0658	1.1821
1888.0000	0.1626	-0.0403	-11.3926	-2.2551	8.8914	3.4332	-0.1295	4.5697	0.9501	-0.4597	0.1848	5.9389	-8.0775	-2.2043	-7.9119	-1.6464
1896.0000	-1.2935	-0.3680	-10.8293	-0.9597	2.8375	3.5751	-0.9963	3.4095	0.6427	1.0350	-1.6984	5.2898	-6.9767	3.8439	-14.1069	0.4807
1904.0000	-0.0630	0.7370	-4.4612	1.1634	2.7770	3.2589	-1.8612	3.2111	1.1468	2.8188	-0.6913	8.4745	-9.9568	5.6608	-6.6937	1.6141
1912.0000	2.4255	3.5240	7.0439	5.4568	5.0105	4.2543	2.6273	3.4855	2.3197	6.1288	1.7702	9.3140	13.5465	10.1893	1.1072	4.6633
1920.0000	4.7267	4.9667	4.4952	9.5548	4.2099	9.4797	3.0626	8.9092	3.5702	12.0636	3.1913	15.8200	10.7733	25.1045	2.0561	11.6234
1928.0000	5.6048	4.6765	-3.7852	6.8267	12.9353	11.3113	3.1914	12.4072	4.0543	10.0320	4.6036	16.5155	2.0989	19.6390	0.9480	9.2011
1936.0000	3.8975	1.6324	-10.4740	1.3090	9.2933	7.1684	4.2481	8.9780	1.7871	3.8867	3.5411	7.7274	6.1146	7.8977	1.3653	4.4357
1944.0000	-0.4176	-3.2829	-17.4690	-6.2836	0.3974	-0.3222	0.3824	1.8939	-1.6563	-4.8817	-0.0661	-3.5981	-8.5631	-8.1407	-1.1453	-3.1625
1952.0000	-3.1241	-2.9535	-16.1646	-8.1037	7.9854	-0.9720	-1.0384	0.1166	-0.9669	-7.7957	-1.9490	-5.9966	-10.9406	-15.9276	-15.1465	-8.3173
1960.0000	-1.1884	-1.8008	-17.2353	-5.1814	5.3990	1.8015	1.6905	2.8854	-0.3588	-3.1333	-1.1218	2.6652	1.4929	-6.6481	-11.3152	-3.4769
1968.0000	-0.0699	-3.2299	-17.8515	-6.6513	-2.6151	-1.5017	5.2433	0.4010	-2.1908	-4.4713	-0.4184	1.7089	18.6793	-10.3170	2.0100	-3.3243
1976.0000	0.3780	-1.5254	-9.7019	-2.5943	-3.7818	0.1392	6.3479	0.5806	-1.3466	-1.3664	0.1107	-1.8407	27.1832	-1.4886	-0.0166	0.5684
1984.0000	0.4955	-1.4411	-8.7346	-0.0071	-9.7375	1.3735	4.1762	1.3551	-1.2989	1.8077	-0.4026	-0.1492	18.2092	8.1754	0.2841	4.7302
1992.0000	-2.3594	-1.6945	-6.1382	-3.0932	-4.0161	-1.7353	3.3337	-2.6459	-1.3338	-2.7008	-2.4614	-2.4385	20.5611	-4.8252	-8.9692	-2.3415
2000.0000	-0.1682	2.2170	-0.4428	2.7867	4.9798	4.4065	3.1613	2.8433	1.8092	3.9402	-0.6720	6.9317	18.1082	7.5249	-12.8184	2.4845
2008.0000	-2.2032	-0.1314	-0.8644	4.2591	-15.2151	1.7983	-0.6426	-0.9491	-0.3151	6.3763	-4.1768	8.1262	9.1422	18.0842	-11.2632	7.0980
2016.0000	-0.9486	-1.3441	-9.8090	-0.6397	-6.8740	1.4815	1.4862	1.1104	-0.7853	1.4932	-1.9326	4.0042	7.9696	6.0468	-6.6978	2.6085
2024.0000	3.2427	3.7600	6.0428	6.6157	3.7027	5.8908	4.5670	5.0139	2.3852	7.5103	2.5433	7.1106	20.5929	15.3664	1.1385	7.4336
2032.0000	0.8677	4.0820	9.7066	5.7616	14.9090	6.0354	-7.1440	5.3990	3.9407	4.7947	1.5919	2.8846	-37.3130	10.1009	-9.2005	2.3383
2040.0000	1.1896	0.8078	2.9472	0.2772	8.6842	1.5232	-2.0388	2.3888	0.9621	-1.4504	2.6122	-9.4559	-17.9958	-1.2611	1.2282	-0.6220
2048.0000	4.4930	2.4270	-1.3463	3.5093	6.8824	6.0214	5.3630	7.0921	1.7173	4.4362	4.5075	1.4456	14.1643	10.0821	6.3539	5.9749
2056.0000	-0.8262	-0.7783	-10.2145	-1.2466	4.6259	3.9142	-2.6847	4.3557	0.5249	-0.5638	-0.2225	-5.0065	-20.9865	4.1155	-12.5614	0.7863
2064.0000	-0.0518	-0.3053	-7.1509	-1.3061	3.2213	2.3725	3.4261	2.3898	0.0691	-0.8348	0.3454	-4.1987	11.6805	0.6324	-7.6808	0.3633
2072.0000	-4.5311	-3.1854	-8.8671	-4.9268	-5.6022	-3.1968	-3.0035	-3.9445	-1.8110	-4.5977	-4.5149	-3.0497	-8.4946	-7.4242	-13.7671	-4.7582
2080.0000	-6.0366	-6.1212	-9.7566	-9.4633	-14.7039	-9.6880	-0.1394	-10.2865	-4.7268	-10.2600	-5.7451	-11.3738	9.5695	-19.4379	-6.9278	-8.9583
2088.0000	-1.0689	0.3040	2.8283	-2.1931	3.7597	-2.6536	4.9477	-3.4778	-0.2495	-3.0848	-0.6972	-0.5090	29.4567	-11.1416	-3.0286	-4.8690
2096.0000	-3.0624	-1.4181	-4.7998	-5.0800	3.8507	-2.9401	1.3594	-3.4336	-0.7885	-5.4874	-2.4938	-1.9059	10.8394	-14.2831	-10.9421	-7.2857
2104.0000	-1.0071	-3.1974	-9.2765	-5.3886	-8.2945	-4.0884	6.5164	-3.6549	-2.9084	-4.9548	-1.0890	-5.6440	31.8596	-9.8135	2.8019	-2.8748
2112.0000	-0.3084	-1.0226	-3.3833	-0.7254	-3.6308	-0.2292	-0.4133	-0.0327	-0.6866	-0.3827	-0.4229	-1.7867	-3.0041	1.2884	-0.0198	0.7196
2120.0000	-0.9389	-1.4833	-3.2994	-1.2733	-5.5863	-1.1496	0.2384	-1.2971	-1.1568	-1.2057	-0.9851	-4.0750	1.8881	0.1870	-1.2523	0.2553
2128.0000	2.5496	0.7599	1.0624	2.8003	-4.6702	1.5903	3.4153	1.8933	0.0097	3.7119	1.7816	3.2790	14.2755	8.4326	9.4657	5.1767
2136.0000	2.4801	-1.0992	-2.8421	-0.2972	-5.8218	-0.8116	0.4846	1.0513	-1.1174	0.4175	2.0541	0.4913	-4.0584	1.6063	16.0295	2.4508
2144.0000	2.2621	-0.6911	1.1517	-0.2697	-4.3510	-1.6938	2.2293	-0.3779	-1.1065	-0.6606	2.3190	-3.8677	6.1255	-1.0424	15.3136	1.3822
2152.0000	0.7141	1.9929	8.3292	4.8863	0.3063	2.2535	-4.6729	1.5832	1.5622	4.6175	0.4004	3.6759	-20.4408	10.6303	0.6495	3.9684
2160.0000	-0.9295	-1.7834	1.9901	-0.3520	-11.7225	-3.8430	-2.6112	-3.9301	-1.7499	-0.4825	-1.5353	-0.5668	-7.1873	0.3086	7.3703	0.5070
2168.0000	0.6914	-0.4015	6.4226	0.9817	-7.9426	-3.2202	-0.0154	-3.1671	-1.0664	0.3473	0.2882	-0.3509	3.8296	0.0452	12.2404	1.0345
2176.0000	-0.1550	0.6753	4.0508	1.7540	-1.4517	-0.1545	-2.1959	-0.5990	0.4358	1.8741	-0.6097	4.7221	-6.7077	2.8070	0.9111	0.8281
2184.0000	-2.6736	-1.8881	-0.5406	-2.8868	-5.9458	-4.4235	-1.5152	-4.9902	-1.5357	-3.1878	-2.8614	-0.2505	0.3509	-7.7680	-2.1837	-3.9555
2192.0000	-2.3676	0.4173	3.1691	0.2292	4.5186	0.0901	-6.3175	-0.7823	0.9753	-0.6283	-1.8905	-0.3762	-26.4998	-1.1015	-10.8991	-2.5348
2200.0000	-0.8487	-1.7513	-10.2762	-2.4791	-1.6515	0.7743	-1.1480	1.4655	-0.7111	-1.2517	-0.9724	-0.3138	-9.4890	-0.0691	-4.8030	-0.2971
2208.0000	-2.8307	-5.5419	-12.1932	-7.5335	-15.0546	-6.9676	0.5432	-6.0398	-4.3086	-7.1401	-3.0068	-7.6230	4.5743	-12.1665	3.9140	-4.4889
2216.0000	-3.8278	-4.6401	-6.7655	-6.5195	-12.9497	-7.3307	-0.3695	-7.4502	-3.6966	-6.9820	-3.7886	-7.9695	4.9384	-12.7879	-0.8270	-5.5319
2224.0000	-2.6256	-5.8336	-16.3290	-7.3741	-17.2112	-5.8364	0.8747	-4.7463	-4.4005	-5.8353	-3.3288	-4.0664	5.2185	-8.7126	3.1934	-2.8678
2232.0000	-3.7636	-5.7839	-10.8639	-7.0278	-15.1889	-6.9660	-5.2732	-6.0116	-4.0273	-6.9942	-3.7830	-8.3542	-23.0951	-10.2182	1.6232	-4.6247
2240.0000	-2.8228	-3.4070	-2.2920	-5.7126	-7.4069	-6.8947	0.2108	-6.8321	-2.8740	-7.0212	-2.2942	-9.0194	6.0491	-14.6640	1.6841	-6.2283
2248.0000	0.5625	-1.2890	0.8124	-3.4819	-1.3865	-4.7092	2.9295	-3.5689	-1.5569	-4.2920	0.8636	-2.3247	13.9135	-12.8712	12.1392	-4.3539
2256.0000	2.7928	1.0423	6.1476	0.0238	2.7406	-2.1140	4.3103	-0.9833	-0.0424	-0.6065	2.8431	2.7145	19.0668	-7.0814	16.5210	-1.4049
2264.0000	0.9008	-0.5871	-0.4801	-0.7696	-6.1201	-2.6033	3.1616	-2.0976	-1.0904	0.2966	-0.1254	7.8221	18.4387	-3.2952	10.7965	-0.2354
2272.0000	0.1902	-0.7147	2.2534	0.8279	-7.3106	-2.2150	-5.3630	-1.5187	-0.5989	1.5180	-0.7723	7.6354	-22.8277	1.8824	10.2619	0.8654
2280.0000	3.6440	2.8751	13.0056	5.2440	-1.0136	0.4035	4.0677	0.2296	0.9819	4.7802	3.0356	5.4824	21.5909	6.2887	16.2419	4.4493
2288.0000	1.0952	1.1534	7.7415	2.1744	-2.8636	-1.4412	2.0477	-1.8794	0.0923	1.9724	0.5040	5.0181	14.9970	0.7882	8.5223	1.0819
2296.0000	0.7797	-0.4276	3.4672	-1.8809	-0.7622	-4.0773	1.1763	-3.1183	-0.8671	-2.3651	0.6950	2.9363	7.3576	-10.2072	12.6737	-3.5495
2304.0000	4.0728	1.7814	3.8885	0.4679	4.3522	-0.4816	9.1106	0.7093	0.2788	0.7144	3.7929	6.1168	40.4635	-5.6887	17.3232	-0.0578
2312.0000	1.1688	2.0908	3.8853	3.1270	6.1255	2.9980	-3.4714	3.1459	1.9381	3.4713	0.9861	6.8959	-18.3560	5.6941	-0.1517	1.7884
2320.0000	0.1039	0.7747	3.4766	2.1306	-4.4743	-0.1328	1.8702	-1.1039	0.0882	2.7589	-0.7900	6.2033	15.1058	4.3298	1.1526	2.1085
2328.0000	-0.1070	-0.5808	1.0705	0.2660	-10.3532	-2.5898	5.0541	-3.4481	-1.3823	1.1328	-1.2961	5.1471	32.2702	0.5954	5.4108	1.3638
2336.0000	1.9841	2.4736	8.0397	3.1622	9.0005	2.4675	-2.1770	2.8228	1.9734	1.9877	2.6730	-0.8375	-14.8380	3.1333	3.4805	1.1966
2344.0000	3.1441	4.1214	8.7545	5.8180	10.7022	5.2749	-0.3628	5.2422	3.1380	5.7854	3.1358	6.9668	-5.5708	9.6529	2.4900	4.1151
2352.0000	-3.0143	-0.1525	0.5371	1.2806	0.8970	0.8338	-14.7603	0.5554	1.2802	1.8723	-3.4418	8.6838	-66.6766	4.9674	-10.6868	-1.0156
2360.0000	-2.2061	0.9457	6.5789	-0.0742	13.3183	0.3255	-12.9803	0.5247	2.0602	-2.3298	-0.6378	-3.8060	-63.7740	-5.1473	-9.8686	-5.2883
2368.0000	0.1506	2.0294	7.5900	1.9025	10.2006	1.3495	-5.4251	1.3722	2.0093	0.6285	0.8973	0.9333	-27.0312	-0.7412	-2.3433	-1.6425
2376.0000	0.2826	-0.2782	3.1172	-0.4878	1.9279	-1.7815	-6.8471	-0.4513	0.1512	-1.0800	0.5149	1.9598	-34.9665	-4.1194	8.0350	-2.2498
2384.0000	1.9612	0.8660	8.3636	-1.0365	7.1514	-2.8825	1.2969	-1.6171	0.1456	-3.1567	3.0246	-4.2535	2.9682	-11.5392	13.7947	-4.0414
2392.0000	-2.8999	-2.2339	3.3140	-3.3023	-5.5676	-6.3353	-5.6538	-6.3881	-1.7019	-4.6865	-2.6466	-2.9523	-19.7471	-11.2016	2.3444	-5.7319
2400.0000	-2.0638	-4.1719	-0.6394	-6.1670	-10.7447	-9.0537	-2.3565	-7.9263	-3.5850	-7.7082	-1.6432	-8.6306	-7.5796	-16.8039	12.2918	-6.6056
2408.0000	4.5417	2.2485	11.4149	1.6931	6.0858	-1.0696	7.0467	0.1029	0.4821	-0.2712	5.3409	-4.4278	28.4520	-5.3011	20.7861	0.2169
2416.0000	6.1776	6.0884	16.4691	7.4118	16.7808	5.3031	3.0846	6.0813	4.0018	6.3751	6.5726	7.2902	7.4730	6.7988	15.0015	4.1659
2424.0000	3.5518	3.5878	8.2041	2.0302	14.8253	1.9811	4.3009	2.8199	2.3318	1.3478	4.0509	5.9284	16.1065	-4.8417	8.7646	-1.3366
2432.0000	-2.1960	0.6198	4.2712	-0.6114	4.5932	-1.4302	-2.4265	-2.4935	0.6660	-1.3800	-1.9478	2.5775	-4.7270	-6.1331	-8.3597	-4.2096
2440.0000	-0.4378	3.0423	9.4749	3.4486	11.0893	2.7712	-3.4369	1.4983	2.6573	2.1945	0.1929	1.5830	-13.8077	2.8780	-9.7139	-0.4807
2448.0000	2.8686	5.4050	7.3201	7.1599	17.8901	9.1614	-1.2320	8.5775	4.6959	7.2362	3.2723	6.2474	-12.4251	14.4059	-8.7317	5.1526
2456.0000	3.0736	3.2724	2.1059	7.1690	1.8577	7.4712	0.6894	6.9859	2.5377	8.9900	2.0329	9.3862	-0.4229	20.9180	-0.7472	9.3658
2464.0000	3.9446	2.1662	1.4475	2.9472	3.6549	3.3466	6.0445	4.1054	1.1138	3.8145	3.5476	4.9709	23.0007	5.9020	9.8450	4.2927
2472.0000	-1.8108	-2.0498	-9.5529	-5.1153	0.6658	-2.1408	1.2444	-1.5886	-1.1837	-4.2862	-1.7912	1.4426	6.1349	-10.9816	-4.9992	-5.1291
2480.0000	-3.4671	-6.4681	-14.8100	-10.7235	-18.4655	-10.1135	10.5843	-9.9628	-5.9297	-10.2275	-3.8307	-8.9304	58.2355	-21.7577	3.7593	-7.4262
2488.0000	0.4676	-2.7600	-7.1272	-6.5167	-5.3723	-5.2772	13.6614	-4.6034	-3.2941	-7.0154	0.9505	-10.4874	64.3566	-16.4941	8.8746	-4.3571
2496.0000	0.6172	2.1940	7.3060	3.8521	6.7414	2.9612	-6.2252	2.7844	2.1496	3.0857	0.9896	1.3380	-31.5732	7.0879	-2.2533	1.9003
2504.0000	-1.3072	0.7643	11.7859	-0.5412	1.3357	-4.6000	2.8591	-6.0482	-0.3039	-2.9432	-0.6947	-3.9852	23.7233	-10.7064	0.9616	-4.7497
2512.0000	-2.1608	0.1330	10.0911	0.3153	0.6795	-3.2527	-6.5937	-4.1137	0.1641	-1.8931	-1.4923	-3.9781	-24.7367	-4.7075	-1.9264	-3.4859
2520.0000	3.2092	3.4883	7.0633	4.8594	7.7465	4.2518	2.4610	4.2255	2.3601	5.0150	3.0474	6.0746	8.6518	7.9418	4.5050	3.9996
2528.0000	-0.1313	1.5280	5.0247	0.8184	6.3680	0.5122	1.3488	-0.2313	1.0529	-0.0707	0.3282	-0.3186	8.6046	-2.4104	-4.1321	-1.5155
2536.0000	-4.9737	-2.2933	0.1011	-1.7838	-7.2590	-3.4988	-9.4409	-4.8610	-1.0788	-2.4770	-4.9645	-2.8948	-35.5353	-1.9080	-12.4833	-3.2491
2544.0000	-2.3737	-1.8102	-0.6994	-0.9223	-11.0528	-3.1008	-0.6658	-4.2323	-1.6572	-0.7208	-3.0232	-0.5796	5.2328	0.3230	-2.7440	-0.1005
2552.0000	-5.1229	-4.1102	-3.3003	-6.5475	-6.7855	-7.4413	-6.6508	-7.6203	-2.6745	-7.9290	-4.5011	-7.7868	-24.3416	-15.7576	-6.0553	-8.4213
2560.0000	-1.2152	-1.6888	-2.4284	-3.4019	-1.8234	-3.4729	-1.1662	-2.8896	-1.2264	-3.6232	-1.0901	-0.6634	-4.1128	-9.3093	2.3097	-4.1441
2568.0000	0.4992	-0.2201	-0.2305	-0.6452	1.6825	-0.2188	-0.7083	0.4406	-0.0734	-1.0624	0.8910	-2.7555	-6.6809	-1.9580	2.9090	-0.6503
2576.0000	-4.0768	-3.4550	-2.0273	-4.7185	-4.0590	-5.1450	-9.9968	-4.7877	-1.8149	-6.4444	-3.0675	-10.5457	-45.8013	-10.0354	-4.9197	-6.0998
2584.0000	-1.7696	-0.7784	4.7653	0.3212	-7.9250	-3.2223	-2.2682	-4.2669	-0.9457	-0.1969	-2.2007	0.2355	-2.2071	-0.2435	0.4937	-0.4921
2592.0000	-2.6459	0.6053	9.9171	3.1714	-4.3424	-1.1826	-8.2689	-3.0546	0.6130	2.1510	-2.9194	1.5898	-28.9797	5.9289	-6.8262	0.6192
2600.0000	-0.6027	0.2050	4.9344	0.3495	1.3426	-1.4347	-5.2342	-1.2959	0.3525	-0.4303	-0.4267	1.2971	-23.0527	-2.2948	1.9281	-1.8020
2608.0000	1.2376	-0.6091	0.6532	-2.0116	0.8746	-2.5842	0.7358	-1.1592	-0.7226	-2.4888	1.5027	-0.5905	0.4418	-8.1691	11.5663	-2.5892
2616.0000	-5.3762	-5.0821	-5.1535	-5.9333	-13.8056	-7.5004	-8.1929	-7.7461	-3.4117	-6.8435	-5.1777	-8.8863	-31.3845	-10.1674	-4.8993	-5.8015
2624.0000	-5.5590	-5.1744	-8.0628	-6.3281	-16.5838	-7.4045	-2.7138	-8.3739	-3.8750	-6.3540	-5.9031	-6.3572	-1.9755	-9.9194	-7.6815	-5.1619
2632.0000	-2.0710	-1.3672	1.4159	-2.8609	-1.1692	-3.5851	0.0301	-4.0946	-1.1673	-4.4580	-1.2698	-8.6321	3.7420	-8.8928	-3.1623	-4.2089
2640.0000	0.0232	0.3973	3.5072	0.5762	0.5716	-0.2628	1.1334	-0.7230	0.0627	-0.3478	0.4203	-4.4119	6.2503	-0.0846	-0.3115	0.0962
2648.0000	0.5345	-1.0717	-7.9444	-1.2750	-3.2237	0.8796	2.8764	1.4655	-0.7671	0.0663	0.1195	0.8249	10.2655	1.6415	0.6788	1.4718
2656.0000	-1.2925	-1.1728	-5.9656	-1.9667	2.0864	1.0454	-1.6486	1.1642	-0.2451	-2.3332	-0.4777	-8.3373	-12.2958	-0.6216	-8.9212	-0.9460
2664.0000	-0.2711	1.2037	0.8862	2.4070	2.1177	3.1956	0.3952	2.0664	1.0863	2.4355	-0.1831	-1.4485	2.2957	7.7761	-9.2239	2.7771
2672.0000	1.0256	-0.6319	-1.8806	-0.5986	-1.5911	-0.4506	-0.4921	0.5989	-0.4842	-0.3467	0.9639	-0.1506	-6.1062	-0.4926	7.0238	0.4484
2680.0000	0.9847	-2.3228	-0.7274	-3.2622	-5.9875	-4.5716	1.2570	-2.9207	-2.2771	-4.3416	1.4898	-8.7539	1.9690	-8.5313	15.6340	-1.9799
2688.0000	-1.3711	-2.8345	-4.5648	-3.2316	-10.8283	-4.2727	0.7384	-4.0386	-2.4683	-2.9172	-1.8053	-2.3136	6.9649	-5.0503	4.4752	-1.5350
2696.0000	-1.6170	-3.7053	-8.9710	-6.4683	-3.5461	-4.8329	-3.5237	-2.9566	-2.3406	-6.4765	-1.2330	-3.8707	-20.0544	-13.7570	4.8086	-5.9766
2704.0000	1.5796	-1.5066	-2.4402	-4.0381	1.0701	-3.5479	2.3675	-1.3743	-1.4382	-4.6653	2.1716	-4.0147	5.0192	-12.6647	14.6595	-3.9559
2712.0000	-0.0586	-1.7173	0.3249	-2.7302	-6.6049	-4.9989	1.0994	-4.2079	-1.8707	-2.8480	-0.4140	1.2724	8.3410	-9.0323	11.7561	-2.9205
2720.0000	0.9627	-1.0401	3.5165	-1.8051	-3.6598	-4.5023	-0.0685	-3.2493	-1.3462	-2.5884	0.9981	-0.6299	-0.1863	-8.5445	15.6319	-2.5510
2728.0000	3.0738	0.7679	4.4752	1.8187	-1.0852	-0.0718	1.7822	1.0671	0.0030	1.5450	2.9804	0.0952	4.0917	2.2306	15.4845	2.6136
2736.0000	0.7860	-1.2344	-1.4492	-0.3704	-4.8471	-0.8623	-1.9970	0.1660	-0.9372	-0.5039	0.8523	-4.1603	-13.7209	1.7161	7.9058	1.4685
2744.0000	2.3772	0.4996	-1.7012	1.6598	1.2091	2.8829	0.2734	3.9346	0.4857	1.9926	2.5061	-2.1451	-7.0314	6.8281	5.6660	3.8501
2752.0000	2.3630	1.1637	-1.6818	3.9245	-1.6440	4.7468	0.7402	4.9691	0.9338	5.1744	1.7973	2.1532	-2.1603	14.5971	2.1374	7.0693
2760.0000	1.5573	-0.5286	1.8689	1.2739	-7.1001	-0.5211	1.9467	-0.1955	-0.9769	0.8545	1.5111	-6.0800	6.9298	5.1354	9.6730	3.7230
2768.0000	2.3615	0.8389	5.0335	3.0480	-4.3225	0.7742	3.0292	0.7981	-0.0826	2.6825	2.1852	-2.9752	12.7271	7.4763	9.9045	4.7710
2776.0000	-1.5105	-1.2042	-0.1028	1.1348	-11.0509	-0.9694	-2.2994	-1.9830	-1.0390	1.5549	-2.2420	-0.5533	-5.3384	7.2192	-2.1956	2.9019
2784.0000	-1.8354	-1.0401	5.5593	-0.1778	-8.4471	-3.9186	-0.7165	-5.1064	-1.3388	-1.3478	-1.9099	-4.5008	5.0689	-1.7964	0.8349	-0.8531
2792.0000	1.7077	1.6543	9.4789	2.6317	-0.7380	-0.9614	3.1034	-1.3607	0.3700	1.9185	1.4539	2.4055	18.4371	0.8512	9.4999	1.3555
2800.0000	1.8714	-0.4681	2.3006	-0.3581	-6.3753	-2.9934	4.4935	-2.2443	-1.3064	-0.1763	1.2732	2.4355	22.6252	-3.2922	15.8073	0.4923
2808.0000	0.3156	-0.5920	5.5461	-0.9738	-5.0151	-4.5154	1.7838	-4.3160	-1.2627	-1.8130	0.1499	-0.0437	13.1291	-7.0841	11.6801	-2.0716
2816.0000	-0.8029	-0.1508	6.8146	0.5521	-4.4977	-3.2522	-3.0777	-3.6437	-0.4561	-0.1221	-1.1337	2.5982	-7.9721	-2.3244	5.2187	-1.2701
2824.0000	1.0041	-0.4637	0.7272	0.4259	-5.0755	-1.2900	-0.9834	-0.5527	-0.6089	0.9411	0.4000	3.8042	-4.7478	1.1461	9.8574	1.2330
2832.0000	3.6900	2.9754	4.7939	4.4205	6.1678	4.0243	1.3430	4.7292	2.0696	5.1702	3.2405	8.6018	1.4416	8.0082	8.6137	4.2789
2840.0000	4.4682	4.5058	9.4617	6.6794	9.8828	5.8728	2.4418	6.0201	3.0945	6.6985	4.3928	6.0694	6.0071	11.8320	6.9375	5.9413
2848.0000	3.9015	3.4245	6.1996	5.8186	7.4335	5.7585	0.5047	6.1835	2.5466	5.9140	3.9395	2.8970	-5.1016	12.8369	5.6665	6.2298
2856.0000	1.1738	1.4793	3.9830	2.6150	2.8808	1.7190	-2.7026	1.9468	1.2432	2.8213	0.9254	5.3252	-13.9480	4.6667	3.0064	1.7798
2864.0000	-3.0824	-2.5099	2.8824	-4.8331	-6.0520	-7.8979	-0.8866	-8.2599	-2.3574	-6.3867	-2.7853	-4.0549	5.4015	-16.6166	2.7288	-7.5008
2872.0000	-4.7359	-2.9089	0.9580	-6.0069	-5.4182	-8.0252	0.1844	-9.2651	-2.5323	-7.7954	-4.1660	-7.1518	13.1023	-18.5736	-6.3388	-8.9779
2880.0000	-2.1781	-0.5373	0.0436	-1.2780	-2.5828	-2.0155	1.1170	-3.2271	-0.5617	-1.2411	-2.4571	1.7607	13.1157	-4.0397	-6.7961	-2.4029
2888.0000	-1.3115	-1.5677	-3.7546	-2.2977	-3.5700	-1.9520	-0.8620	-1.8250	-1.0721	-2.0956	-1.3925	-0.9558	-2.6317	-3.9195	-1.2319	-1.8821
2896.0000	-2.8452	-2.7414	-7.2774	-3.8262	-4.6592	-2.3562	-3.2875	-2.3229	-1.5484	-3.7441	-2.6486	-4.6422	-14.4263	-4.9809	-7.0278	-3.0340
2904.0000	-1.8697	-1.1424	-3.0488	0.2296	-6.3261	0.2722	-2.8151	-0.5718	-0.5685	0.6689	-2.1902	-1.8213	-10.5573	5.7097	-7.5903	1.7216
2912.0000	2.3262	2.2191	5.7215	4.5205	4.3269	3.9727	-1.9981	4.1519	1.7769	4.0897	2.5765	-0.9631	-14.9303	10.6934	3.0503	4.7875
2920.0000	6.1556	4.9385	10.8963	7.0571	13.4353	6.5789	1.9349	7.7704	3.4588	6.4727	6.6136	2.8174	-2.5082	11.6263	13.4092	6.4197
2928.0000	4.3221	3.7525	8.9000	7.3854	5.1482	5.7168	-2.0180	6.2444	2.7574	7.7177	3.9285	6.6494	-16.0063	16.2994	9.6950	7.6902
2936.0000	2.2693	3.2893	9.0144	5.7758	7.2539	4.2841	-5.0871	4.3943	2.7709	5.6530	2.1560	6.7168	-27.1933	10.9104	3.0208	4.1183
2944.0000	2.2270	3.1325	8.8102	4.0713	8.9641	2.8399	-1.7631	2.9976	2.3812	3.6357	2.3339	5.8457	-10.4317	4.3543	4.0325	1.6558
2952.0000	0.3956	-0.5178	1.3730	1.1273	-7.5065	-1.1440	-1.2530	-1.0330	-0.6923	1.6341	-0.3468	3.0496	-3.7551	3.9881	6.9719	2.2520
2960.0000	1.1572	0.5644	5.2746	-0.5884	0.1415	-2.7540	5.9600	-2.7674	-0.5102	-1.3057	1.1614	0.6290	31.6357	-7.4619	9.1573	-1.9541
2968.0000	-0.6439	2.8107	10.3479	0.9072	12.5285	-0.1370	1.9842	-1.5229	1.9154	-0.8524	0.1765	1.2922	15.3761	-7.8140	-7.2537	-4.4826
2976.0000	-3.8783	-0.2925	-0.8745	1.5265	-5.5317	0.9036	-5.1453	-1.4602	0.3159	2.3661	-4.6731	4.5069	-14.1005	8.0311	-18.4042	1.1899
2984.0000	-2.2521	-0.0200	-2.9335	-0.9151	0.9780	0.4454	1.8051	-1.0068	0.1572	-0.4253	-2.4220	1.9410	14.3291	-1.2645	-13.5921	-1.6005
2992.0000	-1.4444	1.4981	0.7821	-2.6608	17.6541	0.9353	2.1940	0.3562	1.6460	-4.2434	0.1853	-4.4669	9.5511	-12.8589	-14.9290	-7.0785
3000.0000	1.0221	0.2787	-5.2253	-0.3818	1.5352	2.0711	6.3173	2.0621	0.0355	0.5267	0.9006	0.1155	27.2077	1.2822	-2.2119	1.4070
3008.0000	0.7453	1.1606	-3.4023	1.0945	3.9768	3.4739	3.8856	3.0810	0.9712	2.0993	0.5467	2.9215	16.5415	4.4689	-6.1459	2.0208
3016.0000	-1.6210	2.1214	0.4040	1.5288	12.9989	4.7146	-3.1754	3.4321	2.6024	1.1719	-0.8307	-0.0266	-15.6511	3.2751	-20.4169	-0.9534
3024.0000	2.0464	1.0440	-6.8728	3.3206	-2.5411	5.8381	4.8085	5.5725	0.7884	5.7843	0.9829	5.5839	18.6334	15.5338	-3.1811	7.6294
3032.0000	1.1980	0.0554	-8.0041	1.0738	-2.6309	3.5945	3.4683	3.7499	0.1403	3.2632	0.3128	5.1342	12.9993	8.8740	-2.0234	4.5209
3040.0000	-1.4911	-0.7114	-2.0850	-2.4476	-0.6033	-1.9422	4.0596	-2.6953	-0.7947	-2.5349	-1.4373	-1.0595	24.0070	-6.9742	-5.2020	-3.0681
3048.0000	-3.1210	-2.7401	-5.5705	-4.3132	-7.3394	-4.0516	1.7189	-4.8190	-2.1919	-4.3775	-3.1486	-4.5787	14.5162	-8.1181	-6.4815	-3.7893
3056.0000	-6.5401	-3.8135	-9.2060	-5.0974	-5.5909	-2.7242	-7.0120	-4.2271	-1.7739	-5.6830	-5.8570	-10.7418	-27.2226	-5.2262	-23.8376	-5.0201
3064.0000	-4.3775	-3.6136	-8.1100	-3.5419	-12.9600	-3.0888	-0.4825	-4.5812	-2.6033	-3.3514	-4.5632	-8.2555	4.9987	-0.8790	-12.9345	-1.1340
3072.0000	-1.7825	-3.1820	-6.8205	-3.5198	-10.4060	-3.5384	-0.8209	-3.2125	-2.4174	-3.1164	-2.0647	-3.9157	-2.1769	-3.7798	1.3451	-1.3428
3080.0000	1.7722	0.6104	-0.6005	0.1461	1.4130	0.6942	5.3712	1.0654	0.0262	0.4576	1.6945	0.7182	23.1378	-0.5933	5.0273	0.9328
3088.0000	3.1113	2.3344	6.7888	1.8476	3.0346	0.0264	10.3901	-0.1919	0.5032	1.6624	2.8492	3.8063	51.0690	-2.2292	10.6585	1.0647
3096.0000	-1.8077	-3.9462	-1.9649	-4.5232	-17.3276	-8.4212	0.7547	-8.0460	-3.8332	-4.4573	-2.6537	-0.6665	12.0626	-10.5746	12.7702	-3.3942
3104.0000	1.0972	-1.8126	-0.4053	-4.2192	-7.0240	-6.4164	8.6721	-5.4392	-2.6738	-4.3636	0.7436	0.1372	44.5031	-14.7719	17.5390	-3.9294
3112.0000	-1.3105	-2.1714	-2.0798	-5.0129	-1.8941	-5.5367	0.0202	-4.6467	-1.8033	-5.5397	-1.0837	-0.8318	2.5475	-15.4323	5.8025	-6.4903
3120.0000	-1.8867	-2.8361	2.2665	-5.4370	-2.9577	-7.3665	-2.1850	-6.5350	-2.3844	-7.9221	-0.6871	-11.9398	-8.7248	-17.4937	7.3511	-7.4171
3128.0000	4.1011	3.0894	6.1210	2.8395	10.3847	2.9308	4.8410	3.8547	1.8875	2.4981	4.4282	3.1153	16.4636	0.9555	10.2849	1.7413
3136.0000	2.0765	0.1320	-2.3347	1.3343	-0.4202	1.8420	-3.1953	3.3840	0.4071	2.4359	1.6131	5.0511	-21.9119	5.6128	8.7083	2.9252
3144.0000	2.6467	-1.0503	1.4769	-2.9864	1.8222	-3.2201	3.9097	-1.0363	-1.3972	-4.8840	3.9207	-12.0814	9.4990	-10.9911	18.0924	-2.5418
3152.0000	2.2796	0.3617	0.4184	-2.3566	11.4246	-0.3219	0.2866	1.9190	0.4752	-3.7276	3.6843	-5.7451	-9.5791	-10.5844	9.5823	-3.8649
3160.0000	-2.4804	-3.5257	-2.3476	-3.6142	-11.7778	-5.7360	-4.8842	-5.3419	-2.6659	-4.1493	-2.5618	-5.2539	-19.2752	-6.3504	4.4404	-2.8946
3168.0000	-1.2007	-0.7497	7.9815	0.0395	-9.7015	-4.8748	2.4648	-6.2250	-1.6193	-1.3389	-1.3912	-4.3428	21.9847	-3.2639	4.9967	-0.7747
3176.0000	1.1706	1.0870	1.8125	0.3777	4.1084	0.1549	0.9997	0.6450	0.7044	0.7899	0.8990	6.9690	4.5821	-2.7154	4.6295	-0.9606
3184.0000	1.1428	-2.4752	-1.7035	-5.0981	-8.4206	-7.0712	9.2395	-5.8175	-3.2296	-5.4601	0.9794	-3.1516	45.8007	-16.0475	19.1824	-4.1416
3192.0000	0.3016	0.3720	9.1595	-0.9728	-2.0318	-4.8871	7.6258	-5.7035	-1.0876	-2.6949	0.5352	-3.3008	44.1875	-10.6616	8.7576	-3.2463
3200.0000	0.5343	2.9465	5.2922	3.0417	9.1385	3.1399	0.4339	2.2345	2.3410	3.2417	0.3979	8.0075	4.4109	3.0725	-6.2706	0.4320
3208.0000	-0.0442	-0.0766	1.8020	-1.5417	-0.3370	-2.2789	6.4562	-2.8047	-0.7800	-2.2298	0.1714	-2.9719	34.2965	-7.1213	1.6927	-2.2222
3216.0000	-0.9473	-0.5936	4.3424	-2.0525	-2.7335	-4.2679	5.2890	-5.1161	-1.3120	-3.4405	-0.6026	-5.2836	31.8537	-9.6040	2.2076	-3.4855
3224.0000	-3.9901	-4.3381	-9.9570	-2.4283	-20.1650	-3.3356	-5.0479	-4.1196	-2.9944	-0.7365	-5.3222	0.2126	-16.2621	4.8892	-6.1399	1.4183
3232.0000	-3.6802	-4.0189	-4.2558	-5.0285	-12.8469	-6.6770	-2.0385	-7.0087	-3.1887	-5.4939	-3.7939	-6.0702	-2.1369	-9.6254	-0.7747	-4.4271
3240.0000	-0.7371	-1.1316	1.0108	-2.3657	-1.1952	-3.0561	0.8005	-2.9098	-1.0932	-3.5619	-0.1329	-6.6343	4.7087	-7.6206	2.4193	-3.0254
3248.0000	-1.5304	-1.8897	-2.8788	-2.5078	-4.7621	-2.6252	-1.1099	-2.5644	-1.3857	-2.7758	-1.4086	-4.0524	-3.6343	-4.4094	-0.6927	-2.0246
3256.0000	-0.5648	-1.0180	-2.4636	-1.9257	1.3435	-0.9766	-3.4254	-0.1428	-0.3378	-2.2191	-0.1468	-2.3110	-19.2484	-4.1878	0.4469	-2.2296
3264.0000	-1.1331	-1.5293	-4.5988	-2.3218	-0.6816	-0.8448	-2.5308	-0.3504	-0.7155	-2.4886	-0.7240	-4.4895	-14.4741	-3.0664	-2.7672	-1.7509
3272.0000	-3.4704	-4.4217	-8.1891	-5.6192	-11.1681	-5.2746	-2.6391	-5.1027	-3.1344	-5.9727	-3.2321	-9.5034	-9.8687	-8.3033	-2.8638	-3.8808
3280.0000	0.7218	-1.1720	-4.1175	-1.9165	-0.5710	-0.6954	-0.0491	0.5635	-0.7730	-1.8772	1.0031	-3.2986	-5.6784	-3.0331	5.4853	-0.6579
3288.0000	1.6370	0.1096	-6.2599	-0.9857	6.6497	2.7619	0.7530	4.2134	0.5812	-0.4668	2.1331	-1.5310	-6.4516	-0.2082	0.8156	0.2924
3296.0000	-2.1594	-2.8866	-11.6305	-4.5648	-0.3650	-0.5101	-4.3307	0.4717	-1.1679	-4.2876	-1.5164	-6.8712	-26.3030	-4.6973	-7.9278	-2.9521
3304.0000	0.4591	0.3265	-4.0659	1.3571	4.4833	4.3555	-4.3184	4.8980	1.1411	1.5740	0.9834	-3.9740	-29.0477	8.3556	-6.2495	2.9006
3312.0000	4.6456	3.7706	5.8135	5.3318	14.5173	7.3923	0.4022	8.4352	3.1362	4.2612	5.8855	-5.9790	-12.9787	11.5146	3.9786	5.6676
3320.0000	4.9619	3.2701	6.3549	2.9184	16.5836	4.7193	1.6417	6.6059	2.5482	1.3158	6.5133	-6.1986	-7.6463	1.8299	10.4377	1.9445
3328.0000	4.0007	3.5673	3.0195	5.0655	13.8286	7.6441	-1.3287	8.6918	3.2608	5.0368	4.6773	0.3958	-19.5502	12.0168	1.4227	5.3308
3336.0000	4.0402	2.9134	-1.5315	5.9322	8.8768	9.2757	-2.6713	10.3980	3.0018	7.0352	4.1675	1.6224	-27.6208	19.6319	0.0512	8.6837
3344.0000	2.6224	0.7543	-4.8903	1.2609	5.0754	4.2589	-0.6662	5.8231	1.0730	2.2948	2.6860	1.6504	-14.2081	6.4071	3.7785	3.3183
3352.0000	0.1630	0.3302	-2.1062	-0.4758	3.7956	1.1622	1.4676	1.2371	0.4030	-0.3146	0.3765	-0.1255	5.0135	-1.0557	-3.1622	-0.5394
3360.0000	2.1527	1.8897	-1.6072	3.0049	4.1365	4.9305	3.3760	4.8882	1.4719	4.1033	1.8592	3.5081	11.2980	9.4774	-1.8422	4.6057
3368.0000	1.5568	0.5960	-6.2113	1.5486	0.4931	4.0074	1.5337	4.4809	0.7209	3.4854	0.8554	6.0829	2.3581	8.5070	-0.9252	4.0869
3376.0000	-4.7515	-4.1036	-6.4210	-5.6300	-11.4531	-6.1202	-1.9032	-6.9685	-3.0248	-5.9039	-4.8064	-6.0140	-0.1578	-10.1438	-7.8900	-5.2669
3384.0000	-5.1005	-4.7868	-3.8959	-5.3385	-18.3323	-8.1217	-1.0880	-9.4548	-4.0237	-5.9895	-5.3980	-8.4658	7.5453	-9.1859	-4.3263	-4.3432
3392.0000	1.1165	0.1152	2.4568	1.2787	-5.0433	-0.5055	3.2823	-0.6963	-0.5495	1.2489	0.7801	-1.0290	16.7828	3.1939	6.4605	2.5254
3400.0000	3.2026	2.5036	5.5821	1.9805	8.4639	1.9808	5.9356	2.4256	1.3345	1.3295	3.6602	-0.0136	23.7408	-0.6073	7.4927	1.0193
3408.0000	-0.3529	0.2750	-0.9145	-0.6153	2.7444	0.1472	0.8072	0.0053	0.2952	-0.3878	-0.3708	2.4715	4.8232	-2.5681	-3.0149	-1.4232
3416.0000	-0.5901	1.5950	5.0536	3.1225	2.8317	2.1266	-4.3633	1.1727	1.5446	2.9878	-0.7143	3.6348	-17.9217	6.6395	-6.4765	1.5752
3424.0000	-2.8800	-3.3079	2.1524	-4.1443	-13.1482	-8.5282	-2.2202	-8.7112	-3.0999	-5.1113	-3.1895	-2.6057	-0.1781	-12.2643	7.5185	-5.1879
3432.0000	-0.3386	-0.6839	7.1424	-1.0568	-2.4878	-4.4182	-1.8465	-4.1715	-0.9671	-2.8892	0.1792	-5.2163	-5.9016	-7.4853	8.8052	-2.9484
3440.0000	3.6594	1.9115	2.4630	1.1229	12.0735	2.6083	-1.4399	4.8404	1.7513	0.7233	4.3878	1.6196	-18.7058	-1.4303	11.2521	0.0173
3448.0000	0.3944	-1.1616	2.7240	-4.7591	6.0045	-5.1188	-0.3928	-3.2685	-1.0286	-6.9720	1.8054	-7.7200	-6.0299	-18.9163	11.6368	-7.6084
3456.0000	-0.8907	0.0712	5.6671	-1.9668	6.1043	-2.8474	-1.3468	-2.7790	0.0305	-4.1124	0.2868	-6.3684	-5.3726	-11.0779	0.2631	-5.3276
3464.0000	0.9972	1.4161	-1.1943	0.7491	9.1535	3.1800	-0.7999	3.7043	1.5835	1.0383	1.3404	2.6326	-9.1235	1.0564	-3.3454	-0.0291
3472.0000	-1.1138	-2.7034	-9.8086	-6.4689	3.2018	-2.7085	-0.0355	-1.0576	-1.5183	-6.8035	-0.1297	-7.0327	-6.4126	-14.4709	-0.4916	-6.2553
3480.0000	-2.6675	-4.3300	-15.7891	-7.0241	-3.7450	-2.3480	-2.0084	-1.1066	-2.4171	-6.5609	-2.0424	-9.1642	-15.0412	-9.2755	-6.7500	-4.4222
3488.0000	-3.0453	-2.6614	-13.2223	-3.2933	-3.6381	0.9985	-2.3023	0.6810	-1.0731	-2.2555	-2.9236	-5.3160	-12.6524	1.4100	-15.9102	-0.5800
3496.0000	-3.6642	-1.7161	-9.1395	-3.1482	0.0964	0.3990	-1.2742	-0.6687	-0.5096	-2.7051	-3.3665	-3.8904	-3.6542	-2.3088	-19.2716	-2.6763
3504.0000	-4.1175	-2.5515	-11.7659	-3.2224	-6.6014	-0.6435	-2.5689	-1.6586	-1.1852	-1.3615	-4.9100	4.0107	-6.1714	-0.4084	-16.7278	-1.8335
3512.0000	-5.0441	-2.8435	-11.1288	-2.9901	-8.0625	-0.8301	-4.8896	-2.2284	-1.2440	-1.3889	-5.7706	2.3943	-15.7472	1.0832	-19.8731	-1.7271
3520.0000	-4.1407	-1.0005	-10.2499	-0.0994	-0.4972	4.0787	-6.3944	2.4420	0.6795	1.2989	-4.3124	-0.1169	-28.5109	9.6440	-27.1581	1.3367
3528.0000	-5.5980	-2.3003	-8.5270	-0.4015	-10.5825	0.7978	-6.9910	-1.6149	-0.7485	1.0653	-6.4579	0.8986	-23.6500	9.5442	-24.9967	1.3882
3536.0000	-7.1353	-3.8025	-2.6167	-3.7764	-16.1394	-6.3304	-3.4220	-9.2953	-2.8807	-4.1569	-7.6521	-4.7120	2.2364	-4.9908	-18.2324	-4.2080
3544.0000	-2.0230	0.3229	1.2200	0.0347	0.4683	0.0607	1.9412	-1.6926	0.1745	-0.3912	-1.8789	-2.1336	15.5473	-0.2759	-11.8662	-0.9741
3552.0000	-0.4479	2.1212	4.5973	2.5193	6.6610	2.7163	-0.1025	1.3952	1.7726	2.0845	-0.1934	1.2216	2.0450	3.9136	-9.9509	0.6278
3560.0000	-2.9280	-0.4801	0.1646	-0.4209	-1.0107	-0.7255	-4.4997	-1.9216	0.0960	-0.5416	-2.9916	1.0212	-15.1523	-0.3138	-11.3953	-1.8786
3568.0000	-1.3794	-0.4290	-1.8120	0.3323	-2.1766	0.4863	-3.9157	0.0756	0.1050	0.9008	-1.7262	2.6035	-16.5055	3.4020	-5.7953	0.4822
3576.0000	0.3037	2.2642	13.8142	3.8541	2.8621	-0.0604	-1.5916	-1.2978	1.2749	1.8064	0.8093	-3.1119	-2.9854	3.1474	1.0360	0.9642
3584.0000	3.5150	4.7677	19.0918	8.0553	6.0048	3.2298	1.5926	2.1506	2.7245	6.2589	3.7415	0.5433	8.8001	11.4683	8.3627	5.6613
3592.0000	5.3950	4.5254	11.3249	8.7956	3.7700	5.9462	0.7402	6.2790	2.8946	9.4286	4.5742	9.8019	-1.3791	18.4812	13.9046	9.3205
3600.0000	0.8849	1.2221	9.9306	3.6396	-2.9366	-0.6573	-4.2527	-0.8497	0.6073	3.0467	0.4667	3.8125	-16.8487	5.4680	8.4379	2.3407
3608.0000	0.2912	0.0153	8.7213	1.8504	-6.5465	-2.8277	-2.8178	-2.9911	-0.5430	0.8899	0.0068	-0.1335	-8.8439	1.4953	10.1504	1.0336
3616.0000	3.7165	2.9331	14.0495	5.3040	0.2308	0.2947	2.1282	0.4100	1.1671	4.5552	3.2842	5.0794	11.2731	5.7511	17.3946	4.0145
3624.0000	2.4733	3.4510	15.9615	4.7249	3.3313	-0.5718	2.2147	-1.1812	1.5813	3.8350	2.0112	8.7603	16.6785	1.1019	12.1320	1.1860
3632.0000	-0.8549	-0.8983	0.5230	-1.1293	-5.6822	-3.1795	-0.4467	-3.2542	-0.9835	-0.6009	-1.6173	6.0745	3.9398	-4.2023	4.2978	-1.7557
3640.0000	-3.0983	-1.6341	-2.0113	-2.0454	-4.3040	-2.3956	-3.5495	-3.2252	-0.9249	-2.1941	-3.1508	-1.2937	-10.9147	-3.3676	-8.3009	-2.7121
3648.0000	-2.9899	1.1088	7.7198	1.9407	3.9114	0.5951	-5.6848	-1.5216	1.2907	0.1592	-2.2275	-5.0670	-20.3049	2.5824	-15.8354	-1.2217
3656.0000	-2.4688	-0.6702	6.0636	-0.0162	-3.5943	-2.8603	-5.0133	-3.9424	-0.4809	-1.5833	-2.0914	-5.1563	-17.1790	-1.7614	-4.0165	-1.9150
3664.0000	-4.3281	-2.4635	5.9727	-3.3192	-9.1310	-8.0078	-4.8504	-9.2063	-2.1793	-5.1102	-4.2268	-3.7481	-9.4173	-12.2050	-1.1491	-6.4622
3672.0000	-3.1088	-0.2642	9.3290	-0.5589	0.1875	-4.1495	-7.4594	-5.2057	-0.0397	-2.6580	-2.5392	-2.5271	-26.5612	-7.0781	-4.3029	-4.9435
3680.0000	-1.4949	0.7929	9.4563	1.4658	4.7123	-1.0248	-10.4430	-1.2438	1.2019	-0.4065	-0.7555	-1.5201	-47.4361	-1.0648	-2.3711	-2.4425
3688.0000	-5.3622	0.2805	15.3395	0.2500	1.8497	-5.0799	-11.9921	-7.4457	0.6016	-2.9449	-4.5069	-3.0346	-41.5433	-7.9749	-12.6469	-6.9663
3696.0000	-4.2640	1.8412	21.9996	2.9644	3.4458	-3.9975	-10.4652	-6.9496	1.3924	-1.0752	-3.1992	-5.1290	-33.6796	-3.8603	-10.7382	-4.8333
3704.0000	2.1650	4.8628	23.0831	8.9627	6.5841	2.5364	-6.8290	1.4018	3.3473	6.7573	2.3696	3.6959	-28.7527	12.3069	6.5101	4.4943
3712.0000	2.1180	4.7942	25.7523	8.7985	3.8242	0.7178	-4.4096	-0.7987	2.7936	6.3005	2.1466	3.8491	-13.4836	9.8627	9.6861	3.9225
3720.0000	0.7042	4.0413	31.2088	8.4577	-0.7419	-2.2243	-4.6779	-4.6943	1.8077	4.1915	1.2788	-5.2356	-9.9358	7.5018	9.2680	2.8620
3728.0000	3.5581	6.8213	32.3099	14.4079	2.0390	4.3516	-5.3929	1.8969	4.1339	11.8486	3.2516	4.0466	-18.0855	24.9163	9.8088	10.5650
3736.0000	5.5485	7.3700	28.5640	13.7008	7.6191	6.0359	-2.0697	4.7582	4.5972	11.7780	5.3714	6.0837	-8.8642	22.8255	13.9747	10.4807
3744.0000	5.1818	4.4270	23.5806	7.0897	6.6836	0.4994	0.9575	0.8840	2.1104	3.9376	6.0223	-4.0069	1.7258	4.9464	22.8120	3.9122
3752.0000	1.8736	1.4643	11.5503	1.6559	4.9449	-1.3339	-1.0895	-0.7683	0.6578	-0.7060	2.8613	-5.9672	-7.5201	-3.2609	11.3069	-0.8130
3760.0000	-3.4621	-2.2316	-3.7626	-4.5352	3.2904	-2.3306	-5.4299	-2.3293	-0.8262	-6.3131	-1.9388	-12.8206	-27.1218	-9.8621	-11.7049	-5.9610
3768.0000	-6.3777	-4.3294	-9.4430	-6.1735	-2.9678	-3.1039	-9.6320	-3.7611	-1.8620	-7.6321	-4.9449	-16.4060	-44.4090	-8.0024	-21.8174	-6.3187
3776.0000	-4.5654	-3.1331	-9.3565	-5.3127	1.7783	-1.1342	-6.1606	-1.3922	-1.1003	-6.5884	-3.0006	-15.4982	-31.8377	-7.0614	-19.3078	-5.2230
3784.0000	0.5735	0.0882	-9.5273	-3.9033	17.6557	3.6898	1.5183	5.2534	1.1596	-4.6427	2.5951	-10.5628	-7.6985	-8.4359	-9.9575	-4.1409
3792.0000	2.6429	0.5585	-14.4653	-2.7038	15.7429	5.6060	2.3072	8.2627	1.5421	-0.7868	3.2008	4.1927	-6.1677	-3.4126	-2.3535	-1.2318
3800.0000	0.0488	-3.5922	-22.9905	-7.3035	0.8175	0.4186	1.8307	3.2393	-1.7429	-4.6076	-0.0550	1.5766	-3.6648	-8.8902	-0.6065	-3.2314
3808.0000	0.0369	-3.7226	-22.4338	-6.3592	-1.6801	1.1450	2.3688	3.5274	-1.9373	-4.0904	0.1449	-4.0063	-1.7757	-4.3940	-2.2247	-1.0731
3816.0000	2.3004	-2.2817	-22.9422	-3.7302	-0.2210	4.2279	3.6831	7.1034	-0.8904	-0.1118	1.7036	3.7636	1.2075	2.8432	2.2885	2.6760
3824.0000	2.1413	-4.7670	-32.3642	-9.1405	-2.3441	1.0911	7.3406	5.4105	-2.8376	-4.8105	1.5562	2.9931	15.6653	-9.0019	7.5528	-1.4678
3832.0000	1.4165	-4.5833	-36.6520	-9.6908	0.5957	2.8229	8.7964	6.6918	-2.3948	-4.6694	0.7937	4.6089	22.5947	-8.5687	-1.1268	-1.8196
3840.0000	0.0606	-5.6665	-41.5145	-13.1505	1.9703	1.0100	10.7661	4.9458	-3.1125	-7.8556	-0.4634	5.3576	33.6643	-17.5124	-5.2007	-5.9528
3848.0000	1.1279	-7.1447	-46.5858	-17.4204	3.2200	-1.7131	14.8303	3.9285	-4.4713	-12.1857	0.9992	2.8580	47.9922	-29.3902	4.3348	-9.7592
3856.0000	7.6598	-2.6913	-43.3864	-8.8648	7.4565	7.2684	20.2726	13.5875	-1.5357	-1.4957	6.4049	13.7727	63.9274	-6.6386	15.6650	2.1675
3864.0000	-0.1931	1.5573	17.3079	5.8131	0.6179	-0.1874	-18.0983	0.0005	1.8620	3.3948	0.3184	-1.2260	-85.5492	9.8524	6.7061	2.1906
3872.0000	6.7443	7.1959	26.0890	14.1114	12.6523	8.4105	-10.3933	9.0929	5.4806	12.0808	7.1961	3.8310	-59.6955	26.4562	17.6505	11.4855
3880.0000	2.0140	2.8205	15.4928	9.3631	-1.7934	3.7647	-15.5943	3.9595	2.6617	8.7142	1.5178	5.6575	-76.1460	22.2389	9.3762	8.4025
3888.0000	-0.3634	-0.7207	14.5158	4.2486	-16.3544	-4.3789	-8.9554	-4.9731	-1.2228	2.5699	-0.9438	-3.3804	-34.6202	9.2059	14.7930	4.1676
3896.0000	5.2022	8.1883	29.7108	14.6236	16.3863	8.6231	-9.8620	7.8643	6.2428	11.9257	5.9207	3.5856	-51.6916	25.0314	7.8413	9.8314
3904.0000	8.5722	8.8759	16.2142	15.5660	17.7113	14.5124	-3.7212	15.1902	6.9894	16.7617	7.8763	16.9859	-31.7373	34.3882	10.6318	15.3202
3912.0000	8.1839	6.5001	12.6225	10.4075	11.5090	9.3974	7.8466	9.9189	4.0262	10.5654	8.0449	5.0574	25.6591	20.9339	15.5957	11.6426
3920.0000	9.6641	6.7011	14.8822	9.2431	18.8164	9.1347	7.5263	10.9916	4.2695	7.6693	10.8912	-4.1453	15.9956	14.9891	21.8474	9.5890
3928.0000	5.8062	-0.0845	-1.8472	1.8875	-11.6818	0.1130	12.7176	1.6957	-1.7415	3.4911	4.5405	1.8986	54.3321	7.1355	27.1856	7.7169
3936.0000	-4.2830	-1.7930	7.8070	-2.3614	-12.7091	-7.9345	4.4030	-10.8661	-2.6203	-4.2061	-4.4603	-6.1269	40.5775	-10.2519	-4.6673	-4.5931
3944.0000	-2.0415	1.5259	20.7726	2.1592	0.4085	-5.1237	-3.5386	-7.2563	0.3632	-1.5905	-1.1960	-5.9476	-3.2733	-6.4556	0.9197	-3.8921
3952.0000	1.8331	1.9477	20.3234	5.7870	-6.6184	-3.1675	-5.3137	-3.4947	0.4498	4.0053	1.2808	3.9812	-17.8618	5.6692	19.8061	3.0530
3960.0000	-0.8876	3.0074	23.6869	4.0462	8.2109	-3.1323	-11.6290	-3.9764	2.2619	0.6182	-0.0861	2.7191	-46.4134	-4.5132	4.7531	-4.1245
3968.0000	-1.9645	-0.1442	13.8321	-0.2976	-1.0303	-6.6078	-10.9687	-6.4851	-0.1324	-2.2988	-1.8951	5.0869	-42.5118	-10.7225	9.1360	-6.1879
3976.0000	-5.7820	-1.4590	17.4785	1.8344	-8.0441	-6.4441	-24.0909	-7.8028	-0.1893	-1.6865	-5.1652	-5.6287	-101.3588	0.3145	-4.2541	-3.9251
3984.0000	-3.9745	-4.8019	-15.5448	-10.0350	-0.7622	-5.1326	0.5718	-4.1771	-2.9531	-10.3265	-2.8948	-10.7345	0.8475	-20.5756	-9.4128	-9.5365
3992.0000	-1.2484	-2.9297	-8.1343	-6.1066	-5.0223	-4.7372	6.2337	-4.2231	-2.6513	-5.9685	-1.1324	-4.4697	31.2099	-14.0906	2.3468	-5.0276
4000.0000	-5.4711	-5.1035	-10.0152	-6.5344	-14.3186	-6.2232	-2.2530	-7.1121	-3.6312	-6.5668	-5.5358	-8.5059	-2.3005	-9.2597	-10.5683	-4.9569
4008.0000	-1.3964	-2.5178	-9.1016	-5.1366	-5.4608	-3.4009	6.8058	-3.3769	-2.2895	-4.3724	-1.6324	-1.7056	35.1981	-10.3614	-1.3550	-3.6199
4016.0000	-0.1759	-1.0116	-5.5265	-2.5997	-1.2250	-1.1290	4.2633	-0.8557	-0.9403	-1.9181	-0.3509	0.7363	20.3320	-5.3993	0.1762	-1.7343
4024.0000	-1.0873	-0.9729	-4.7769	-3.5141	5.9454	-0.4310	0.4320	0.0005	-0.2801	-4.3363	0.0260	-7.7738	-2.0236	-8.3280	-6.4648	-4.0726
4032.0000	4.7348	3.2820	3.8173	1.9302	15.8830	4.1574	5.7723	5.6931	2.2818	1.3223	5.6816	-0.1667	15.6565	-1.2681	9.1560	0.8680
4040.0000	2.1296	-0.3538	-6.6265	-0.1275	1.4710	2.1597	-3.1133	4.3212	0.3080	1.4357	1.7457	5.6956	-24.4324	3.1946	8.0329	1.8613
4048.0000	-4.7894	-7.7797	-21.2786	-11.6636	-15.8364	-8.8041	-4.2483	-6.8385	-5.2002	-10.1164	-5.2207	-2.9564	-18.9627	-19.4807	0.6926	-8.6773
4056.0000	-3.4294	-3.8070	-5.9909	-7.6343	-2.7740	-6.9314	-2.8096	-6.0997	-2.5800	-8.5870	-2.7209	-6.0784	-10.6672	-19.6385	-0.7966	-9.1752
4064.0000	1.4669	1.9122	5.9792	0.9459	11.2030	1.2446	-1.1109	1.8755	1.6054	-0.4377	2.4702	-2.0223	-10.0681	-3.4247	2.5049	-1.7001
4072.0000	0.3428	-0.0986	2.2122	-1.1223	1.1545	-2.0835	0.2097	-1.5402	-0.2855	-1.5789	0.4674	1.0106	1.5036	-6.2946	5.9657	-2.4251
4080.0000	-2.8036	-1.8192	-2.2650	-3.0834	-2.1310	-3.3215	-5.4959	-3.2880	-0.8955	-3.2006	-2.8015	1.2778	-21.8305	-7.6524	-4.2020	-4.6510
4088.0000	-0.9313	-0.6164	-5.7663	-1.8878	3.6134	0.7984	-2.0094	1.2212	0.1802	-1.3680	-0.7250	0.7991	-12.1944	-2.6584	-6.2533	-1.9610
4096.0000	-1.5580	-1.7984	-8.1385	-1.8609	-4.3886	0.0276	-2.2927	0.1610	-0.8428	-0.7273	-1.9190	0.6544	-11.2810	1.1733	-5.7659	-0.0515
4104.0000	-4.9904	-4.1341	-10.9836	-5.5156	-9.3244	-3.9134	-4.6426	-4.4514	-2.4257	-4.8814	-5.1816	-3.1873	-16.2131	-6.7438	-12.9010	-4.4917
4112.0000	-4.3385	-1.9517	-1.9488	-4.8562	0.2585	-4.2692	-0.5985	-5.4889	-1.2594	-6.1315	-3.5639	-6.6033	4.8849	-13.4643	-13.3195	-7.3390
4120.0000	0.6655	4.2169	11.0284	5.5081	10.9957	4.3901	-0.5448	2.7103	3.2355	4.8375	0.8272	5.4665	0.8658	7.6265	-8.6866	2.0532
4128.0000	1.4990	2.5770	4.2918	4.8315	-0.0077	3.1840	0.9373	2.3682	1.6898	6.4727	0.1294	14.2973	8.6350	10.6122	0.8976	4.5826
4136.0000	-4.9666	-4.4777	-0.3697	-5.5499	-19.6299	-10.5926	-0.5475	-11.8733	-4.2028	-5.8704	-5.9232	-0.1303	15.4342	-14.1826	2.1000	-6.3154
4144.0000	-2.6902	0.5804	10.4889	-0.4085	1.7686	-3.9465	-1.4390	-5.7141	0.0898	-2.5155	-2.1731	-1.9891	4.5821	-8.7909	-5.6981	-5.1054
4152.0000	5.4544	7.2499	13.5554	8.1034	22.7370	8.4913	3.7973	8.4593	5.3418	7.9115	5.7481	11.6791	11.4787	9.5239	2.8407	4.3006
4160.0000	6.1688	5.5817	13.0119	8.9593	6.9479	6.0143	5.0013	6.1366	3.3155	9.7701	5.1884	13.7273	20.5976	15.5518	15.2364	8.4905
4168.0000	6.5929	7.0424	15.7380	10.4526	12.9980	8.0321	4.5518	7.8929	4.6009	10.9179	5.9386	14.2248	17.2455	17.3644	11.7314	8.7969
4176.0000	5.4692	6.4206	11.7803	7.2423	19.2816	7.3796	4.2924	7.6485	4.5879	7.3239	5.5478	11.6953	13.9396	8.4767	6.0122	4.2628
4184.0000	2.8443	3.1835	10.3988	6.3267	-1.7518	2.3130	2.8668	1.4772	1.5353	6.9966	1.6442	10.8368	18.0222	11.6485	8.9421	6.0064
4192.0000	4.6222	3.3505	6.9023	7.0475	-2.4801	4.0409	4.1974	4.0902	1.6606	8.9139	2.9269	14.9083	19.8839	15.6974	14.3489	8.5811
4200.0000	2.9217	0.1733	-3.8742	-1.6461	1.4255	-0.4814	8.4978	0.9330	-0.5471	-0.5137	2.4816	5.3748	36.2837	-6.0661	12.5604	-0.4820
4208.0000	-0.0815	-1.5742	-2.3987	-3.5815	-6.0261	-4.6414	7.0410	-4.4132	-2.0809	-3.2409	-0.5623	1.6423	38.1844	-10.9336	8.1401	-3.2562
4216.0000	0.7020	0.3327	1.4905	0.4616	-1.8063	-0.9380	0.7874	-0.7176	-0.0561	1.1577	0.0005	7.3389	6.2639	-0.8659	6.0734	0.0387
4224.0000	-0.2941	-0.0332	-2.2289	-0.7883	1.3154	0.0547	0.5235	0.1022	0.0882	-0.2211	-0.5007	3.5684	3.1722	-2.0555	-1.9350	-1.1024
4232.0000	0.0737	-0.5145	-6.2011	0.3782	-5.3070	1.5908	2.7980	1.2821	-0.4376	2.0738	-0.7950	3.7887	13.7688	6.1607	-2.7177	3.1014
4240.0000	-0.4224	-3.3718	-16.4443	-2.7498	-13.5480	0.1678	2.7269	0.8985	-2.4155	0.1364	-1.6816	1.7933	10.1976	5.2165	0.1035	3.3590
4248.0000	-4.7636	-4.9553	-15.8035	-6.1277	-12.3813	-3.1720	-2.2156	-3.5907	-3.0831	-4.9917	-5.0140	-6.3931	-7.1474	-4.2767	-13.6884	-2.8257
4256.0000	0.1457	2.2610	0.5405	4.7150	5.7865	6.6933	-3.3463	5.6077	2.4698	5.1859	0.2315	0.5958	-19.0207	15.5363	-13.7628	5.3567
4264.0000	5.0153	5.6066	1.4525	10.1896	13.0581	13.7518	-0.6619	13.6979	5.0117	12.1925	4.5775	8.9000	-16.3231	29.7137	-6.3625	12.6893
4272.0000	-2.0260	-0.7031	-6.2775	0.9961	-2.3642	3.0650	-6.8235	2.5136	0.5085	2.2187	-2.4050	1.6979	-32.9985	10.0321	-13.3270	2.6071
4280.0000	-0.9611	0.4938	0.6787	1.0529	2.1956	1.6506	-2.2704	0.9205	0.7443	0.7705	-0.6947	-1.8893	-10.2586	3.6902	-8.2477	0.6304
4288.0000	5.0481	6.7405	7.6495	9.7280	19.5661	12.6639	3.2215	11.9893	5.4390	9.9381	5.5683	3.1664	3.9171	22.4707	-7.6128	9.6743
4296.0000	2.2191	3.1384	-0.0509	7.2946	5.5432	9.6084	-3.6908	9.1468	3.1925	8.6544	1.8864	3.7882	-25.5272	24.1894	-8.9376	9.7071
4304.0000	1.3414	0.9247	-5.2847	2.3995	1.7491	5.1383	0.4936	5.2794	1.1317	3.9310	0.9454	2.9926	-3.4484	11.3682	-4.5407	4.9757
4312.0000	4.3533	5.9664	1.5940	6.3204	25.2597	12.2345	3.0129	12.3938	5.3606	6.8208	5.2864	3.8787	-0.1854	13.8877	-11.2204	5.4682
4320.0000	6.9182	6.2676	4.7806	8.1218	20.3640	11.8972	5.9655	12.7265	4.8685	8.6702	7.4665	3.7385	11.6568	17.8681	2.5747	8.9623
4328.0000	3.4563	1.9902	0.6226	2.8811	3.2079	3.9207	7.6409	4.1189	0.9508	3.3601	3.3883	-0.3011	30.5055	7.3498	5.1889	4.9184
4336.0000	-0.3887	0.2923	-0.1243	0.3588	1.9533	1.1572	0.0775	0.7250	0.3760	0.0523	-0.0620	-2.9968	-0.2068	1.6511	-5.2007	0.3578
4344.0000	4.4690	2.3746	3.3831	4.3380	0.3448	3.5098	6.8625	4.0041	0.9825	5.2320	3.8121	4.7219	27.8667	9.8641	12.5220	6.4593
4352.0000	2.0975	1.6670	3.5444	3.2103	0.4894	2.5042	3.7511	2.1916	0.8035	3.3140	1.9042	0.3747	16.2977	7.5254	3.5018	4.2068
4360.0000	-0.4166	-0.3264	2.7772	-1.5304	3.3265	-1.4789	0.7209	-1.4824	-0.3373	-3.4842	0.8191	-11.0719	1.6601	-6.1427	-0.6654	-2.6023
4368.0000	4.0273	2.5866	6.1107	2.2312	6.7894	1.7290	8.7520	2.2307	1.0279	1.6345	4.3512	-0.3904	37.0309	-0.2791	11.4205	1.9360
4376.0000	-1.1346	1.4879	3.4148	2.8371	4.5054	2.9001	-5.7023	1.8896	1.7800	2.6914	-1.0474	2.3912	-25.3882	7.1092	-10.7874	1.2766
4384.0000	-3.3821	-3.2300	-3.6959	-4.5235	-5.6471	-4.5668	-4.8097	-4.5279	-2.0569	-5.6442	-2.7194	-9.4236	-20.3957	-8.7899	-4.4338	-4.7334
4392.0000	-2.7835	-4.1804	-2.3786	-7.3056	-7.9096	-8.5339	1.4886	-8.1030	-3.6396	-9.4023	-1.7587	-14.6744	10.7232	-19.2526	4.7657	-7.7171
4400.0000	-4.0960	-1.6086	5.6459	-2.4416	-0.2745	-4.1394	-6.5233	-5.3411	-0.8691	-5.6170	-2.5027	-15.7128	-25.7375	-8.1157	-10.2709	-5.3661
4408.0000	1.8628	2.6218	7.9961	3.3741	9.2216	3.0424	-0.4078	2.9571	1.9966	1.9703	2.7361	-3.7237	-6.2739	4.2422	0.5886	1.7600
4416.0000	-0.7029	-0.7379	1.1057	-1.5658	3.6125	-1.5044	-7.1313	-0.4307	0.0671	-2.6317	0.0667	-3.1986	-37.3055	-5.4561	1.8562	-3.2946
4424.0000	-3.5594	-2.9693	4.6983	-4.3615	-4.9932	-7.4055	-7.1086	-7.4087	-2.1645	-7.2763	-2.3357	-13.1763	-28.6910	-13.8146	1.2371	-7.0034
4432.0000	1.3592	2.3403	10.9096	3.6912	3.1288	0.8104	1.0166	0.0404	1.2391	2.3837	1.6195	-0.9574	6.9547	3.7484	3.6196	1.8778
4440.0000	-0.7320	0.3121	2.8475	2.1805	-1.6534	0.9056	-6.1905	0.5337	0.6334	2.1609	-0.9488	1.8299	-27.9434	6.5632	-2.6532	1.8024
4448.0000	0.1397	-0.4470	4.4263	-0.4098	-5.6070	-3.3403	3.3500	-3.6754	-1.1725	-1.1005	-0.0353	-1.7147	20.8015	-3.9052	7.5663	-0.6890
4456.0000	-1.5642	0.7848	7.0372	0.5028	1.4277	-1.9431	-1.7799	-3.0922	0.4403	-0.3856	-1.5518	2.6935	-0.4860	-3.9149	-3.6077	-2.7145
4464.0000	-6.4154	-2.6747	5.6744	-3.4602	-8.3661	-7.6770	-8.1124	-9.7882	-1.8880	-5.5543	-6.0866	-5.4971	-22.0337	-11.3462	-11.5536	-7.4493
4472.0000	0.2420	2.1997	18.1572	2.1005	-2.9913	-5.0414	10.2111	-7.5450	-0.3861	-0.1668	0.1001	-0.3123	64.6559	-7.4269	7.5717	-1.8767
4480.0000	1.5551	3.1143	14.6410	3.3996	3.7589	-1.3459	4.0853	-2.3938	1.2703	2.4080	1.2102	7.7060	27.7582	-2.5156	8.0861	-0.5484
4488.0000	-2.2977	-2.7803	3.1654	-4.0895	-11.3911	-8.5247	0.1073	-8.7060	-2.9188	-5.0733	-2.6131	-1.3818	11.1119	-13.9207	9.1028	-5.5624
4496.0000	-0.7472	-0.3585	7.2853	-0.0236	-6.0772	-4.1554	0.8319	-4.9167	-1.0412	-1.1007	-0.9306	-1.0221	11.9356	-4.2458	5.8846	-1.4624
4504.0000	-0.3808	0.8346	7.8052	3.1944	-0.7550	0.4266	-7.6456	0.0371	0.9065	2.2381	-0.2758	-0.5361	-34.7629	6.7056	0.3663	1.8588
4512.0000	1.2138	1.0970	9.8518	3.5972	-4.4268	-0.7523	-1.4454	-1.1299	0.2262	2.7853	0.9040	0.5031	-3.7294	5.8857	9.2770	3.1054
4520.0000	2.8708	2.5080	7.7207	5.0632	6.6636	3.8149	-7.8033	5.0249	2.3933	4.7142	3.0289	3.9737	-44.7711	10.2569	8.5042	4.0892
4528.0000	4.3670	1.8208	4.3284	2.2395	12.7254	3.3763	-7.0895	6.5027	2.0873	1.1364	5.5747	-2.6310	-51.0740	2.3977	15.4119	1.4689
4536.0000	5.7915	4.5664	11.7327	5.4733	13.3262	4.4112	3.9788	5.5715	2.8828	4.5057	6.3482	2.4651	9.6402	5.2132	15.3115	3.8947
4544.0000	3.6721	2.5934	3.0319	5.8211	3.1145	5.5997	-3.2540	6.5647	2.2171	7.0667	2.9937	8.5478	-23.0111	15.6619	7.9318	7.2041
4552.0000	2.7913	-2.0499	-3.5995	-1.0477	-11.0982	-2.4432	2.5339	-0.3680	-2.2327	-0.3473	2.2015	-1.8287	6.0659	0.7188	21.4512	2.9594
4560.0000	2.5132	0.3715	8.0109	0.5292	-2.5562	-2.8646	5.1506	-2.2732	-0.8713	-1.0213	2.8723	-5.7902	23.7357	-3.9929	17.0636	0.4064
4568.0000	2.8070	2.2901	7.8662	4.2209	3.1861	2.4151	0.0982	2.6815	1.4098	3.6575	2.8898	0.5992	-3.0336	7.4754	8.2776	3.9759
4576.0000	1.9824	0.6816	-0.1453	2.4165	-5.3579	1.5111	5.2297	1.3146	-0.1365	3.6071	1.0489	4.1729	25.1932	7.8637	6.0977	4.8585
4584.0000	-0.7578	-1.1949	-5.2492	0.8462	-10.3848	0.9049	1.4413	0.0603	-1.0251	2.1803	-1.6495	-0.0523	9.3958	9.2888	-3.9930	4.3509
4592.0000	1.4717	-0.7201	-3.6884	1.1147	-8.6374	1.0428	4.6150	1.1119	-1.0567	2.0362	0.8795	-2.6172	19.6770	8.2078	5.3278	5.1876
4600.0000	0.4075	-0.2931	-0.0999	-0.8898	-3.2525	-1.5670	6.1570	-1.8864	-0.9242	-0.8507	0.1960	-0.8888	31.9293	-3.1781	3.4801	-0.2475
4608.0000	-1.7955	-1.1206	-4.6504	-1.7886	-1.6308	-0.4903	-0.6626	-0.9003	-0.5435	-1.4062	-1.8369	-0.7313	-1.2248	-1.7552	-7.4676	-1.4356
4616.0000	2.1115	0.6479	-5.2434	1.5779	0.6261	3.9263	3.3065	4.4655	0.5512	3.0085	1.7127	2.2227	9.3762	8.2187	1.0912	4.4674
4624.0000	-0.0668	0.1232	-1.9202	0.3339	0.4287	1.3095	0.5833	1.0976	0.2201	0.6769	-0.1060	-0.1672	1.9745	2.5774	-3.5191	1.0027
4632.0000	-1.6811	-0.5956	-0.1674	-0.5004	-2.3748	-0.7968	-0.8872	-1.6451	-0.3802	-0.7804	-1.6262	-2.3727	-0.4690	-0.1705	-6.1950	-0.7046
4640.0000	0.6023	-0.0697	-4.3610	0.8636	-0.6955	2.4244	-1.2196	2.8396	0.3077	1.9071	0.2897	1.8789	-9.7415	6.2891	-1.1848	2.7240
4648.0000	-2.5422	-2.4001	-9.6989	-1.8982	-3.0950	0.9955	-9.0853	1.4988	-0.5097	-1.1201	-2.4311	-2.9550	-47.0860	3.8546	-10.3429	-0.0325
4656.0000	-3.0006	-1.1300	-3.4616	-0.5013	-1.6027	0.7418	-6.3124	-0.1374	-0.0020	-0.5919	-2.7495	-3.8963	-28.2616	3.5900	-14.1112	-0.3170
4664.0000	-3.3463	-2.3006	-7.9041	-2.7114	-3.7330	-0.7487	-5.6640	-1.0700	-0.8625	-2.1273	-3.3771	-1.6056	-25.1400	-0.8564	-12.1434	-2.0096
4672.0000	-5.5814	-5.4344	-13.0804	-7.1631	-12.0027	-5.4872	-6.1351	-5.5826	-3.3090	-6.7533	-5.6003	-6.3963	-24.1925	-9.4631	-11.2916	-5.6277
4680.0000	-2.9670	-1.4310	-1.9580	-2.3973	-2.5011	-2.3694	-2.1619	-3.2131	-0.8319	-2.6961	-2.8595	-1.8724	-4.6025	-5.1463	-8.7498	-3.3839
4688.0000	-2.1946	-0.7982	-1.5040	-1.7839	1.2625	-1.3279	-4.7240	-1.4819	-0.0486	-1.8548	-2.0834	1.6566	-19.7032	-4.6301	-6.5512	-3.4241
4696.0000	-3.2237	-1.8226	-0.3946	-2.8619	-4.1569	-4.0136	-3.6816	-4.6623	-1.2020	-3.3859	-3.1928	-1.0379	-10.2944	-7.5853	-5.4299	-4.4705
4704.0000	-4.9890	-3.4438	-2.9106	-6.1981	-6.3640	-7.2321	-3.1501	-7.9641	-2.4723	-7.0723	-4.7657	-3.5594	-4.5595	-16.2386	-7.3288	-8.4208
4712.0000	-7.3708	-8.2125	-15.6687	-12.3518	-20.4795	-12.2572	-1.6174	-12.3622	-6.1587	-12.2291	-7.6040	-8.4275	4.4655	-24.0095	-5.8525	-11.0362
4720.0000	-3.5098	-2.8110	-4.7780	-3.1162	-13.2978	-4.2227	3.7578	-5.9552	-2.6344	-2.7570	-4.1358	-3.4157	28.8513	-3.6276	-7.6771	-1.5677
4728.0000	-1.7122	2.0471	5.0121	2.3813	5.6429	2.3315	0.4684	0.0890	1.6747	1.8204	-1.4965	0.6703	8.7933	3.6458	-15.7895	0.0335
4736.0000	-5.6084	-2.2979	-3.8694	-4.0331	-4.8051	-3.8126	-1.7696	-5.9235	-1.4186	-4.3154	-5.5901	-2.4113	3.8858	-8.3312	-18.9847	-5.6909
4744.0000	-4.6128	-2.4637	-8.7876	-3.8207	-5.1261	-1.6781	-0.2293	-3.2940	-1.3991	-3.2627	-4.7172	-2.9024	6.3843	-4.0103	-18.9081	-3.2958
4752.0000	-1.3073	-0.5971	-7.9442	-3.2476	8.3187	1.8222	2.1676	1.7952	0.2178	-3.6329	-0.1165	-8.4685	5.0151	-5.4342	-13.8057	-3.0855
4760.0000	-1.0384	0.2325	-0.6064	-1.3170	4.2386	0.2354	4.4624	-0.7514	0.0758	-2.1482	-0.3050	-6.2968	22.6163	-4.2198	-9.2354	-2.0476
4768.0000	-1.5066	0.3270	0.5855	-0.0579	0.6469	-0.0135	1.4091	-1.2681	0.2118	-0.0885	-1.5754	0.8835	12.0022	-0.7986	-8.6293	-1.0473
4776.0000	-2.9285	-1.7416	-2.3188	-4.3101	-0.4765	-3.9973	-0.1653	-4.4612	-1.2266	-4.9513	-2.5520	-2.5649	4.8079	-12.2672	-6.3625	-6.1608
4784.0000	-5.4015	-4.2200	-4.5950	-6.2064	-10.2467	-7.2822	-4.1336	-8.0934	-2.9966	-6.9842	-5.2494	-6.1290	-9.5043	-13.4044	-8.0799	-7.1643
4792.0000	-5.5698	-5.9332	-11.3610	-8.1710	-11.2186	-6.8382	-6.8125	-6.5467	-3.7308	-8.9460	-4.8823	-13.1242	-29.4463	-13.1566	-8.5225	-7.0353
4800.0000	-3.1462	-1.8128	-1.2738	-4.0392	2.7670	-2.8725	-3.6826	-3.1378	-0.8353	-5.9703	-1.7472	-11.8492	-16.7867	-10.4280	-9.6006	-5.8877
4808.0000	-0.0815	3.0947	6.8449	3.5952	13.3215	4.3080	-5.7317	3.6294	3.1315	2.8180	0.5700	3.0209	-28.5182	4.9319	-10.5141	0.1103
4816.0000	2.9112	2.6795	-0.8572	2.7531	14.5716	6.3492	-2.9750	7.7956	2.9167	3.3051	3.4170	4.3782	-26.3888	6.3188	-0.4914	2.2900
4824.0000	1.0345	0.1253	-1.8170	-1.5942	6.5393	0.3879	1.2799	1.4463	0.2599	-2.0419	1.7612	-3.0421	0.0295	-5.4610	2.4042	-2.0167
4832.0000	-3.9167	-4.4655	-6.2483	-8.0686	-6.2358	-7.7117	-0.9545	-7.3412	-3.3225	-9.4507	-3.0453	-11.3111	-0.6481	-19.3674	-1.9138	-8.7235
4840.0000	-2.6792	-4.0822	-7.4842	-7.1093	-6.5836	-6.0339	2.2596	-5.6033	-3.2310	-8.2113	-1.8356	-13.0853	11.7551	-15.2775	-0.5468	-6.1647
4848.0000	-0.2329	-0.7981	-3.4424	-0.5990	-5.4342	-0.4336	3.7624	-0.8404	-0.9339	0.1098	-0.7009	-0.0912	19.9286	1.2471	-0.5835	1.1838
4856.0000	-2.4177	-2.0342	-2.0512	-3.2572	-7.7953	-4.6537	1.9497	-5.3880	-1.9474	-3.1403	-2.8721	0.5868	17.8862	-8.2203	-1.3883	-3.5779
4864.0000	-2.8193	-0.8998	4.1648	-2.9671	-1.4230	-4.9937	2.1589	-6.3498	-1.1660	-4.5235	-2.3715	-4.2704	20.2521	-12.3361	-4.8072	-5.8806
4872.0000	-0.3836	0.0244	-2.1841	0.5421	-1.9660	0.9279	0.5228	0.4732	0.0707	1.4207	-0.8961	3.5459	4.3372	3.3764	-3.5708	1.2758
4880.0000	1.1187	-0.0194	-2.6910	1.3220	-2.7239	1.8156	-0.3305	2.2735	0.0660	2.3005	0.6447	2.1736	-4.8010	6.7424	2.8583	3.3910
4888.0000	1.9969	2.8469	10.0336	5.1328	5.0374	3.1662	-1.5815	2.7400	2.0152	4.1526	2.2812	-0.3433	-9.2791	9.2661	2.5876	3.9783
4896.0000	3.4612	2.4475	5.4750	4.7711	2.3564	3.2806	-0.8470	4.0488	1.6685	5.5124	2.8184	8.3636	-8.1733	9.9181	10.8898	5.0868
4904.0000	2.7403	-0.0798	0.7458	1.3754	-6.7960	-0.9884	0.5621	0.4269	-0.6089	2.7429	1.5218	9.2765	1.1886	3.1755	18.2255	3.0362
4912.0000	-0.9659	-2.7418	-3.2258	-1.8787	-13.5909	-4.1467	-2.0328	-3.6741	-2.3575	-1.1323	-1.8733	1.4508	-5.8782	-1.1543	8.3384	0.1227
4920.0000	-3.6767	-4.4939	-5.4478	-5.7021	-13.9288	-7.3775	-2.8730	-7.3045	-3.4991	-5.9306	-3.9248	-4.7515	-6.5022	-11.0276	1.5293	-4.9644
4928.0000	-5.4596	-3.4536	4.8079	-4.7487	-12.2290	-9.6567	-3.9583	-11.2435	-3.0520	-6.8080	-5.2802	-6.8417	-2.6284	-14.9977	-3.2298	-7.6878
4936.0000	-2.8648	-1.1384	4.4389	-0.5819	-7.3327	-3.7944	-2.6757	-5.2331	-1.1039	-1.5332	-2.9941	-2.5143	-2.7568	-2.4784	-4.0436	-1.9302
4944.0000	2.8648	1.5694	2.4459	1.8954	5.3508	2.2709	1.6593	3.2575	1.0533	1.8085	3.0875	0.7397	1.3228	2.6936	7.9298	2.1007
4952.0000	1.0973	-0.6084	2.2481	-1.7535	0.8246	-2.4948	1.5191	-1.4401	-0.8280	-3.0811	1.8481	-6.8259	3.6740	-7.3203	9.9254	-2.1180
4960.0000	0.4162	0.3483	3.7111	0.2100	1.0268	-0.5010	2.8124	-0.8363	-0.1311	-1.0652	1.0624	-7.1987	13.0544	-1.4179	1.2570	-0.0708
4968.0000	4.6435	5.5289	9.2941	8.0514	13.1211	8.1673	2.4327	7.9517	4.0779	8.4970	4.4693	8.7546	5.5062	15.6255	2.1990	7.1553
4976.0000	2.1646	0.2577	-4.2815	1.1768	-1.5611	2.0674	0.3936	3.2487	0.2582	3.0506	1.2439	8.5028	-2.7714	5.6226	7.5459	3.2825
4984.0000	1.9027	0.0550	-3.1911	-1.3600	3.4052	0.5662	5.6605	1.5356	-0.2309	-1.3187	2.2909	-2.9779	20.9120	-3.7088	5.3398	-0.2630
4992.0000	5.4098	6.5908	10.5447	7.1235	21.9663	8.8662	6.6900	8.7464	4.7708	6.5965	6.1577	4.4904	22.7441	9.5775	0.4327	4.8002
5000.0000	3.2812	3.4397	2.2753	5.0766	7.7882	6.2683	2.6449	6.3089	2.6217	6.3343	2.7770	8.8770	7.6341	11.8571	0.6942	5.5494
5008.0000	2.0594	3.0711	3.7437	3.5988	9.3536	4.6093	2.5586	4.2652	2.3367	3.8637	2.1051	4.6821	9.3797	6.2344	-2.6319	2.6793
5016.0000	1.4477	2.4281	-2.5910	1.3375	12.7485	5.0554	2.0353	5.2817	2.3537	2.3568	1.5548	6.9607	4.4294	2.1606	-6.9719	0.4264
5024.0000	0.9987	-1.4561	-10.5543	-3.3079	0.8229	0.4494	3.5846	1.9789	-0.9017	-2.1776	1.0716	-1.0379	9.4358	-4.2695	2.8246	-0.8502
5032.0000	2.8553	2.1852	7.7205	2.0844	6.6478	1.2273	5.7484	1.3618	0.9518	0.5451	3.6924	-5.8357	23.3392	-0.2694	7.4690	1.2557
5040.0000	2.5848	2.6799	5.4114	4.5364	3.8097	3.8682	2.5385	3.5623	1.7187	4.7212	2.3688	3.1864	9.8012	9.6080	2.8902	4.7868
5048.0000	5.0178	1.2660	0.9052	4.7280	-3.0739	4.2617	1.6185	5.8578	0.5968	5.5908	4.5556	0.0124	-3.5459	15.4089	16.8085	8.9510
5056.0000	6.1067	2.1630	4.7713	6.0952	-1.6395	4.6258	2.2371	6.3099	1.0436	6.5400	5.7376	-0.0608	-1.3469	16.6467	20.9186	9.8702
5064.0000	2.4754	0.1163	-9.4662	2.1939	-2.7590	5.1157	0.0332	6.3359	0.5216	5.0213	1.3651	7.7316	-8.4760	13.6884	3.0983	6.7415
5072.0000	5.1085	0.5503	-10.4114	1.8047	3.3424	6.6876	2.8482	9.3876	0.8142	3.8614	4.9721	0.2849	-5.5792	12.2253	10.4161	7.3564
5080.0000	6.8295	1.1954	-8.4900	2.7005	4.3988	7.1289	4.6195	10.3929	1.0216	4.6512	6.7198	0.4320	0.0434	13.0247	17.3197	8.5559
5088.0000	3.0047	2.1161	-7.6685	2.4300	10.9618	7.6295	-0.5095	9.0821	2.5332	4.7182	2.7061	9.3040	-14.8495	9.9102	-2.5814	4.1929
5096.0000	1.8917	3.1647	0.8349	2.2520	17.5649	5.7930	-2.0671	6.5131	3.2567	2.4884	2.5242	5.6730	-18.1987	2.4504	-5.7192	0.0152
5104.0000	0.6596	0.0814	-4.5974	-0.2969	2.9797	1.5852	-2.3248	2.6130	0.5813	0.9752	0.2933	6.8805	-15.0938	0.7043	0.8645	0.0241
5112.0000	0.3222	-0.0973	-2.3054	0.2587	-2.6762	-0.0723	-1.2012	0.3624	-0.0137	1.8121	-0.6981	10.2627	-4.1588	1.3373	3.5946	0.5939
5120.0000	1.8527	-0.5814	0.1806	-0.0981	-8.2766	-2.4501	4.8023	-1.7743	-1.3633	0.8812	0.7982	5.7361	24.7718	-0.9996	15.0602	1.5106
5128.0000	2.8324	0.1483	0.7271	1.5945	-7.1808	-0.3333	5.3406	0.3239	-0.7918	2.5851	1.8758	4.1021	24.4419	4.4137	14.9298	4.1023
5136.0000	5.7809	6.4810	15.1788	7.8370	19.0782	7.0252	3.6540	7.2973	4.5041	6.8243	6.3835	5.5580	9.5701	9.2133	8.3229	4.8035
5144.0000	6.8179	5.2322	4.7436	5.8177	17.7785	8.0447	4.5173	9.8786	3.9097	6.7790	6.8407	10.7088	7.4022	9.0326	12.1120	5.3972
5152.0000	5.8079	2.1583	-2.8504	3.6693	2.3723	5.0612	5.6575	7.0578	1.2522	6.0871	4.7171	11.3848	16.0738	10.4437	16.7853	6.9682
5160.0000	6.0387	4.4936	11.2059	5.6646	8.1573	3.5031	8.5140	4.1526	2.2361	5.6145	5.7449	7.4345	35.8183	5.7322	17.9797	4.9171
5168.0000	4.9034	3.1110	4.1400	3.4070	7.9448	3.4861	5.7155	4.7238	1.8074	4.1458	4.5660	8.3958	20.3260	3.6850	13.7594	3.3842
5176.0000	2.1890	-0.0490	-2.7879	0.4300	-0.3499	1.3841	1.1837	2.6407	-0.0741	1.0233	2.0929	-0.0835	-1.2090	3.1181	8.0666	2.4707
5184.0000	-0.9793	-2.0727	-6.0049	-2.8751	-5.2714	-1.8752	1.6180	-1.6455	-1.6092	-2.6575	-0.9479	-4.5244	7.4348	-3.5797	-0.4721	-1.1272
5192.0000	0.5856	0.2628	-8.9039	-1.4263	6.1850	2.8153	2.3010	3.5561	0.7159	0.3583	0.3058	6.8966	6.1691	-1.2409	-4.8897	-0.6704
5200.0000	3.8313	3.3834	2.9823	1.8045	18.0107	4.5311	2.2129	6.0459	2.8148	1.5855	4.6337	4.1045	-0.2500	-1.6552	4.9799	-0.3057
5208.0000	0.1963	-0.2217	2.9245	-1.4570	5.0963	-1.6601	-3.8637	-0.5541	0.0984	-2.8950	1.1458	-4.5741	-22.2897	-7.1810	4.9250	-3.3803
5216.0000	-0.4850	-0.2123	0.2937	1.0066	-0.2589	0.9193	-6.5866	1.2246	0.4298	0.9055	-0.3814	-0.5785	-33.4571	4.5407	-1.5329	1.0613
5224.0000	1.3786	0.7660	-1.0229	3.1054	-1.5589	3.5759	-1.2116	3.6776	0.7659	3.9816	0.9674	1.5171	-9.7020	11.7605	0.3751	5.3158
5232.0000	-1.2408	-2.2438	-8.0003	-1.2304	-9.0237	-0.2644	-2.3124	-0.1017	-1.3660	0.0099	-1.8392	-0.6025	-11.3530	4.4583	-2.4523	1.8417
5240.0000	1.8245	2.2741	3.6215	4.8522	3.0100	4.7664	-1.3878	4.4625	1.8811	5.2403	1.6099	2.6741	-9.9084	13.1153	-1.0323	5.5753
5248.0000	3.2358	3.7805	3.2679	7.5360	4.6992	8.0683	0.0467	7.6176	3.0335	9.1130	2.4053	9.2770	-4.3775	20.8005	-1.6297	9.0881
5256.0000	-2.0328	-1.9313	-10.0513	-1.5933	-5.2487	0.7887	-3.7488	0.7797	-0.7046	0.1056	-2.6603	2.8561	-17.7861	3.6795	-8.8739	0.6169
5264.0000	-1.6977	-0.9769	-3.0428	-1.7561	0.2207	-0.3208	-0.3119	-0.8035	-0.4556	-2.2752	-1.1412	-6.4408	-1.2425	-2.2220	-8.2552	-1.5782
5272.0000	-3.2523	-1.7452	-6.0136	-1.1983	-7.5737	-0.4344	-1.1776	-1.9096	-1.0156	-0.3619	-3.7555	-0.8584	0.7577	3.1034	-13.5541	0.2458
5280.0000	-6.0367	-4.4942	-8.8671	-5.7152	-13.3540	-5.8403	-4.0269	-7.1435	-3.0172	-5.2450	-6.5236	-2.3953	-7.5322	-8.2611	-13.5444	-5.2391
5288.0000	-1.9194	-0.1342	4.3476	-2.0686	3.5915	-2.9083	0.4047	-3.7325	-0.2332	-3.8205	-1.0568	-5.4526	6.8981	-10.0557	-5.1048	-5.0946
5296.0000	-1.7992	0.0343	-0.8299	-0.2595	0.8089	0.1525	-1.5850	-0.7408	0.3249	0.0291	-1.9677	2.8495	-3.2040	-0.3629	-9.0410	-1.3073
5304.0000	-3.5274	-3.8216	-7.5181	-3.1488	-16.4465	-4.1517	-1.9260	-4.9304	-2.9106	-2.2414	-4.3968	-2.0485	-1.4101	-0.4509	-4.4202	-0.4983
5312.0000	-2.6153	-3.3837	-1.6361	-2.9248	-15.0784	-5.5627	-0.1265	-6.2308	-3.0603	-3.5743	-2.8054	-8.3933	6.4313	-3.7397	1.7623	-1.2016
5320.0000	-2.8096	-2.3737	-3.9723	-3.4306	-6.0615	-3.7783	-2.6861	-3.9930	-1.6101	-3.2745	-3.0336	-0.0584	-7.3849	-6.8541	-3.5935	-3.7213
5328.0000	-0.2025	-0.5188	-1.8280	-0.5885	-2.4630	-0.8340	-0.7950	-0.5685	-0.3680	0.1482	-0.7087	4.5820	-2.4273	-0.9146	2.0019	-0.3996
5336.0000	-0.2328	0.3137	7.0905	2.2399	-5.8849	-1.6774	-2.7029	-2.3124	-0.1502	1.8883	-0.7863	2.8676	-6.8671	3.5435	4.8865	1.4592
5344.0000	-2.5199	-0.7474	6.0781	1.4823	-10.2705	-3.1446	-6.2137	-4.5113	-0.7048	1.2986	-3.3740	3.9482	-18.2866	3.3473	-1.1435	0.3384
5352.0000	-0.9494	-0.5062	3.5699	2.5136	-10.4423	-1.1351	-5.6339	-1.7944	-0.4543	3.0790	-2.0244	5.1676	-20.4232	8.3338	2.5950	3.1315
5360.0000	-1.4386	-1.8526	6.8462	-1.4199	-8.4201	-6.3609	-6.8046	-5.9321	-1.6725	-2.8351	-1.4757	-1.6626	-26.4496	-7.0912	11.1346	-3.2821
5368.0000	0.4442	0.3072	8.6991	-0.0680	1.4126	-3.2997	-2.8905	-2.7416	-0.0818	-1.7226	0.9120	-1.3506	-12.2700	-6.7899	10.1317	-2.8264
5376.0000	2.6729	3.8595	5.7929	7.9657	4.4117	7.5144	-2.2242	6.8118	3.1562	9.1257	1.9093	9.0357	-13.3899	20.9120	-2.3750	8.6838
5384.0000	-2.1026	-0.8888	2.3181	1.6860	-8.2246	-0.7544	-7.3979	-1.6713	-0.3620	1.6188	-2.5601	-0.1974	-29.9016	7.4683	-4.1791	2.0234
5392.0000	-3.5055	-3.2289	3.1176	-3.8115	-10.4252	-7.3973	-4.1968	-7.9092	-2.7135	-5.8720	-2.9713	-10.6594	-11.9903	-10.3845	1.6115	-4.9686
5400.0000	-2.7070	-0.0454	6.8615	-0.3885	-1.4869	-3.2395	-1.6806	-4.8811	-0.2651	-1.7686	-2.5077	-1.6083	2.2468	-5.2460	-6.3035	-3.4291
5408.0000	-2.9872	1.2829	11.4680	-0.9335	8.0645	-3.7699	-3.0324	-5.3734	0.9270	-3.1998	-2.2233	1.1954	-3.0296	-13.0869	-8.2568	-7.7172
5416.0000	-1.8118	1.4226	10.4062	-0.8967	10.3247	-2.7472	-2.6283	-3.6117	1.1137	-3.2752	-0.7284	-1.1749	-6.1462	-12.4647	-5.1272	-6.9860
5424.0000	-3.9430	-1.2761	3.3070	-2.6396	-2.4482	-4.7050	-3.3128	-6.0867	-0.9263	-3.8614	-3.6983	-1.7693	-4.9595	-9.7695	-8.4318	-5.8265
5432.0000	-3.1836	-1.7517	5.1686	-2.8538	-6.2571	-6.4107	-1.4119	-7.5056	-1.7735	-4.5270	-2.9306	-4.6683	4.1054	-11.0651	-0.9144	-5.4040
5440.0000	-0.5916	0.0803	8.9072	-0.1137	-2.0744	-3.8391	0.6201	-4.5092	-0.6195	-1.9224	-0.2219	-4.1078	9.1560	-6.0666	4.9605	-2.4103
5448.0000	0.8621	1.7236	8.0224	0.9335	6.8322	-0.5225	1.2732	-0.6771	0.9718	-0.4510	1.4562	-0.6645	7.0243	-4.6004	3.1212	-1.9382
5456.0000	6.2566	6.9564	12.5357	7.9657	24.6082	9.3320	1.6372	10.2183	5.4183	7.2590	7.1444	6.3222	-5.1306	10.5953	5.5358	4.9326
5464.0000	2.5053	2.6911	4.3545	4.9334	6.1297	5.0103	-2.9134	5.3542	2.3520	5.3488	2.3569	5.1204	-19.3450	11.7405	2.0541	4.9118
5472.0000	-4.6503	-5.8721	-8.7537	-6.8537	-18.6663	-8.3262	-4.0198	-8.2555	-4.4291	-6.8842	-4.9965	-7.1946	-11.4875	-10.7055	0.1675	-4.8985
5480.0000	-1.0244	-2.2776	-2.9901	-3.5727	-4.0275	-3.5245	-0.2482	-2.8906	-1.7824	-4.3507	-0.5194	-7.5141	-1.9709	-7.8377	3.2124	-3.0235
5488.0000	0.0539	-0.4190	-1.9659	0.4203	-3.2404	0.4685	-0.8596	0.5631	-0.2442	0.9975	-0.2892	1.0113	-4.5940	3.6161	0.5245	1.6603
5496.0000	-1.2783	-2.1738	-6.0135	-1.1680	-10.2697	-1.3818	-2.0605	-1.3312	-1.5290	0.0280	-2.0893	1.4856	-7.6746	2.9493	-0.0073	1.2937
5504.0000	-2.7511	-2.6742	-5.1841	-3.3034	-5.9971	-2.8286	-3.5605	-2.9116	-1.6444	-3.5156	-2.5623	-5.4270	-14.8136	-4.3001	-5.1920	-2.6186
5512.0000	-6.0272	-4.6749	-7.2319	-6.1984	-11.7334	-6.4317	-5.1652	-7.4600	-3.0965	-6.7004	-5.8971	-7.6644	-14.9574	-10.4118	-12.3676	-6.1909
5520.0000	-2.6255	-2.0819	-2.0581	-3.0066	-5.4201	-3.5823	-1.1799	-4.1131	-1.5672	-3.5262	-2.4833	-4.4007	-0.5252	-6.3552	-4.1855	-3.2814
5528.0000	-1.6543	-2.5156	-3.3628	-4.8363	-3.5558	-4.6042	2.0387	-4.3151	-2.1280	-5.8496	-1.0126	-8.6236	11.0536	-12.0992	1.1030	-4.8436
5536.0000	-4.1205	-4.5990	-8.6347	-7.1105	-10.2559	-6.5408	0.2375	-6.7353	-3.4757	-7.6248	-3.7918	-9.6516	6.5072	-13.6782	-4.9910	-6.1651
5544.0000	-2.4208	-0.9092	0.9591	-2.3922	0.9942	-2.4026	-0.5186	-3.2349	-0.6085	-3.7943	-1.6195	-7.3213	1.4165	-7.4096	-7.7600	-4.0709
5552.0000	-2.8216	-1.3928	1.8603	-3.5867	-0.2835	-4.2005	1.6449	-5.2492	-1.2893	-5.5813	-1.7990	-10.5609	13.6208	-11.6740	-6.7871	-5.5855
5560.0000	-0.4976	-0.5269	-0.7197	-0.6927	-4.2555	-1.2053	4.4907	-1.9526	-0.8939	-0.6569	-0.6977	-1.9367	25.1012	-1.1302	-1.0816	0.0931
5568.0000	2.6159	1.5905	1.0390	2.3296	1.1680	2.4645	6.3041	2.4940	0.6369	3.0011	2.2300	2.8514	27.6206	5.2347	5.2063	3.6650
5576.0000	0.5365	-0.8086	-2.8600	-1.7026	-1.3243	-0.7752	4.7220	-0.4784	-0.9547	-1.9635	0.8713	-5.8329	20.0761	-3.1891	2.5119	-0.3225
5584.0000	1.9678	3.4754	8.7021	3.6071	13.2311	3.7674	0.4121	3.5186	2.6924	2.3632	2.8231	-0.4161	-1.6990	2.9007	-1.6306	0.8990
5592.0000	3.6766	6.2280	18.0474	7.6511	18.5144	5.5376	-0.9758	5.0581	4.5840	6.0894	4.3290	6.2791	-7.1407	7.4110	2.7378	2.6903
5600.0000	2.1226	1.5576	7.7815	3.7752	-1.7979	0.8673	0.8551	0.7375	0.5978	3.3226	1.8809	0.6147	4.1050	7.0440	8.9089	3.9713
5608.0000	0.3268	0.2168	5.3284	0.3079	-0.6491	-1.7562	0.3321	-1.8148	-0.2328	-0.7487	0.5947	-2.7347	3.1819	-2.5122	5.2085	-0.7116
5616.0000	-2.8705	-1.2019	4.8038	-4.8525	4.7641	-6.3022	-3.1871	-6.2871	-0.8470	-7.1778	-1.7306	-4.5753	-9.3095	-20.0752	-1.2238	-9.9054
5624.0000	-2.9688	-2.7835	-1.3066	-5.6387	-0.8338	-5.9450	-4.4735	-5.3622	-1.8009	-7.2579	-2.0184	-7.4445	-18.9476	-16.1835	-0.5138	-7.8998
5632.0000	-1.1258	-1.7166	-4.2339	-3.1596	-0.1362	-1.7489	-1.4072	-1.1482	-0.9874	-3.6906	-0.5043	-6.1981	-9.1169	-6.2765	-1.4755	-2.9265
5640.0000	-1.9588	-1.8376	-7.5748	-2.3608	-3.7965	-0.4578	-1.0907	-0.6385	-0.9701	-1.6297	-2.0931	-1.5573	-4.4777	-0.8054	-7.6093	-0.9373
5648.0000	-3.9806	-2.8375	-10.6616	-3.0573	-6.7398	-0.6816	-4.6358	-1.3925	-1.2819	-1.9258	-4.3154	-1.1248	-18.6252	0.6077	-15.2430	-1.3931
5656.0000	-6.4919	-4.3170	-12.5754	-5.6889	-9.6472	-3.3557	-4.9257	-4.7999	-2.3562	-4.9627	-6.6654	-4.2218	-14.8707	-5.4462	-21.7590	-4.6914
5664.0000	-4.6333	-1.9603	-4.2278	-1.7683	-7.1095	-1.3767	-2.0005	-3.5503	-1.1310	-1.8007	-4.7110	-4.9338	-0.4183	0.8229	-18.7084	-1.3590
5672.0000	0.7221	3.8948	8.6857	4.8864	11.5361	5.1992	2.2073	3.3750	2.9571	3.8188	1.3936	-1.4180	11.2678	8.1007	-11.7731	2.6258
5680.0000	0.6110	2.7617	1.5419	3.4290	7.4637	5.0397	3.2713	3.7027	2.1945	4.0420	0.4761	4.4248	16.1882	8.0470	-10.9626	2.9117
5688.0000	-1.7649	-2.0469	-9.9319	-1.5405	-8.1500	0.5450	1.2195	-0.0511	-1.3108	-0.0775	-2.3551	-1.3720	7.0900	4.4826	-8.7409	1.8175
5696.0000	-1.9299	-1.9156	-7.4232	-2.6501	-3.4716	-0.3555	1.3895	-0.8247	-1.2034	-2.5607	-1.6083	-7.4657	6.4316	-1.1975	-9.1760	-0.7657
5704.0000	-2.9892	-1.2010	-5.3375	0.1230	-7.4390	0.9001	-1.0914	-0.8808	-0.5885	1.0944	-3.5797	-0.5996	0.9790	7.1468	-15.2012	1.9435
5712.0000	-0.7124	-0.2449	-3.8190	0.4637	-0.7771	2.1803	-0.1759	1.6281	0.1455	0.8235	-0.6359	-3.1995	-2.1641	5.6344	-8.2472	2.0186
5720.0000	2.4102	1.0240	-4.6380	-1.2029	11.6567	3.1554	4.8596	4.5139	1.0070	-1.2253	3.3498	-3.3775	12.1014	-3.6664	0.8082	-0.7749
5728.0000	-2.7151	-4.0007	-14.8080	-4.1084	-13.5660	-1.9652	-0.6276	-1.8864	-2.6625	-1.9403	-3.7255	0.7412	-0.7876	0.2944	-5.7848	0.0342
5736.0000	-4.5393	-5.5557	-13.8272	-6.3819	-14.7746	-4.5232	-2.9623	-4.6361	-3.7094	-6.1178	-4.4263	-11.9262	-11.8928	-5.0932	-8.9978	-2.7510
5744.0000	1.4718	1.6846	-1.6435	0.3532	14.0062	4.6953	2.0916	5.1727	1.8175	-0.5734	2.9524	-8.2731	-0.6080	0.6370	-7.1285	0.1111
5752.0000	1.0673	2.2200	0.2049	3.5534	6.0193	5.1041	-1.0303	4.7429	2.1206	4.5375	0.7692	6.1446	-7.5572	9.9640	-6.2799	3.6580
5760.0000	-2.0574	-1.2586	1.5334	-1.7706	-3.7072	-3.5093	-3.3963	-3.8142	-0.9217	-2.3246	-2.0833	-0.2046	-10.6126	-5.7676	-0.7166	-3.2285
5768.0000	-2.0475	-0.6604	2.9536	-1.9251	1.4185	-2.8464	-2.8079	-3.2678	-0.3695	-3.2929	-1.4052	-4.0821	-9.4735	-7.8101	-3.8177	-4.3543
5776.0000	-2.5091	-1.6830	-4.2144	-1.8660	-3.3716	-1.1503	-4.4436	-1.4561	-0.7262	-1.7099	-2.5027	-1.6627	-18.8983	-1.1470	-7.6847	-1.6711
5784.0000	-0.6876	-1.4452	-4.9646	-1.5829	-1.8893	-0.3459	-3.7788	0.4214	-0.5851	-1.2289	-0.6246	-1.4063	-21.0427	-0.4365	-0.5245	-0.5595
5792.0000	1.6302	0.1107	-2.2872	0.8395	1.9227	2.3759	-1.3441	3.4422	0.3977	0.9259	1.9723	-3.3969	-14.5633	4.8492	3.4136	2.5471
5800.0000	2.6795	-0.1443	-3.1108	-0.0858	1.9075	1.7606	2.1434	3.3542	-0.1233	-0.2178	3.2382	-6.3131	-0.5016	2.0412	8.5673	2.3268
5808.0000	2.3837	-0.0595	-3.4664	0.0495	0.2535	1.2404	1.6648	2.7088	-0.0927	0.8281	2.2242	1.2746	0.7294	1.7819	9.1365	1.9995
5816.0000	-1.5285	-2.1275	-7.4334	-3.0561	-4.6351	-1.8139	-1.5443	-1.3665	-1.2911	-2.0910	-1.9060	1.7189	-6.5680	-3.9201	-1.8267	-1.9842
5824.0000	-3.5092	-3.0100	-7.0030	-5.9085	-3.2872	-4.7178	-1.3277	-4.7233	-1.9658	-5.9612	-3.3209	-2.1736	-1.6357	-13.5195	-6.4134	-6.7489
5832.0000	-1.5663	-0.3560	-1.9147	-1.0594	-1.2748	-1.0815	-0.4138	-1.6550	-0.1715	-0.2274	-2.1595	6.6461	3.6329	-2.9077	-4.9362	-1.9952
5840.0000	0.6745	0.0189	-0.4497	-0.6026	-0.2594	-0.7460	2.7260	-0.4579	-0.2808	-0.2802	0.4443	2.4926	13.2789	-2.7721	4.1225	-0.5719
5848.0000	1.3210	-1.1785	-2.0081	-1.8587	-3.7255	-2.1663	3.3052	-1.0424	-1.3647	-1.8978	1.3328	-2.7612	12.7094	-4.5215	10.9842	-0.4277
5856.0000	0.0839	-0.8197	-6.0835	1.1701	-9.6163	1.3054	1.1700	1.0173	-0.7078	3.3731	-1.3034	6.6021	7.3880	9.4562	-0.1727	4.5878
5864.0000	0.5176	0.7162	-1.2892	0.3957	1.5170	1.2734	4.2265	0.8829	0.3321	0.9949	0.2718	2.5631	20.7120	0.9084	-2.1952	0.7513
5872.0000	1.0680	1.1235	3.4355	0.0112	5.6824	-0.1063	2.5971	0.1185	0.5939	-0.6200	1.4556	0.2163	11.3983	-4.4761	3.1856	-1.5630
5880.0000	1.3594	1.0298	-2.0966	3.6562	-3.4802	3.5983	-1.6082	3.6402	0.9514	5.9250	-0.0429	11.8096	-8.1530	12.9913	1.3814	5.6789
5888.0000	2.8266	0.9108	-0.2613	2.1026	-0.2532	1.9687	0.8758	3.1039	0.5299	3.2363	2.1853	6.3457	-0.7724	5.7212	10.4269	3.5933
5896.0000	-0.1845	-1.5956	-0.5450	-3.4506	-0.1289	-3.5421	0.0864	-2.5022	-1.3315	-4.7056	0.6271	-7.5240	-2.0942	-10.3687	6.4863	-3.9390
5904.0000	-2.5746	-0.8720	-4.2775	-0.4393	-1.4185	1.0858	-4.0809	0.1688	0.0405	-0.1105	-2.5447	-1.7655	-17.3757	3.5875	-13.5644	0.0048
5912.0000	0.7790	0.7892	-3.7048	2.9116	-1.0521	4.1763	-2.3674	4.1888	1.0649	4.7657	-0.1078	7.5792	-13.7229	12.1597	-3.2683	4.9049
5920.0000	1.5099	-3.2518	-12.4087	-4.6219	-8.6147	-2.7749	3.2112	-0.2521	-2.6522	-2.8277	0.8387	1.4988	8.4237	-6.1341	15.1383	-0.5489
5928.0000	-0.5421	-2.7488	-9.3669	-5.7076	-2.5780	-3.4773	3.2358	-2.1389	-2.1170	-5.2657	-0.3768	-2.7750	12.6923	-12.3115	4.2103	-4.4601
5936.0000	-1.2020	0.4194	0.9115	0.1195	1.6411	0.0888	-0.6705	-0.7068	0.4491	0.1771	-1.3004	2.6690	0.7521	-0.7733	-6.4702	-1.1825
5944.0000	-1.1541	-1.9217	-7.1556	-2.1592	-7.3119	-1.3608	1.3471	-1.3926	-1.4707	-0.9604	-1.7982	1.4307	8.5030	-0.7943	-1.5938	-0.1024
5952.0000	0.1347	-0.5233	-4.1907	-1.9934	1.1022	-0.3122	4.0104	-0.0524	-0.5076	-1.7128	0.2657	-1.2534	17.6071	-4.4061	-0.5687	-1.3797
5960.0000	2.5777	3.7500	7.2718	4.4201	10.2833	4.2563	2.7698	3.8756	2.6427	4.4247	2.5660	6.4835	11.5671	5.7110	0.4758	2.5913
5968.0000	3.7425	4.0078	8.1214	6.3739	7.5199	5.3477	0.7569	5.4134	2.8477	6.8707	3.3130	8.8250	-0.1031	12.1349	5.7977	5.7197
5976.0000	2.0648	3.1304	10.5312	3.4990	10.9716	2.0909	-2.2511	2.3420	2.3870	2.3023	2.6232	2.8729	-13.1866	1.2372	4.3762	0.1955
5984.0000	1.3836	1.3586	3.1265	1.1631	5.9813	1.0146	-1.9109	1.7687	1.1834	1.1627	1.4293	5.0311	-11.7970	-0.6000	4.6011	-0.3809
5992.0000	2.3044	0.0367	-4.4819	2.1215	-4.1165	2.9418	-0.1576	3.9797	0.1109	3.8241	1.4855	4.3963	-6.9468	10.5418	7.0096	5.5729
6000.0000	1.8784	2.5506	7.2521	4.1763	6.6355	3.5588	-1.2688	3.3823	1.9795	3.3325	2.3451	-1.3772	-9.7488	7.8784	0.6663	3.3054
6008.0000	4.8790	6.6453	14.9966	8.2368	20.5173	7.7131	-0.0501	7.7877	5.0640	7.4511	5.3945	8.2909	-7.0810	10.6617	3.5875	4.4337
6016.0000	9.3167	7.6085	10.9382	11.9836	15.8111	11.8826	2.9412	13.4531	5.4951	13.8171	8.3960	18.2705	-0.7030	24.7651	18.0004	12.6249
6024.0000	8.3926	6.0516	10.1858	10.4222	9.0891	9.0875	3.5264	10.5215	4.0126	11.9601	7.3859	14.6402	4.9242	22.0285	20.4579	11.8389
6032.0000	7.6210	6.8476	15.7418	9.6626	15.2237	7.6033	3.9734	8.5133	4.5003	9.6688	7.3983	11.6889	9.8888	14.4034	17.6852	7.9732
6040.0000	7.6046	6.3974	14.5474	7.5676	17.5445	6.3039	6.1887	7.5924	4.0586	7.0957	7.8355	8.7573	19.2306	7.6478	18.8258	5.3659
6048.0000	4.7234	2.3656	3.8102	2.6513	4.3626	2.0181	6.5913	3.2885	1.0127	3.3049	4.2902	6.9556	25.6822	2.1949	16.4191	3.1404
6056.0000	5.3499	3.9969	7.1742	6.5618	3.5335	4.9581	6.6008	5.2480	2.1554	7.7559	4.3638	10.8607	27.7028	12.7999	13.4527	7.5556
6064.0000	6.5379	7.8358	15.8468	10.9878	15.1413	9.2534	8.0977	8.3325	5.0418	11.5304	5.9091	14.1969	35.6266	18.2911	6.6375	9.2120
6072.0000	2.3466	4.2909	9.7612	5.9686	6.1536	3.9316	4.4397	2.5986	2.6396	6.6108	1.5055	12.3784	25.7282	8.8277	0.3381	4.0261
6080.0000	2.6628	2.2827	9.1430	4.1714	-0.2760	0.8466	2.4304	0.6952	0.9535	4.0786	2.1071	5.5461	13.1357	5.7632	10.8838	3.5889
6088.0000	6.3019	5.0889	12.3656	7.3852	10.2245	5.6804	5.7267	6.2811	3.0302	6.9757	6.3572	4.3502	19.4196	11.4709	15.1674	6.9632
6096.0000	2.2591	3.5428	7.9430	5.1025	8.4827	4.6083	1.2325	3.9844	2.5689	4.7611	2.4010	2.9986	3.9398	8.9738	-1.0424	3.8352
6104.0000	-1.5388	0.1597	7.7860	-0.0071	1.2509	-2.4279	-3.1201	-3.2326	0.0397	-2.0168	-0.7813	-5.8415	-10.2270	-4.4255	-2.1908	-2.7791
6112.0000	0.4609	-0.1552	8.6571	-0.3511	-2.4380	-4.2580	0.0599	-4.0190	-0.8367	-2.1006	0.8218	-3.7580	3.4247	-6.8934	11.7559	-2.2219
6120.0000	0.6974	0.6817	10.5673	0.5986	-0.4912	-3.6426	0.1530	-3.6270	-0.2321	-1.0181	0.9033	-0.4803	5.0625	-6.1122	11.2191	-2.0652
6128.0000	0.0460	1.5050	13.0984	0.2259	7.2634	-3.0478	-0.6642	-3.3653	0.6761	-2.5963	1.1844	-4.7850	0.3409	-9.9169	4.7746	-4.5579
6136.0000	1.3198	1.6751	7.5936	2.8304	2.5162	0.8391	-0.5041	0.6566	0.9962	2.0035	1.4835	0.0281	-2.4112	3.4077	4.3778	1.6661
6144.0000	0.9730	0.5007	3.4155	2.5040	-3.6994	0.5875	-1.5835	0.5905	0.1900	2.6603	0.5365	1.8695	-7.2916	6.6625	5.3121	3.2329
6152.0000	-1.0449	-2.1059	2.1054	-2.8931	-7.1585	-5.6633	-0.9905	-5.2449	-2.0518	-3.9571	-0.9168	-4.2918	-0.8544	-9.2722	8.7982	-3.4959
6160.0000	-0.9454	-1.8832	3.1251	-1.3301	-9.7518	-4.6963	-1.1282	-4.7412	-1.9594	-2.3380	-0.9807	-5.4062	-0.9275	-3.7249	7.7551	-1.0308
6168.0000	0.3098	1.6431	6.6833	3.7413	0.2130	1.9291	-0.8723	0.8177	1.0859	3.1755	0.2890	-0.7190	-1.7913	8.2976	-2.6005	3.2792
6176.0000	0.1917	1.8619	4.8988	3.1467	0.9295	1.7862	1.3238	0.5292	1.1587	3.4404	-0.3163	5.4259	11.0961	5.9356	-3.7042	2.2591
6184.0000	0.7833	1.8689	9.4462	2.6664	1.7681	-0.2105	1.6633	-1.0694	0.8303	1.6898	0.8097	1.0806	12.1528	1.1587	3.0306	0.7078
6192.0000	1.7173	3.9230	16.4836	4.4052	10.6702	1.3708	2.8028	0.1341	2.2932	1.8056	2.7424	-3.9480	15.5939	0.6427	1.3217	0.3271
6200.0000	3.2274	3.6819	12.4378	5.9706	2.6172	2.5595	5.7437	1.5654	1.7408	5.4221	2.9000	3.5309	29.5823	8.8391	7.6502	5.0946
6208.0000	5.8812	3.4265	7.7406	5.3597	4.7003	3.7548	5.5995	4.9401	1.7437	5.6833	5.5030	5.7554	19.1361	8.8301	18.8026	6.2104
6216.0000	5.0880	3.2917	6.3782	2.8581	14.0848	3.7614	3.4252	5.5301	2.2606	1.9724	5.9890	-0.4328	4.1951	0.7049	13.2367	1.7841
6224.0000	3.7527	3.2792	10.7336	3.9708	10.0246	2.7939	2.9498	3.2351	1.9944	2.2897	4.6737	-3.9676	7.6767	3.2098	9.1732	2.4753
6232.0000	3.1002	2.6965	8.6756	2.5049	9.7421	1.6083	2.2923	2.2698	1.6633	1.2357	3.8096	-0.7426	5.9669	-0.7578	8.9751	0.5043
6240.0000	0.2265	-0.2079	-0.9739	-2.0741	2.9920	-1.7049	0.7405	-0.9199	-0.1852	-1.9176	0.2231	3.9276	3.2982	-8.2102	4.1359	-3.4051
6248.0000	1.1176	1.5048	7.9091	1.5627	3.3016	-0.6123	1.1731	-0.7591	0.6798	0.5427	1.3476	0.5340	7.1312	-1.8128	5.5762	-0.4368
6256.0000	0.1169	2.3925	10.0597	1.8125	10.0346	0.5459	-0.7986	-0.1936	1.7573	-0.0571	1.0335	-1.9090	-2.0179	-3.0096	-3.0684	-2.1249
6264.0000	-6.8630	-3.2435	-2.5025	-5.9932	-4.0339	-6.6234	-7.1356	-8.1455	-1.8012	-6.9996	-6.5197	-2.5157	-20.5777	-15.5267	-17.1584	-9.6322
6272.0000	-5.9955	-2.3941	2.9540	-3.9824	-4.9064	-6.6997	-7.7398	-8.3413	-1.4532	-5.4323	-5.7585	-1.7927	-22.3980	-12.6904	-12.1800	-8.1185
6280.0000	-1.4591	1.2212	4.4515	1.6798	2.5621	0.5840	-2.9586	-0.6619	1.1364	1.5933	-1.6803	5.1705	-7.9040	1.7235	-8.1099	-0.6878
6288.0000	-4.6077	-3.6704	-8.2898	-4.8944	-10.5328	-4.5208	-1.9712	-5.4621	-2.5158	-4.3721	-4.9981	-2.1345	-0.8380	-7.0360	-10.5724	-4.1483
6296.0000	-6.3807	-7.7449	-15.7900	-12.9064	-14.2703	-11.3023	-0.8912	-10.6983	-5.6510	-13.4482	-5.8505	-12.5134	2.4118	-26.7176	-4.7223	-11.9982
6304.0000	-2.6935	-4.0602	-12.6829	-8.4107	-3.1639	-5.2640	2.2849	-4.2651	-2.8481	-8.1520	-2.2908	-4.9867	10.8540	-18.1807	-2.5052	-7.7760
6312.0000	-2.2092	-0.6254	-1.5118	-3.4791	4.7298	-1.9200	2.5281	-2.6534	-0.3970	-4.5279	-1.3427	-5.6103	15.0968	-10.9405	-9.7771	-5.4712
6320.0000	-0.9148	0.1456	-2.4835	-3.6019	10.2349	-0.3780	5.5072	-0.6470	0.1755	-4.7462	0.3635	-7.0175	24.7939	-12.1989	-9.0498	-5.5359
6328.0000	4.2339	2.0869	-10.0805	1.2160	9.4383	7.2222	10.5511	8.3222	1.5933	3.6666	3.9166	5.8287	38.0344	6.6754	-0.0109	4.6443
6336.0000	-0.3965	-1.0688	-11.5045	-2.3462	-2.3563	1.3706	7.3635	1.0801	-0.8578	-0.4397	-0.9576	1.8681	34.5439	-0.1706	-7.3159	0.5662
6344.0000	-3.9785	-2.5156	-8.5710	-6.6622	0.4616	-3.6603	4.5082	-4.6273	-1.7745	-7.0228	-3.3344	-6.3925	27.0315	-15.6035	-14.8537	-7.5683
6352.0000	4.7314	4.1811	-0.5933	3.4136	16.5809	7.5939	8.6287	8.3003	3.1091	4.4668	4.9531	6.2246	30.3259	5.6944	0.6085	3.6259
6360.0000	2.2531	-0.3849	-10.3831	-3.1264	3.4001	0.8902	9.2298	2.3741	-0.5471	-1.3117	1.9208	4.7790	37.3879	-6.5016	5.5130	-1.0393
6368.0000	-2.2294	-4.9089	-19.8882	-11.1175	-2.4233	-5.3736	7.7194	-3.7783	-3.6006	-10.0487	-1.8431	-5.2053	33.7952	-23.1823	-2.1821	-9.0811
6376.0000	4.7925	2.5944	-11.8721	0.4036	19.8357	9.0807	5.2961	11.6125	2.8912	2.5463	5.3042	5.7251	4.8485	3.6002	-1.0996	2.3954
6384.0000	1.2486	-1.5124	-18.4380	-6.9228	16.4214	2.5691	-0.6538	6.2366	0.3767	-5.7335	2.5275	-1.1931	-22.5689	-13.7390	-1.8517	-6.0954
6392.0000	-0.9816	-5.6140	-21.0900	-13.6830	8.0573	-5.4149	0.2561	-1.0211	-3.1663	-14.3645	1.2097	-15.0939	-16.1489	-30.9415	5.0167	-12.7524
6400.0000	3.6189	-2.7452	-19.2302	-6.2406	4.6909	1.2008	3.8763	5.6776	-1.4684	-4.6670	4.3078	-4.9624	-3.6676	-8.6780	14.0521	-1.4112
6408.0000	-4.3526	-9.0165	-25.7185	-16.9072	-7.9201	-10.6847	0.7768	-7.3720	-6.1473	-17.0408	-3.0373	-16.4575	-3.2433	-34.5205	2.5552	-14.2926
6416.0000	-7.8307	-8.3030	-18.6971	-17.4959	-2.2696	-12.3406	-1.2679	-11.1522	-5.4452	-19.6802	-5.5741	-21.4376	-3.8793	-41.1886	-12.9110	-19.2543
6424.0000	-1.1698	-2.2689	-18.5382	-5.3410	3.4231	1.7160	1.2173	2.9804	-0.6802	-3.1470	-1.1688	1.7864	-1.6062	-5.5566	-10.3425	-2.8649
6432.0000	1.0820	-2.5443	-13.5025	-7.6264	6.1658	-1.8993	6.3826	0.7612	-1.7340	-7.5959	2.2588	-8.3691	18.1309	-17.4677	5.7023	-6.0311
6440.0000	-1.1059	-2.7246	-3.8093	-7.3723	0.5276	-6.1528	7.1934	-5.4266	-2.6413	-9.2849	0.2858	-13.9664	33.4974	-21.4375	3.8522	-8.0558
6448.0000	-7.1879	-7.1317	-18.4095	-8.9392	-25.1333	-8.3959	2.0338	-9.9872	-5.5065	-6.8157	-8.6814	-1.1022	25.6206	-10.6761	-13.5190	-5.1837
6456.0000	-7.3266	-5.6664	-6.9052	-10.0348	-12.2182	-10.6433	2.0858	-12.3683	-4.5812	-11.6346	-6.6950	-13.2479	25.1284	-23.8438	-13.3775	-11.3617
6464.0000	-1.4998	2.6030	11.7272	2.0771	8.5422	0.2369	1.7926	-2.1473	1.6654	-0.1527	-0.5894	-3.9260	16.7038	-2.6144	-11.8548	-2.4116
6472.0000	-0.7624	1.4476	0.0090	6.2832	-9.3434	4.7763	-1.9078	2.4750	1.1804	8.8872	-2.7960	12.8362	-0.7801	22.3109	-10.8673	8.7231
6480.0000	0.1508	0.1351	3.8254	3.8040	-10.8269	0.5955	-0.4722	-0.5566	-0.3770	4.2100	-0.7668	0.5530	2.5140	12.7834	2.0479	5.9750
6488.0000	-0.6132	0.0723	4.7373	1.8633	-5.2120	-0.6746	-1.5079	-1.5975	-0.2081	1.3314	-0.8085	-1.8644	-2.7808	4.7641	-0.1307	1.9176
6496.0000	-5.2003	-3.7731	-1.6877	-3.3145	-15.2343	-6.1160	-5.3540	-7.6373	-2.8149	-3.9337	-5.4954	-5.9484	-13.3399	-4.2172	-8.0054	-3.1394
6504.0000	-4.2920	-2.6461	6.1495	-0.5676	-15.5891	-5.7541	-5.4338	-7.7868	-2.3549	-2.5121	-4.2072	-11.0914	-13.3388	0.3630	-4.5171	-0.8003
6512.0000	0.0078	1.7766	3.6944	5.5202	-1.1636	4.4358	-6.1463	3.4034	1.8315	6.3268	-0.7007	5.8671	-27.8331	16.7617	-6.5285	6.0174
6520.0000	1.1805	3.8573	4.9052	5.3482	13.4671	6.6020	-6.4294	6.3756	3.8719	6.0319	1.0639	11.2444	-33.8023	10.8505	-8.1999	2.8036
6528.0000	-0.0691	1.5915	8.8531	2.3783	4.5458	0.2913	-4.0905	-0.1997	1.2889	1.0513	0.3761	-0.4012	-17.5931	1.2864	-0.5894	-0.3228
6536.0000	0.3258	-0.5336	1.4516	1.4164	-6.6444	-0.3916	-2.1608	-0.3191	-0.5494	1.4660	-0.0285	-1.1527	-10.0538	5.7512	4.9658	2.8654
6544.0000	0.6758	0.2655	-2.4219	3.3147	-6.1128	3.1449	-2.2755	2.9307	0.3962	4.9836	-0.3849	5.5654	-11.5623	14.0612	-0.5664	6.1014
6552.0000	-2.2345	-1.5406	-3.9741	1.1737	-12.0010	0.4555	-2.9584	-0.8797	-0.9751	2.2341	-3.1226	-0.4435	-8.8296	10.8242	-8.4235	4.0148
6560.0000	-2.1986	-0.7520	3.8350	0.0194	-4.7653	-2.0550	-2.2159	-3.3327	-0.6758	-1.1944	-1.9163	-6.3040	-4.5169	0.1378	-5.3379	-0.6656
6568.0000	0.0584	1.3772	6.3006	2.7876	0.3687	0.6473	-2.1931	-0.0774	0.9502	2.5767	-0.2366	3.9477	-6.7039	4.4683	-0.2926	1.4222
6576.0000	-1.6446	-1.3270	-1.0370	1.0257	-11.0207	-0.8885	-3.7861	-1.7011	-0.9613	1.7620	-2.5237	1.5709	-12.6290	7.3648	-2.2621	2.7282
6584.0000	-2.2038	0.5871	13.2466	2.6627	-3.4890	-2.4459	-5.9648	-4.2994	0.2201	0.2697	-1.7604	-5.9620	-18.9988	2.4067	-3.4846	-0.2739
6592.0000	0.4075	4.4579	21.6835	7.3924	8.1666	1.6409	-7.7475	-0.0052	3.2910	5.1217	0.7290	4.3990	-29.8822	7.8648	-0.5660	1.6517
6600.0000	-0.2555	1.4875	10.6126	4.8785	-2.8594	0.6177	-7.5832	-0.3098	1.1813	4.2511	-0.6708	3.6144	-31.0450	10.1126	1.1302	3.3212
6608.0000	-0.1429	1.0571	15.8942	5.9017	-9.6147	-1.1906	-5.7079	-2.7898	0.1658	3.9468	-0.3047	-5.1035	-19.6435	12.4925	5.7552	5.2397
6616.0000	7.8555	8.9799	30.1842	17.2634	10.3971	10.1209	-2.5481	9.2205	5.9355	15.6007	7.6948	6.0808	-17.3589	33.2314	16.5657	15.4139
6624.0000	9.2784	11.0069	29.9497	21.4939	11.4695	14.6757	-3.5388	13.4952	7.6939	21.8394	7.9388	18.6541	-22.2729	45.6256	14.7986	20.4925
6632.0000	-0.7347	1.9654	19.4809	10.9415	-21.1533	-0.0677	-8.5067	-3.3339	0.5690	11.1404	-3.0868	10.3149	-22.0139	27.5825	4.6945	11.2541
6640.0000	-1.2947	0.3113	12.8979	6.4284	-17.9591	-1.8814	-7.6873	-3.9831	-0.3759	6.4200	-2.9640	6.1265	-22.4604	16.7761	4.7360	6.6789
6648.0000	-4.6433	-5.4148	-16.3401	-7.4881	-9.1081	-3.6437	-4.1089	-3.2523	-3.1566	-7.1595	-4.1572	-11.4015	-20.4983	-8.1877	-12.1240	-4.6065
6656.0000	-5.0193	-5.8104	-20.2701	-8.0982	-6.9434	-2.3967	-7.2581	-1.5028	-2.8588	-7.3825	-4.3776	-11.3332	-38.9938	-7.2473	-15.7193	-4.8336
6664.0000	-4.6393	-4.2379	-9.2592	-6.6923	-1.9607	-3.4403	-5.6217	-3.3431	-2.2041	-8.4823	-2.9222	-19.4153	-29.1577	-10.5750	-14.1947	-6.1585
6672.0000	-0.7668	0.8997	-6.0626	2.6290	4.9085	6.8813	-3.7054	6.0828	1.8274	3.4609	-0.4700	-2.8839	-23.3596	14.3766	-18.4590	4.6403
6680.0000	-4.2793	-3.4375	-12.5825	-2.4906	-8.4991	0.4038	-9.2048	0.0275	-1.2511	-1.2625	-4.5266	-3.4925	-43.4582	5.6555	-16.7290	0.3160
6688.0000	-7.9050	-7.0764	-7.1353	-9.9160	-15.8581	-11.1095	-6.7285	-11.9334	-5.0076	-12.1653	-6.8783	-19.0446	-21.1374	-20.0129	-10.7783	-10.3553
6696.0000	-10.6117	-7.2679	-7.8690	-9.5453	-18.8279	-11.2831	-10.1112	-13.5343	-4.8116	-10.9610	-10.3150	-12.4179	-28.9534	-17.6980	-21.9845	-10.9648
6704.0000	-8.9043	-4.7013	-0.5405	-6.8048	-8.8535	-8.9484	-11.8648	-10.9329	-2.7364	-9.0957	-8.0675	-10.5718	-40.5286	-16.2403	-19.9196	-10.6806
6712.0000	-1.3618	2.7837	14.9893	0.6050	17.9582	-1.1205	-7.0171	-1.6956	2.5946	-2.7563	0.4281	-2.5549	-30.4091	-11.5091	-6.3720	-7.4174
6720.0000	-1.9499	1.1133	9.0282	0.6170	7.1520	-1.8849	-11.1455	-1.9840	1.5536	-0.4580	-1.7264	7.7620	-47.5140	-5.9048	-2.6448	-5.0726
6728.0000	-1.2094	-0.3842	4.5516	1.0795	-5.7068	-2.3615	-7.1758	-2.5154	-0.1801	1.2822	-1.9927	7.3058	-27.8345	1.2996	3.6033	-0.3626
6736.0000	-0.1857	1.8196	5.1347	2.0390	8.2592	1.6091	-7.2691	1.7316	2.0615	1.9133	-0.1348	7.7915	-34.3186	1.0425	-2.9534	-1.2332
6744.0000	-1.8621	1.2849	7.0458	0.6085	10.1892	-0.3038	-11.5419	-0.2663	1.9900	-0.4808	-1.3052	5.6226	-52.5887	-4.5612	-6.1964	-4.7357
6752.0000	5.6015	7.8218	20.2480	12.8677	16.5667	9.6421	-6.2966	9.4980	6.1123	12.7524	5.2238	15.6210	-35.2076	23.1554	7.0011	9.3325
6760.0000	5.8590	8.1068	21.8567	14.5140	16.8192	10.8452	-11.4608	11.0544	6.7240	14.3236	5.5064	16.0165	-62.1597	28.2866	7.9501	11.0260
6768.0000	0.4151	3.6851	20.0415	7.9662	4.5091	1.9628	-12.7927	0.9552	3.0877	6.1188	0.4869	5.0155	-56.3154	12.5143	2.0132	3.4153
6776.0000	2.2548	7.8417	23.2203	15.7727	9.4555	10.3689	-12.4298	7.8160	6.4784	15.9323	1.1566	18.1301	-53.9871	33.8371	-7.6805	11.9114
6784.0000	3.8538	8.4844	20.9306	14.7591	18.6334	11.6851	-14.1700	10.8607	7.4740	15.1951	3.1522	21.7763	-70.0233	29.2199	-3.2580	9.8723
6792.0000	4.5021	5.8790	19.8765	8.0907	16.3272	4.3117	-6.2768	5.0530	4.4678	6.7409	4.8011	10.7650	-34.1203	7.6325	12.8086	2.8509
6800.0000	0.0677	0.6251	6.9972	4.1623	-5.1224	0.4657	-9.4675	0.4054	0.7452	4.2322	-0.6230	5.4783	-42.7254	10.6533	4.7840	3.7380
6808.0000	-0.0360	0.0671	1.3216	3.2651	-5.4837	1.8383	-6.7266	1.7199	0.4403	3.8706	-0.6456	2.5651	-32.2325	12.1894	0.1653	4.6542
6816.0000	5.7171	7.7388	15.5253	10.8268	22.4149	10.9955	-1.0525	10.8750	6.1248	10.2756	6.2448	8.0020	-14.9000	19.1073	0.7353	7.9164
6824.0000	1.7017	4.9846	12.8753	8.3329	11.3949	6.9925	-4.5800	5.6139	4.1411	7.6698	1.8892	4.8373	-22.4659	16.6193	-7.3505	5.7483
6832.0000	2.2824	3.6320	4.5244	6.1116	4.5032	6.4757	6.3159	4.8510	2.3445	6.7261	1.9105	2.9346	29.8231	15.4076	-6.2859	7.1486
6840.0000	3.7787	-3.0705	-23.3349	-3.9506	-5.1525	2.9611	4.7696	6.8154	-1.8654	-0.2177	2.9693	2.5064	3.6009	3.1319	13.4081	4.0965
6848.0000	-0.3469	-4.7377	-24.9471	-10.1772	3.1682	-1.0666	2.8956	2.2984	-2.5408	-8.7713	0.6444	-8.7344	-2.4953	-16.1360	-0.8377	-6.1191
6856.0000	-0.3907	-0.1261	-9.8970	-3.5084	19.4099	4.0891	-8.6504	6.4135	1.9554	-3.7786	1.4209	-4.2386	-57.2622	-6.7517	-11.3279	-5.0666
6864.0000	3.9405	2.6190	-7.7587	2.7370	12.9844	8.5150	1.7602	10.1506	2.7902	5.0361	3.7599	8.7383	-6.1728	10.2394	-1.1579	4.8002
6872.0000	-0.5340	-2.0383	-16.9935	-1.4719	-2.0300	4.0348	-6.5383	5.5936	-0.0619	1.5028	-1.2371	5.5406	-40.5331	8.3530	-7.2096	2.6864
6880.0000	-4.2859	-6.5132	-19.3819	-8.8409	-14.4729	-5.7860	-4.0937	-4.5352	-4.1753	-7.2844	-4.6968	-4.0166	-19.0910	-11.0828	-3.8303	-5.2363
6888.0000	-8.0908	-7.5838	-18.0456	-8.6395	-26.7401	-8.4596	-1.8846	-10.1927	-5.5424	-6.7868	-9.4768	-3.0403	7.2998	-8.4271	-16.0507	-4.8685
6896.0000	-5.4545	-3.1670	-10.8157	-0.9612	-15.3137	-0.2981	-7.5109	-2.2338	-1.4852	1.3083	-6.9043	4.5178	-25.5609	9.6336	-20.2368	1.8100
6904.0000	4.0920	3.9048	0.2960	3.7819	12.0772	6.3775	7.5136	6.7175	2.7602	5.3996	3.6222	11.3735	29.7433	6.5385	1.6895	3.8170
6912.0000	0.3983	1.6554	-3.4926	0.0390	9.5575	3.2436	3.3964	3.0314	1.5673	1.1318	0.3032	7.1829	14.8468	-1.0889	-8.3130	-0.9786
6920.0000	-2.7384	-1.8588	-9.3481	-3.7930	-1.6802	-1.1524	0.2366	-1.5340	-0.9440	-2.6249	-3.0472	2.6277	4.5142	-5.7992	-10.9792	-3.4642
6928.0000	0.4416	0.8757	-1.1214	-1.2664	6.1749	0.1549	4.9900	0.1444	0.4783	-0.9105	0.4584	4.3678	24.4131	-6.5768	-1.4766	-2.6265
6936.0000	1.9524	3.7461	6.6456	4.8295	10.7151	4.8216	-1.2674	4.5036	3.0652	5.2406	1.7330	9.9371	-7.3216	7.5852	-2.1053	2.5780
6944.0000	3.0333	4.3243	9.9520	5.6196	7.9717	3.5082	2.3217	3.0920	2.8153	6.4096	2.1502	15.5288	13.4214	6.5476	5.5511	3.0695
6952.0000	-0.7992	1.2790	11.6579	0.6709	1.9609	-3.7680	-1.7270	-4.5436	0.4603	-0.5457	-0.9416	6.3926	1.6098	-7.9608	4.2339	-4.0917
6960.0000	0.4490	1.3822	9.2209	2.0716	0.9358	-1.4290	-2.4199	-1.6600	0.7204	1.4567	0.1697	5.8245	-6.7472	-0.9289	6.2519	-0.6362
6968.0000	4.3740	4.3831	8.1101	6.3529	6.6223	4.7713	4.0150	4.8245	2.7487	7.6415	3.3172	15.2655	17.9599	10.3910	9.3931	5.5235
6976.0000	4.4346	4.1830	10.2643	6.6145	6.4193	4.6255	3.1492	4.6788	2.5759	6.7742	4.0268	7.5030	11.7512	11.3216	10.0124	6.0483
6984.0000	6.1153	4.0646	7.6071	4.7514	9.5827	4.3401	8.8979	5.3597	2.1446	4.7810	6.1289	4.4306	34.0620	5.5070	16.0524	4.8756
6992.0000	5.1399	4.2499	6.8222	2.9008	16.5595	3.8425	6.8442	5.1189	2.7421	2.7394	5.5380	7.1012	24.4264	-1.9651	11.5337	0.6103
7000.0000	6.7626	5.4600	12.6299	6.4557	15.5664	5.4684	4.9987	6.7861	3.4892	5.8614	7.1168	6.1736	13.6794	6.4551	17.2200	4.6441
7008.0000	5.9807	3.6008	7.9780	5.7133	2.9474	3.5832	7.5126	4.4437	1.6272	6.4405	5.2167	8.4295	30.5575	9.4640	19.3465	6.7446
7016.0000	0.7649	0.7916	6.1245	1.9053	-4.6434	-1.5285	2.2520	-2.0807	-0.1674	2.0473	-0.0227	5.6980	16.7434	1.3779	7.4056	1.3197
7024.0000	3.0638	4.3835	11.0899	5.7280	8.4199	3.6954	3.8655	2.9726	2.7235	5.7613	2.6555	9.6699	19.9441	6.8967	4.1646	3.4391
7032.0000	2.8161	3.6517	2.1297	3.5944	11.2676	5.1767	4.1829	5.1712	2.7385	4.9338	2.3058	12.5626	17.2931	5.1230	-0.6618	2.3912
7040.0000	-0.2559	0.7950	5.1920	0.6768	1.4155	-0.9268	0.4751	-1.5374	0.3312	-0.0213	-0.1630	0.6439	6.0952	-2.0615	-0.0404	-1.0879
7048.0000	-2.4235	0.7468	10.5899	1.5537	-3.0872	-2.7266	-0.5530	-5.0904	0.0219	-0.0030	-2.4211	-1.3819	10.1673	-1.1457	-6.2480	-1.4874
7056.0000	-4.5349	-0.8735	0.3234	-1.5618	-4.9870	-3.1510	-1.5191	-5.4686	-0.6266	-1.1668	-5.2885	6.3511	7.9977	-4.7580	-14.6673	-3.9746
7064.0000	1.6121	3.8099	12.2983	3.4340	12.3282	1.6768	1.6451	1.0025	2.5450	2.1688	2.0648	4.6741	9.9439	-1.4282	0.8347	-0.9584
7072.0000	6.9678	6.4645	18.8632	6.6100	19.2777	4.5138	9.3872	5.0572	3.6820	4.3714	8.0870	-0.0613	36.7296	1.9572	16.9672	3.0944
7080.0000	5.0188	1.2966	2.1202	0.2701	2.3213	-0.1243	11.8103	1.4115	-0.3090	0.3080	4.9982	0.2864	49.5990	-4.0300	20.5251	1.6221
7088.0000	0.9488	-0.6475	1.0199	-2.1169	-0.1779	-2.6318	4.3626	-1.9454	-1.0659	-3.0963	1.4815	-5.7468	19.0403	-8.0107	8.4872	-2.1699
7096.0000	0.0072	-1.0018	4.8468	-1.9079	-5.3445	-4.5473	7.0338	-5.0674	-1.9214	-3.8482	0.6444	-11.4094	37.3016	-8.1921	7.3105	-1.9313
7104.0000	2.9556	1.1346	10.3988	1.1857	-1.3646	-2.4307	9.7249	-2.5336	-0.7326	-0.9222	3.5727	-9.1998	46.5853	-3.8056	15.7952	1.0136
7112.0000	4.1907	5.7930	20.4445	4.9563	20.1246	2.9153	9.1544	2.0550	3.2649	1.1025	6.2289	-9.6407	40.2261	-2.7723	5.3442	-0.0189
7120.0000	4.4784	5.4198	18.2961	6.8075	6.4818	2.3621	14.1823	0.4962	2.1405	5.3911	4.4247	2.0164	72.6644	5.3139	9.5582	4.6339
7128.0000	1.2288	2.2265	17.0838	6.1102	-9.0808	-1.7420	1.9862	-3.6181	0.2443	5.1570	0.2354	4.1390	21.1965	9.0049	10.8920	4.8647
7136.0000	-5.9910	-0.8073	0.5464	-5.6952	3.9622	-4.4872	11.1434	-8.4600	-1.2352	-8.0831	-4.6302	-13.2408	69.4840	-19.0491	-28.1228	-9.6379
7144.0000	-6.9740	-0.8048	12.1105	-1.3033	-4.2485	-5.4478	0.4360	-10.2387	-1.1426	-5.5538	-5.4409	-20.0505	22.1344	-7.6519	-25.2006	-5.6816
7152.0000	6.3472	9.2248	26.3204	13.8403	14.8637	9.6626	13.2550	6.5248	5.2575	11.6071	6.8776	-1.8486	63.8908	22.8919	1.2334	11.6577
7160.0000	-0.5078	5.0609	21.7475	6.8271	9.9629	2.3606	2.7643	-1.3790	3.0709	3.6234	0.4732	-5.1477	24.2791	6.1186	-12.6044	1.3985
7168.0000	-5.5866	-0.7159	21.7808	-2.4217	-2.6089	-10.1615	0.5921	-13.8741	-1.7907	-8.9096	-3.2702	-24.6560	22.7395	-18.9987	-8.6623	-9.5292
7176.0000	-2.1326	2.1744	26.2653	3.3725	-4.0745	-5.9462	6.5497	-10.2293	-0.3774	-1.6446	-1.0447	-15.1441	51.4406	-4.9913	-1.9950	-1.9953
7184.0000	-7.9011	-0.2538	25.0833	3.0921	-12.8329	-7.6470	-8.9238	-13.4053	-0.9245	-2.1221	-7.0319	-16.5505	-13.6215	0.5005	-19.3658	-3.1036
7192.0000	-1.8048	2.9446	30.5683	6.3364	-3.5272	-3.8668	1.4248	-8.2968	0.5363	0.5340	-0.3421	-19.3593	24.3708	3.5750	-3.0278	1.1488
7200.0000	-2.2328	3.4145	28.1822	9.1100	-8.8714	-1.3493	-0.0049	-6.6872	1.0609	5.3081	-2.1218	-9.4659	21.6175	14.8106	-8.3500	5.4746
7208.0000	-7.5404	-1.5885	23.5993	3.3128	-27.5742	-9.9495	-1.6110	-16.4994	-3.0818	-0.9159	-7.8706	-16.0971	27.3315	4.3550	-12.2689	0.4829
7216.0000	-4.3930	1.3450	28.7635	3.7590	-15.5523	-8.3449	12.4797	-15.2276	-1.9508	-1.6501	-3.8016	-20.1369	91.6584	-2.4380	-8.9527	-0.5337
7224.0000	-4.9496	4.6313	30.8741	9.4356	-6.5133	-0.7163	7.7221	-9.3253	1.5094	4.8817	-4.5543	-13.4679	69.3119	13.7929	-28.3355	4.1718
7232.0000	0.2958	7.2150	34.0153	12.8941	-3.7719	2.4497	18.0707	-5.3648	2.3964	9.0598	0.2500	-9.6064	112.3982	19.7162	-13.1682	9.5552
7240.0000	-0.3615	5.4290	35.5486	8.7659	-7.8552	-3.6425	22.1047	-11.1139	0.2628	3.7409	-0.0779	-14.3162	135.7240	5.1489	-4.3958	4.3066
7248.0000	-4.9500	2.4967	33.5327	6.4692	-19.6741	-8.0116	15.2623	-16.7041	-1.6331	1.4032	-5.1481	-15.5299	113.4700	3.2343	-12.9130	1.8361
