Time	Fz	Fpz	C3	C4	T5	T4	O1	O2	F7	F8	F3	F4	T3	T6	P3	P4
0.0000	4.2486	3.0295	-11.3883	12.6767	4.1627	6.1031	5.2654	7.5871	-1.6190	-5.6948	-14.5208	34.1458	-3.1236	10.8108	-9.8397	13.7232
8.0005	-1.3956	2.9955	-9.9265	-0.1627	10.9360	3.6570	-3.1964	5.0929	6.7354	-2.8067	-7.5707	51.6953	-3.8730	4.1064	-12.4045	3.2642
16.0009	8.6067	6.4391	-13.9790	17.3498	12.5547	9.9705	3.9095	12.9899	-0.0121	-0.2288	-14.7351	67.1268	-10.3823	12.4460	-0.4706	7.9696
24.0014	9.7581	6.2015	-17.9515	15.6860	7.5054	10.0979	6.4830	14.4726	-2.3016	2.9263	-8.8841	88.4756	-2.3143	13.6766	13.3354	19.3004
32.0018	0.3233	4.4493	-16.3863	3.1082	5.3453	5.1456	-6.9267	6.6655	0.9697	3.9403	-8.3359	96.9845	-12.2945	6.1866	-4.5618	-4.3820
40.0023	2.4848	2.6866	-21.3153	5.1048	-2.2898	3.1869	-2.6528	5.6003	-2.1539	3.0851	-8.4826	93.7453	-8.3850	1.0895	4.6335	-0.4622
48.0028	1.8056	4.5409	-11.7856	0.2229	1.6303	4.7682	-1.7906	7.6896	1.5389	8.7561	4.7640	104.9239	4.7304	8.2649	16.5049	16.4484
56.0032	4.7532	6.8698	-2.0873	6.3630	7.8681	4.1182	-3.1043	6.7125	4.5240	4.1306	5.9910	96.7444	-2.6444	2.2432	18.7899	2.6298
64.0037	4.2446	5.6301	-2.1364	2.4940	4.2058	2.2254	-5.6261	4.9860	6.3517	4.0300	12.1654	89.7274	-4.3755	-0.9029	24.6222	-5.4342
72.0041	0.2557	4.9266	-1.3484	-3.7937	3.0470	2.9494	-9.2265	4.8418	5.6974	6.2790	12.7472	87.9555	-3.5735	7.4754	17.9047	-2.8748
80.0046	6.0285	4.8479	-3.0319	5.3206	4.4264	2.1986	1.4717	6.1959	2.1467	-6.2783	7.6231	71.9459	3.4432	-0.0553	25.0265	7.5466
88.0051	2.3958	5.4618	1.0445	-3.3872	10.5611	2.8203	-3.3472	6.1493	7.6851	-1.5815	18.8778	76.4687	5.4199	0.0887	22.5594	4.8255
96.0055	1.4372	3.1683	-5.6089	-4.6513	6.4689	1.3292	-2.6316	4.3846	3.8940	0.3990	12.5555	68.4679	3.8794	-4.2569	18.7410	2.0522
104.0060	2.9630	-0.2316	-13.5962	-2.5464	-1.9280	-2.7471	4.7530	1.6020	-3.0509	-9.2674	4.7727	52.2243	10.2158	-14.4238	22.3958	8.2478
112.0064	-4.7506	1.8850	-6.1030	-11.2378	6.5349	0.2285	-13.0560	0.5247	5.5869	0.3537	10.3566	57.3092	-10.5931	-4.6852	-2.9908	-21.4185
120.0069	-1.7597	2.2855	-5.7618	-10.1032	11.6832	1.0652	-10.8664	3.1583	7.6349	-0.6320	8.0577	47.5805	-10.4672	-3.8459	5.4204	-20.5657
128.0074	1.6521	2.6495	-0.1436	-10.6747	12.9181	0.8278	-0.6923	5.9175	2.8437	-4.0382	12.1404	47.7251	11.1579	-1.1147	29.2956	8.9958
136.0078	0.3040	3.1547	0.7369	-7.7900	9.7666	1.8457	-6.3851	4.1294	3.4104	7.2806	10.0789	51.4805	-0.7910	0.8812	18.9694	-4.8228
144.0083	-2.4647	-1.8550	-8.0487	-14.4410	-0.3750	-5.1915	-4.9131	-1.8530	3.9070	1.1331	4.3941	36.1962	4.3837	-11.9787	20.5304	-5.5274
152.0088	-4.1892	0.1640	2.8246	-15.1373	4.0980	-4.5792	-6.5339	-2.2196	2.6841	-6.5671	10.0607	36.0547	6.8334	-7.9097	15.7950	-3.5825
160.0092	3.9636	4.7327	8.2173	3.5654	7.6902	2.0032	-3.8573	2.8888	2.9286	0.1345	12.5086	35.3182	-5.5612	-1.5621	15.8686	-10.8535
168.0097	1.1191	2.2845	8.1603	-7.5014	4.5460	-0.4920	-4.0169	1.9461	5.5121	3.9200	15.4237	29.3268	5.5746	1.3919	27.5742	0.6113
176.0101	-4.8957	0.6828	11.2300	-12.8791	0.1585	-4.2448	-11.0307	-4.3267	1.0266	0.7782	10.4144	24.5777	-1.0781	-2.1014	12.9505	-13.4112
184.0106	-3.9919	-0.9419	5.5986	-5.1571	-8.6534	-7.2431	-9.7012	-9.3560	-0.6808	1.1361	6.1767	18.0717	-8.4221	-16.1655	3.3231	-25.8405
192.0111	-8.2618	0.0253	12.7819	-13.1277	-2.2433	-6.5377	-14.1785	-9.4551	7.7636	7.2531	13.7016	20.6536	-4.0069	-11.2631	-1.1917	-21.8055
200.0115	-5.9235	0.1451	13.5842	-6.3318	-2.6524	-6.9986	-10.7218	-9.9815	4.4344	1.5012	6.5703	9.2133	-5.9578	-13.8501	-3.7640	-22.4650
208.0120	-6.3905	-3.3207	5.9071	-7.0208	-12.2291	-9.4527	-3.8350	-11.6376	-2.4259	-1.2201	-1.5062	-2.4356	4.4909	-15.1681	-2.2212	-6.2004
216.0124	-5.7413	0.6200	14.8209	-3.0864	-0.4471	-1.8376	-3.1182	-5.4252	-1.5426	7.7987	0.3569	-3.1403	5.5154	2.0526	-11.0540	5.8052
224.0129	2.7415	2.1670	15.1914	11.3723	0.4877	-0.3843	6.6226	-2.7667	-0.6647	4.7856	1.6177	-14.5814	7.3715	-4.2175	-0.4619	10.9165
232.0134	1.5813	0.6635	14.1980	7.0534	-6.6410	-2.7541	5.4052	-4.7055	4.8104	5.3599	9.4501	-14.6706	11.4134	-5.2306	6.4759	12.4902
240.0138	3.2135	3.2293	19.5451	12.7207	-0.9333	0.7209	4.2859	-2.5215	3.8753	6.3757	10.9288	-16.1737	4.6393	-0.9075	0.2567	6.5860
248.0143	0.5040	-0.9860	16.2765	4.5933	-8.7508	-6.5955	6.5792	-8.0983	-0.2896	-5.0379	5.9679	-28.4902	14.3434	-11.6502	7.9872	10.8424
256.0147	-4.9054	-2.1106	18.7973	-3.8079	-15.8447	-7.8475	-3.0442	-10.4387	3.6690	-0.9859	5.9335	-25.3463	8.8312	0.2742	4.2276	4.1743
264.0152	1.2311	1.4549	20.2952	10.7185	-10.5252	-1.7784	-1.8155	-5.7599	0.4174	4.7701	4.0484	-25.0427	-5.0198	4.6254	-0.2347	-6.4332
272.0157	-2.8776	-2.2118	15.4073	-0.4683	-11.1948	-8.5789	-2.3756	-11.1419	0.2523	-5.1882	2.0263	-32.6995	1.0103	-11.8055	0.8637	-10.7660
280.0161	-3.2250	-2.2008	16.1668	-2.3242	-9.3354	-9.2968	-3.9597	-11.1092	4.3111	-7.6600	0.9193	-34.3612	0.0261	-11.1802	2.1264	-12.8868
288.0166	4.1923	1.6721	18.9348	6.4562	0.2053	-0.9302	3.2993	-1.6666	-4.3132	2.8298	4.5125	-25.9516	3.3173	0.3661	16.6893	1.1884
296.0170	3.3871	3.1091	19.6837	0.7462	6.1570	3.5451	-0.5779	2.5538	-5.3603	15.5841	13.1040	-12.8741	1.9065	9.0338	20.9635	0.3974
304.0175	6.1416	3.1053	14.7441	7.8681	4.6849	3.3937	1.3980	2.1976	-0.5511	14.5762	12.3055	-16.7861	-3.4090	1.7224	16.7475	-6.3202
312.0180	3.8174	-0.1087	8.9316	4.6237	1.2462	-0.7598	7.8006	-1.0603	-5.8993	3.0392	4.2764	-29.2300	8.5300	-7.1253	11.4436	7.0424
320.0184	1.5998	-1.2234	7.6029	-0.2780	-2.1907	0.0581	7.9269	0.2471	-4.0599	3.2498	5.1926	-33.6911	14.9264	3.6915	10.9877	19.5800
328.0189	4.1830	-0.4876	8.6703	-0.4067	-1.7205	1.7761	8.5480	3.5285	1.9337	5.7805	12.0047	-34.2879	17.1495	10.2120	23.4273	24.1822
336.0193	2.1264	-0.2117	10.3108	-5.2452	5.5286	0.7308	3.0246	2.2606	-0.0541	1.3789	10.5660	-34.5694	8.9583	4.2871	18.5123	6.7559
344.0198	7.0321	1.8869	8.1625	5.9943	5.4937	4.5561	3.4597	5.0448	2.9826	8.5746	13.1585	-31.0984	-2.0093	5.0348	16.7049	-2.9439
352.0203	8.2719	1.2707	6.1909	4.6599	0.8044	4.7777	5.9957	6.4957	6.6134	14.7380	17.9087	-26.3941	5.6799	9.2109	29.0158	9.2626
360.0207	5.1994	-1.8613	2.9798	-1.5134	-0.5825	-0.8731	6.2836	2.0754	-2.7872	-1.4071	4.0809	-38.9367	7.1288	0.2279	26.0250	5.0703
368.0212	5.8943	-2.3901	1.0478	3.5058	-5.6340	-1.0313	8.1225	1.0356	-5.2727	-3.9886	0.7500	-45.4342	5.0682	-0.0783	20.0101	4.8681
376.0216	1.7639	-0.8293	5.3110	0.0879	-6.1149	2.7465	0.0325	1.7511	4.0765	14.7105	10.2230	-33.1495	0.2211	12.8199	8.9711	2.8663
384.0221	2.7177	-1.8845	1.5501	3.9366	-6.1377	1.0950	1.7333	-0.1955	-2.5979	10.8391	-0.8490	-42.6890	-5.4212	4.2735	3.3278	-5.7398
392.0226	2.9859	-3.7685	-1.8309	4.9029	-11.1226	-0.9815	4.6021	-1.8318	-11.2344	2.5658	-8.5198	-53.4141	-4.6353	1.4912	3.1702	-5.1146
400.0230	-0.9495	-1.6626	2.6217	2.3740	-7.4335	2.5617	-6.5014	-1.0447	-2.2397	12.0364	-3.7283	-45.5070	-18.3957	13.0314	-13.2326	-20.2914
408.0235	-2.2124	-1.6888	2.8134	-0.6827	-3.0727	1.5610	-7.4173	-1.7424	1.6380	12.3995	-4.0404	-43.7674	-17.1171	8.6647	-14.8663	-21.3284
416.0240	-6.3188	-3.0915	4.8832	-11.3109	-0.8041	-2.2340	-8.2218	-4.1844	0.8888	4.9843	-4.1677	-40.7329	-7.1663	4.7314	-11.1257	-14.5633
424.0244	-4.0346	-1.4587	5.3025	-4.9440	4.9928	-2.0079	-7.1695	-3.9457	3.3177	-1.2618	-6.3491	-38.6402	-12.3157	-2.5868	-16.5054	-22.0934
432.0249	-3.6974	-2.4910	1.7351	-6.9176	3.5379	-2.6485	-1.6278	-3.3546	0.7334	-1.2539	-5.0430	-34.1191	-0.5405	-5.1263	-9.6376	-6.5276
440.0253	-7.1875	-2.6907	2.2586	-15.4616	3.3903	-1.8090	-5.4890	-2.5483	1.4576	6.0660	-0.5748	-20.8848	3.3525	2.5646	-7.1078	-1.0252
448.0258	-0.2928	0.4816	3.5105	-4.5616	13.6170	0.6683	0.2831	1.3932	3.7263	3.0559	-0.4926	-15.4306	1.7120	-4.4492	-0.2762	-1.7316
456.0263	0.1231	0.2296	3.8065	-7.7441	14.4508	0.4347	3.8122	2.8045	0.4870	-0.4752	1.6619	-11.6877	11.5311	-3.1270	9.4955	10.7629
464.0267	-3.9172	-2.2818	0.4789	-10.4218	4.4490	-2.7970	-2.1217	-2.5571	-3.7749	0.4690	-4.6027	-15.9090	2.1406	-5.5680	-1.2806	-4.2265
472.0272	-0.7154	-0.9048	2.7440	0.2683	6.8412	-1.9744	1.2338	-2.8958	-5.9348	-1.2483	-10.5167	-24.4000	-3.1483	-10.6217	-8.5001	-8.7474
480.0276	2.5049	2.1065	5.8034	3.6663	9.5615	6.0192	2.0159	5.5521	-2.5968	8.6803	-2.1147	-18.1203	-1.7157	12.7845	-1.4509	5.3860
488.0281	2.1923	-1.4880	-6.8263	2.5262	-5.9836	4.3634	1.7712	3.6381	-3.8244	17.7816	-3.1097	-17.3197	-3.9826	11.9464	2.0537	3.3549
496.0286	-3.6144	-5.1029	-10.7890	-4.0083	-11.1950	-2.1335	0.4002	-4.1250	-10.4390	10.9465	-12.1887	-23.4308	-2.4934	-2.8801	-10.7162	-2.9047
504.0290	-3.6667	-2.0204	-4.2531	-1.2327	-1.1113	0.5678	-5.4796	-2.0558	-6.6858	2.8210	-13.7143	-23.9853	-15.1178	3.0251	-22.2899	-17.8305
512.0295	-1.9985	-1.3640	-5.9924	1.5983	0.2075	0.5213	-5.3694	-1.7839	1.7636	4.8741	-10.3920	-19.4997	-17.0516	-1.7073	-21.3249	-21.2086
520.0299	-5.7796	-1.0157	-3.0899	-5.4172	4.7485	1.4399	-5.4261	-1.3874	4.9290	10.6143	-3.9317	-11.5195	-6.5042	0.9982	-25.1506	-7.6238
528.0304	-1.3553	1.5393	1.9733	-1.9119	14.0752	4.2921	-2.1796	3.3082	2.8378	3.7551	-0.3320	-13.0424	-5.0495	3.7213	-14.7325	-5.0126
536.0309	-1.5000	-1.1328	-1.0956	-5.7081	8.3347	-1.6412	-0.2036	-1.1172	-0.3778	-4.9437	-0.8401	-16.4278	-0.1325	-10.3894	-4.1908	-7.8895
544.0313	-7.9267	-4.7434	-8.4774	-12.6202	-1.8054	-5.7789	-5.6865	-6.9178	-0.8848	-7.5036	-6.5568	-19.3728	-4.4765	-13.8485	-20.2052	-16.6927
552.0318	-4.0196	-3.0306	-8.7026	-4.9560	2.2565	-2.8606	-3.0782	-3.4531	-0.4329	-10.8318	-9.3697	-23.3442	-8.7841	-10.4977	-21.0565	-17.2795
560.0322	1.9357	0.9981	-1.1872	1.7343	10.2586	2.7752	1.8866	3.4037	3.9361	-3.3550	1.4990	-14.7556	-2.3567	-1.4328	-5.4245	-2.9242
568.0327	5.6104	1.2693	-3.0984	5.2669	7.6155	4.4981	6.1488	6.3863	3.9918	-1.1709	5.1211	-14.1955	1.7578	2.5420	5.9849	5.9256
576.0332	5.0480	-1.0563	-5.2457	2.5048	1.8924	1.0362	9.1668	4.0407	-2.8315	-9.2172	0.7719	-21.6565	8.0067	-1.3192	11.9442	11.2683
584.0336	3.2156	-0.7787	-3.2963	3.2072	-1.5522	1.7555	4.8292	2.6840	-3.1621	-4.8842	1.8540	-20.5536	1.3076	2.6649	3.6148	3.6298
592.0341	6.2213	0.3563	-3.1897	12.9309	-2.7058	2.7703	5.2607	2.2320	-4.6935	-3.6519	-0.6494	-23.2266	-8.4029	-1.2335	-1.9570	-7.5108
600.0345	3.9952	1.0003	4.3382	9.9161	-2.1728	2.4320	5.1239	1.1855	-5.0341	-2.3584	3.7832	-20.0327	-0.8113	2.0840	-1.3341	1.8822
608.0350	-1.0679	0.0304	6.2624	-1.7240	-4.7939	2.4402	0.2894	1.1462	2.3293	7.0990	11.2592	-13.6986	6.4995	12.9810	1.3524	11.8360
616.0355	-1.0080	0.3561	7.6854	-4.1185	0.9333	2.0971	-0.6259	1.7163	4.1060	7.4575	8.5948	-14.5373	6.0296	11.4784	4.5437	9.5728
624.0359	1.5611	3.4307	13.5053	5.2042	6.4589	4.9190	-1.8870	2.8028	4.9234	7.4461	9.4979	-14.2696	-4.1053	11.3191	-3.8394	-1.6434
632.0364	0.0647	-0.2632	5.1236	2.8110	-3.1164	-0.4997	-1.5377	-2.4493	2.9888	3.2650	4.1974	-21.4777	-4.9155	-1.2850	-4.7004	-8.7812
640.0369	-7.5190	-5.6827	1.8900	-17.3802	-5.6469	-9.7195	-1.7144	-8.7681	-2.9282	-8.0261	-6.3559	-26.6441	11.8099	-11.0588	3.8046	2.1273
648.0373	-9.8869	-6.9988	0.9386	-24.6312	-6.5652	-11.1896	-2.2246	-8.8307	-2.4682	-15.7360	-5.1943	-29.0685	17.9671	-7.8428	6.5905	8.5049
656.0378	-8.0812	-8.7298	-6.7547	-21.8905	-10.2001	-12.5947	1.4249	-9.6517	-6.6364	-25.4612	-5.8736	-40.1667	16.5381	-16.8561	4.8818	3.5436
664.0382	-4.6741	-3.7327	1.3970	-12.7764	1.3828	-5.0207	0.7502	-3.2799	-3.3553	-20.1592	-2.2939	-35.9648	9.3315	-3.8047	-1.8995	3.2136
672.0387	1.4954	1.3737	5.5177	1.1248	4.4695	3.0453	-1.4318	3.7735	11.9294	-6.4423	7.3718	-24.1852	-2.7035	12.3109	-1.6427	-0.3739
680.0392	-1.3229	-2.0856	0.0421	-3.1702	-2.5419	-3.4687	-0.0155	-2.5751	8.4135	-10.5860	0.3976	-25.4267	2.1056	-2.9355	-2.3263	-1.2968
688.0396	-4.0192	-2.9610	1.2608	-6.8308	-0.5284	-4.7338	3.2479	-4.1094	-0.8842	-11.1081	-6.6216	-24.2184	11.5045	-5.2718	-5.6833	10.9430
696.0401	-0.4193	-1.9853	-1.5984	-1.7767	-2.0521	-1.5931	4.9625	-0.9133	-0.2061	-4.0963	-1.0227	-19.1836	9.0926	-2.1797	0.2226	11.1724
704.0405	-1.3157	-2.0757	-1.1820	-0.8116	-4.5155	-2.1740	2.1183	-2.7335	-3.6744	-2.6056	-3.7713	-16.6521	2.8675	-3.3431	-4.1642	2.2726
712.0410	-0.8322	-0.8170	1.8693	3.7523	-4.1572	0.2338	2.7427	-0.8594	-6.2842	1.3674	-13.5148	-14.1203	1.7278	8.1388	-7.9242	10.1843
720.0415	-1.8247	-1.6527	-0.4838	1.2651	-6.8788	-0.2393	2.1119	-0.9247	-6.0615	2.5616	-15.3573	-11.1943	3.1037	10.9068	-6.4344	13.1822
728.0419	-5.2340	-2.1961	1.3664	-1.3811	-9.6832	-2.8215	-2.0800	-5.2900	-5.7926	-2.0970	-10.5092	-9.8323	-0.2554	3.8891	-16.0135	2.2651
736.0424	-1.5814	-0.0780	5.1624	5.6441	-6.8302	-1.8330	-0.8245	-4.5838	-0.7520	-2.5294	-2.5928	-8.3586	-3.2399	-1.4414	-13.0112	-3.5090
744.0428	2.5686	3.0207	8.9385	6.9409	5.6573	2.3649	-0.7918	1.2166	4.6405	2.3865	4.9955	-2.8585	-5.1291	1.4813	-1.5318	-5.6860
752.0433	4.2745	3.5548	8.1307	6.3875	10.9224	4.3794	2.4245	5.0716	4.7620	-0.4637	3.7738	-5.7954	-0.2973	6.7146	3.8082	3.9649
760.0438	4.4278	1.4198	3.2111	3.6079	7.8195	2.1629	8.3698	4.8138	0.1914	-10.4498	1.9942	-12.1606	10.7548	3.1259	9.6921	17.0329
768.0442	3.0268	1.5762	1.8989	0.5510	6.2462	3.8282	4.3105	5.6099	-2.1094	-8.0643	8.7486	-5.1219	6.2325	7.0723	7.6366	10.1307
776.0447	2.6373	0.1710	-3.9669	3.2579	-3.9797	2.9470	2.5558	3.3159	-1.2330	-2.2143	8.0248	-2.2930	0.3562	5.8000	3.1720	3.6429
784.0451	4.4522	0.5656	-2.9836	9.1632	-2.0545	2.0438	8.1009	2.2093	-1.5647	-1.4395	3.2067	-4.0456	5.1349	-2.0314	1.6436	10.7683
792.0456	11.1602	7.3839	9.7252	22.9731	13.6709	10.7838	9.0153	10.1718	1.7335	5.9502	7.5485	2.0901	-3.1010	10.3931	2.4075	9.6543
800.0461	11.2395	6.6075	8.1217	21.1082	9.7876	9.8087	4.1906	9.7335	4.5531	7.2899	5.5051	0.1860	-11.2948	13.5968	7.3744	-1.8481
808.0465	3.9270	0.8971	-0.4897	5.1019	3.8209	1.7968	2.9644	2.9829	0.3965	0.7183	-4.3019	-6.2185	-2.0562	1.7342	5.6842	0.8028
816.0470	4.3742	2.0367	-0.8922	7.1897	8.8813	4.8667	6.2131	6.1038	-0.9589	4.1026	-8.3377	-1.9405	2.2408	7.5534	1.3883	13.0983
824.0474	4.0231	2.2490	-5.3621	7.7162	5.0306	7.8849	2.6388	8.4636	1.3373	12.4197	-8.4793	6.6055	-4.3357	18.4107	-2.1168	10.9262
832.0479	-0.1296	-0.5421	-11.9254	2.3725	-3.4677	5.0856	0.0269	4.4381	-2.8742	13.0606	-9.8641	9.3070	-5.1881	13.8311	-9.7221	6.4179
840.0484	-2.1816	-2.4358	-13.0260	-1.6816	-4.4458	0.3241	0.9627	-0.1164	-6.4997	5.9657	-11.9358	6.2733	-1.2583	0.0000	-10.1862	3.2207
848.0488	-7.6064	-5.6438	-17.3437	-17.0621	-5.0378	-5.2912	-5.0214	-4.2365	-2.5625	-0.2826	-9.8114	5.9572	0.3346	-9.2058	-7.1780	-6.5642
856.0493	-11.5474	-9.0227	-24.7638	-21.5250	-14.9184	-9.8808	-5.3657	-9.5340	-6.4052	-7.6865	-11.4376	4.8010	2.5570	-18.4583	-15.4506	-8.9006
864.0497	-9.3476	-8.1412	-24.0887	-14.2613	-14.4004	-9.5840	-1.2401	-9.4439	-14.1761	-15.2030	-17.6359	5.7892	2.2449	-21.1536	-18.7152	-6.8287
872.0502	-2.8228	-2.4346	-17.7141	-8.7323	1.0100	-0.5174	-0.3676	1.9983	-9.4239	-8.4729	-11.9548	23.3977	0.5159	-1.7654	-3.4416	1.7200
880.0507	1.8641	0.6426	-14.2120	1.0713	0.1667	4.1744	4.3755	6.4965	-8.6896	0.2539	-6.4237	40.0896	4.7884	7.7352	4.5621	16.6305
888.0511	-0.2509	-0.3764	-11.3525	1.4862	-7.9555	0.9322	4.8633	1.7042	-13.4870	0.7995	-7.5618	44.3528	8.8124	3.2826	2.7657	19.8498
896.0516	0.0289	1.4206	-4.4971	1.1030	-5.7563	2.0099	0.9582	2.7062	-6.8597	3.9124	-1.6060	48.9289	6.0617	9.3776	7.3820	16.4393
904.0521	2.7176	4.0405	1.5104	10.8457	-2.5824	3.3514	-0.3584	2.5447	-1.7025	3.8054	-1.0583	46.6952	-3.5847	7.6286	0.7133	5.2011
912.0525	2.9928	3.6826	-1.9615	13.3388	-1.1776	3.5117	0.1937	2.3055	-2.6553	3.3688	-7.2029	41.1935	-7.9005	4.4493	-6.7488	0.5896
920.0530	2.6846	2.2485	-6.1128	11.9587	-7.9053	3.0223	3.4102	2.6092	-0.2173	7.3044	-7.2275	44.2930	0.9942	8.6798	-1.6550	16.1000
928.0534	1.6589	2.8164	-0.6682	13.1907	-6.2667	0.6679	3.1031	-0.6525	3.1113	4.4097	-6.1703	43.8174	2.1953	1.0273	-6.1081	13.6720
936.0539	3.6467	5.1521	2.3200	12.2341	9.0149	3.1307	1.3945	2.8490	6.5852	4.9482	-3.4872	43.3915	-3.0314	-2.4309	-3.6066	3.4484
944.0544	4.3920	4.4812	-2.2200	8.6058	6.0362	4.9968	0.0683	5.8414	7.6727	14.9281	-1.5214	48.9990	-3.0727	6.1495	7.2852	6.5398
952.0548	2.6382	2.5618	-8.4094	6.8576	1.8066	4.0127	-1.8114	4.3065	4.2423	13.8046	-7.2398	42.9622	-8.3735	5.0197	-0.1454	-0.6740
960.0553	3.8902	2.3286	-13.4016	7.8519	8.3613	4.6026	2.0317	6.0772	1.4078	3.4914	-10.8024	34.3003	-7.6694	-0.6992	-5.2143	-0.6556
968.0557	3.2343	1.6729	-14.0807	5.6842	2.8635	4.7473	2.6726	6.6645	0.8597	2.9934	-7.6382	37.2352	-2.4153	6.0029	-0.6779	8.4634
976.0562	1.9441	0.6572	-17.2511	2.8753	2.9172	4.7113	1.4581	6.8233	-2.9500	-0.2669	-12.0168	32.0193	-4.9083	7.6739	-4.5056	5.3056
984.0567	1.5681	0.6266	-19.1494	0.4590	13.1547	3.3970	2.0289	6.7076	-3.9547	-9.8678	-17.8332	27.7756	-6.1388	-2.3637	-9.2279	-1.2025
992.0571	3.3590	4.3459	-11.7905	3.7974	18.0456	6.5787	-3.5486	9.1001	8.3390	-2.0067	-5.0108	43.5643	-13.7933	2.6361	-6.2804	-10.7343
1000.0576	5.9385	5.9298	-10.4573	8.3851	17.4859	8.6828	-2.3676	10.7071	11.3578	2.7878	4.9428	51.4662	-13.8101	2.5694	-2.1373	-10.1605
1008.0580	1.7641	2.7418	-11.7763	0.7362	10.5833	2.5627	-0.4922	4.8675	3.0163	-6.9547	2.6591	50.9702	-2.9804	-7.8602	-0.8575	-3.7780
1016.0585	2.4373	4.8242	-5.7527	0.8521	10.7527	4.6316	-7.3386	6.5377	8.6100	-1.9303	9.7729	59.4201	-11.9888	1.6907	4.6899	-14.6865
1024.0590	2.0752	3.1234	-9.0523	0.3132	7.8634	1.9839	-7.4789	3.6500	6.8601	-1.6142	5.9413	52.3121	-14.6946	-6.8365	3.8451	-22.3084
1032.0594	-7.2046	-3.9035	-15.5141	-11.8607	-8.7965	-8.7990	-8.0651	-8.3369	-2.1856	-11.4028	-6.2523	38.2068	-5.3659	-21.6063	-7.8686	-19.8268
1040.0599	-2.5918	0.0790	-8.8614	-2.3587	-9.0091	-1.1541	-7.3818	-1.1769	2.9593	-3.0103	2.7419	44.4058	-7.4414	1.0578	-2.6897	-9.3810
1048.0603	5.2585	4.6079	-2.2214	10.5936	-0.4097	5.8520	1.9123	6.2452	0.1478	5.2861	9.1646	51.4076	-0.7546	7.8700	8.8464	8.3713
1056.0608	5.4689	4.2201	-0.9374	10.7679	1.7550	4.5551	5.4336	4.8562	-4.5502	7.8342	5.9482	49.0871	4.5595	0.7030	10.9644	13.1272
1064.0613	7.3310	5.8789	2.2059	11.5815	6.3886	7.7389	3.2310	8.5193	-1.1653	13.0557	7.7906	47.7934	-0.1236	9.6880	15.9844	10.3339
1072.0617	1.0778	3.1881	2.6440	2.0665	0.0248	2.1799	-3.8828	1.6903	-3.0689	9.3435	5.9850	46.3344	-3.3481	3.0167	9.3719	-2.6825
1080.0622	-2.4249	1.2839	2.1080	-3.6125	-5.2138	-2.1116	-8.6225	-2.6873	0.9141	4.5246	4.6469	43.8329	-5.6182	-0.7684	6.8530	-10.9098
1088.0626	1.4715	3.0950	6.7934	-3.3653	3.2504	0.6441	-3.4533	3.0502	3.3328	4.0018	6.1714	41.8066	4.1669	7.6739	23.8235	6.1477
1096.0631	-0.6858	1.3332	6.0790	-6.9100	-0.6687	-2.3937	-3.9944	-0.5427	-1.2633	1.4849	5.8712	37.6439	5.5903	0.8113	22.6115	2.6265
1104.0636	-0.8069	-0.4888	-0.5846	-3.2675	-10.2134	-4.3002	-4.6745	-3.3832	-0.1062	-3.6810	4.3666	29.9668	-1.0240	-3.6218	14.1518	-6.6825
1112.0640	2.8988	0.9385	1.0682	1.4286	-4.3858	-1.7893	1.3173	0.6218	-0.4580	-5.0475	2.1697	25.8549	4.7543	0.1839	20.3144	5.9341
1120.0645	5.4015	1.8716	3.3510	5.1740	-1.0413	-1.4567	1.9031	0.7096	-0.3361	-1.3693	3.3666	22.5451	0.9314	-5.4003	23.8682	-1.3734
1128.0649	3.3289	-1.2383	-2.0812	1.9010	-10.2586	-5.8730	0.4874	-3.9150	-0.6110	-4.6469	1.3440	14.3070	-0.5754	-13.0873	22.3633	-8.6045
1136.0654	1.1815	-1.5210	-4.5547	-1.2510	-7.4510	-4.3431	0.8064	-2.8196	-1.4485	-0.9745	0.0655	15.7965	2.5041	-10.2213	15.1032	-2.2003
1144.0659	4.9516	2.5907	-1.9565	5.4559	5.2124	3.3549	1.1233	4.2336	6.3182	12.4490	6.5101	21.3255	-2.6781	-1.8469	11.6640	-1.5198
1152.0663	3.6311	1.8078	-0.0620	1.3985	5.0497	2.7089	0.9231	4.2066	7.3158	10.9596	5.7457	12.4769	1.2334	2.4826	13.9268	3.6977
1160.0668	2.1442	0.4220	-1.2064	-1.0962	4.5877	1.5155	1.2694	2.5543	0.6614	6.7245	3.5147	1.2106	1.1403	-1.3695	9.4608	0.3433
1168.0673	0.2216	-1.1487	-1.3054	-4.2437	2.1314	-1.3249	1.3269	-0.9555	-2.0139	5.8859	4.5139	-5.0088	3.4298	-9.5717	7.8086	-2.4185
1176.0677	-7.1061	-3.6471	4.5004	-13.6065	-5.3093	-6.5789	-3.6269	-7.4386	-4.2857	1.4026	-2.3371	-11.8790	7.7022	-6.3738	0.4548	0.3246
1184.0682	-4.4918	-0.3264	10.0736	-4.3907	2.8824	-1.7900	-4.6382	-4.3350	-4.3219	2.2485	-3.5739	-17.5071	-3.1306	-1.0063	-10.8138	-8.5788
1192.0686	-2.1688	0.7371	12.4680	-1.2547	6.0871	-0.8595	-1.3311	-3.2713	-3.8976	0.7149	3.1123	-20.3638	-0.0007	-5.0417	-7.5193	-6.2771
1200.0691	-2.9687	0.1857	14.1374	-2.8389	0.9184	-2.3556	-1.8640	-4.3141	0.2989	-1.0071	5.0545	-19.7920	3.8043	-1.2525	-3.2946	-0.7474
1208.0696	-0.7330	0.6829	12.1212	-0.5690	3.5645	-2.2279	-2.6885	-3.2517	6.6383	-0.2033	4.1218	-19.9907	-1.4858	-3.8726	-0.0127	-8.0703
1216.0700	-6.7211	-3.8366	7.6194	-13.1030	-4.2683	-9.2974	-5.8253	-9.9822	1.7668	-7.2391	-0.0149	-26.2085	2.4948	-13.8454	-0.4540	-12.9493
1224.0705	-6.9146	-3.3505	7.1367	-10.6555	-4.9942	-6.7154	-6.7625	-8.3684	-2.9257	-10.1544	-1.8554	-30.4674	-2.5188	-6.1355	-9.0643	-15.0357
1232.0709	-3.3234	-0.2295	9.9152	-5.2407	5.3595	-2.2714	-5.5758	-3.8815	1.3574	-4.8440	3.4109	-25.8560	-5.6062	-5.0096	-8.2707	-16.6080
1240.0714	-5.2543	-3.1223	7.1062	-11.1665	-4.0120	-7.5242	-6.6422	-8.7400	2.9850	-1.8544	5.6844	-24.4549	-1.2952	-13.7899	1.0758	-18.1512
1248.0719	-3.1991	-4.9621	0.6471	-8.6399	-14.4695	-7.6015	-2.6082	-7.8602	-1.3064	-3.9493	4.0203	-29.6727	1.7995	-9.0407	8.1053	-9.9394
1256.0723	-7.0414	-5.9280	-2.3338	-17.3936	-11.9387	-7.2020	-4.1378	-6.8799	-1.2358	-4.0909	3.6954	-25.1737	7.2161	-4.2430	4.2828	-2.3077
1264.0728	-8.1053	-5.6656	-3.9732	-20.4299	-6.5084	-7.5811	-7.2934	-7.0064	5.3620	0.6906	2.5998	-18.4685	3.8043	-8.3867	2.2735	-9.0170
1272.0732	-2.8837	-3.5057	1.0897	-10.2764	-1.3655	-6.4931	-1.0627	-5.3751	2.9170	-3.4939	0.0584	-23.4069	5.1848	-12.3382	7.3038	-5.2485
1280.0737	-6.0035	-2.8151	9.8606	-10.6920	-1.4321	-6.6546	-1.5822	-7.3199	-1.8499	-8.0431	-1.0742	-27.6409	9.0391	-7.0584	-2.3841	1.2852
1288.0742	-7.7599	-3.5593	9.3014	-14.0066	-3.0354	-6.6777	-3.0290	-7.5408	1.2726	-4.9336	-0.0368	-31.0273	10.3530	-3.4169	-4.1929	3.7084
1296.0746	-9.0932	-5.7337	7.1540	-19.6550	-5.9703	-9.2510	-1.3465	-9.1247	-0.3464	-8.0006	1.0134	-39.3490	17.2741	-7.0173	1.1900	8.6682
1304.0751	-7.9822	-4.9444	5.8495	-13.8686	-7.6485	-6.5441	-3.2499	-7.8494	-2.3456	-9.2081	0.0132	-44.8802	6.7456	-1.7953	-8.5975	-1.0888
1312.0755	-3.0846	-3.7225	1.9853	-4.7551	-4.2609	-4.2343	0.1107	-5.2408	-3.8101	-10.9753	-2.0316	-47.9165	-0.1255	-6.2024	-9.2590	-8.0166
1320.0760	-3.2205	-2.9197	4.8122	-4.9013	1.0146	-4.9788	1.3507	-6.2568	-1.2798	-12.2816	3.2178	-45.9483	3.2817	-14.9185	-10.8520	-8.2696
1328.0765	1.0472	0.8350	6.3829	4.4970	3.3245	2.8221	-0.8596	0.4935	10.1627	-0.4248	13.3846	-40.3419	-6.5929	1.3776	-13.2594	-10.6155
1336.0769	0.7018	-2.1903	-0.7899	0.9360	-6.7432	1.3477	1.7182	0.1654	3.3673	-1.4934	10.2846	-45.8492	-1.2947	4.7194	-5.4559	-2.4180
1344.0774	-2.2698	-4.6770	-1.6286	-4.1829	-6.5637	-3.9161	4.6059	-4.8275	-6.0406	-11.0245	2.2124	-53.4569	5.9830	-9.2090	-8.2390	-0.4642
1352.0778	4.2913	0.8347	5.7918	7.1777	7.6604	3.0614	5.0125	2.7909	4.6463	-5.6929	5.0767	-48.9362	-2.1476	0.7973	-5.1622	-2.5708
1360.0783	4.1954	2.0919	10.5438	6.1915	6.8971	4.7932	2.3537	4.7914	7.1207	-4.0209	8.1281	-42.5673	-2.2029	12.6595	-0.1021	1.1820
1368.0788	3.5112	2.5773	11.9531	6.6468	8.9608	3.7793	2.0915	2.9466	7.7583	-2.0202	9.6334	-35.4376	-1.9168	5.1619	-3.1621	-1.6461
1376.0792	3.0171	1.8598	9.0196	5.9332	8.0832	1.8600	1.7112	0.8742	9.6319	3.1728	7.5945	-28.4322	-2.3330	-2.7493	-2.6500	-4.8890
1384.0797	0.0538	-0.4892	5.6803	2.0450	0.3467	-0.6070	2.0439	-1.8077	1.8385	-0.1888	1.4540	-28.3272	1.5636	-1.8766	-4.9580	0.4046
1392.0802	5.4724	2.8615	10.0482	6.8785	13.6622	4.0146	7.5763	4.7274	5.1555	2.5516	6.3370	-25.5893	6.8447	0.8601	6.2904	10.7911
1400.0806	-0.3059	-0.5071	9.2190	-5.8932	8.7253	-1.6140	3.6971	-0.6689	2.9460	0.2306	5.0345	-28.7134	11.7897	-5.1049	8.1229	8.5638
1408.0811	-7.8094	-5.4609	2.5088	-12.2901	-6.4926	-8.2049	1.2729	-9.3473	-11.1160	-12.6720	-6.7055	-36.3390	11.4352	-11.9496	-10.1405	3.5013
1416.0815	-0.2713	-0.7195	5.3693	-0.8864	4.9893	-1.0960	6.3476	-1.0436	-8.0520	-6.9733	-2.5382	-24.1711	10.2779	-4.9667	-1.4629	10.5877
1424.0820	2.9825	1.4179	7.5708	3.3053	3.0160	3.0805	4.0947	3.3537	-0.6153	5.0750	3.5205	-14.1101	5.7298	9.1343	8.6360	11.9589
1432.0825	6.0977	3.0215	10.0592	12.7413	1.1608	4.9887	7.3965	4.7049	3.6393	3.8768	5.2622	-17.0683	5.4876	12.8464	6.1455	17.2746
1440.0829	7.0183	4.5538	16.3972	11.1168	11.4311	3.3469	8.8164	3.8454	7.0987	1.6203	12.3614	-12.6099	10.6966	-0.2914	13.0089	15.4331
1448.0834	3.0713	1.2492	11.6926	1.0722	3.0599	-1.5587	3.8698	-0.9656	0.8700	0.7822	12.0339	-8.2240	9.0579	-7.3776	18.0721	4.4242
1456.0838	5.4413	1.9655	8.6282	4.2463	-0.5731	1.5185	5.3236	3.3107	0.4328	1.6355	10.4831	0.9923	9.5760	5.8666	24.4445	13.9429
1464.0843	3.9811	2.8006	8.4516	1.1412	2.2581	2.0443	-0.0444	3.9796	7.8550	4.1217	12.0919	12.6156	4.4536	8.7975	22.5009	7.1588
1472.0848	3.6605	0.4488	0.0012	0.0685	-1.0556	-1.0039	0.7456	1.2489	7.3957	1.5197	8.7265	8.1032	2.2979	-3.3397	20.1091	-0.6248
1480.0852	6.1755	-0.0669	0.1692	3.3516	-2.0333	-1.3186	9.0040	2.1772	0.9057	-2.4120	4.7769	0.3923	13.2182	-4.1010	27.6711	16.2683
1488.0857	3.9186	0.3961	5.5568	2.6149	-2.6387	-1.2334	3.5311	0.2886	-0.6466	-0.0862	4.1201	-3.5047	5.4721	-0.6533	20.0633	5.3529
1496.0861	8.1317	4.1978	7.5330	12.8417	4.6482	5.7673	3.0572	5.7301	5.8821	10.2503	11.0347	-1.1860	-4.5348	6.3425	13.1307	-0.6882
1504.0866	10.8069	7.3647	10.9743	20.6628	7.2634	12.2273	6.3061	11.2790	8.7505	18.8242	16.1740	7.5062	-1.5516	20.7989	10.4221	14.7285
1512.0871	8.5449	6.1020	9.1758	17.8929	3.6847	10.3432	3.8568	8.8989	8.6513	17.6369	14.0316	6.5231	-3.5635	19.1075	6.1467	10.2151
1520.0875	7.8587	3.3706	3.3802	10.3621	7.2350	6.4819	7.6524	7.2908	6.3377	10.2993	12.6765	-4.9257	4.5861	4.8778	12.5876	11.9242
1528.0880	1.0683	-1.5057	-3.7030	-0.9534	1.3666	1.1104	7.2469	1.5677	-4.7695	-1.9119	4.7575	-21.0720	9.5996	-3.4479	0.3543	11.2889
1536.0884	-0.5448	-1.2369	-5.9839	1.9186	0.8094	2.1852	2.2453	0.7700	-4.4260	-5.3727	-0.0149	-24.5620	-3.7013	-1.2463	-17.6027	-4.0038
1544.0889	5.2556	3.6022	1.0045	12.2312	8.9815	7.9422	3.3071	6.8626	5.3181	3.3551	6.0542	-11.3741	-7.0720	8.1231	-10.3488	-0.4062
1552.0894	3.4603	2.0510	0.6845	9.8344	2.2888	5.0457	3.9097	3.9289	4.8429	0.2235	6.4452	-11.8105	-1.8378	6.0794	-9.1625	4.4813
1560.0898	0.2318	0.2370	-2.6475	3.7909	1.2621	2.6957	1.0981	1.6380	5.4307	-8.2512	6.7232	-19.3522	-3.3470	1.9858	-16.3106	-2.5684
1568.0903	0.5426	2.0701	4.8284	2.0171	8.6075	3.7528	-0.6140	3.0396	4.1981	-5.6890	7.5827	-14.4151	-3.1871	4.8041	-10.0466	-3.2783
1576.0907	0.8433	1.9525	8.8904	2.7238	7.7445	0.6834	-0.4881	-0.3085	-0.9178	-1.4490	2.1871	-8.3216	-2.8456	-3.3898	-2.7641	-6.7328
1584.0912	2.7566	2.3567	3.7589	7.4783	4.5401	3.1819	-1.6336	1.5483	3.4229	5.7570	4.0521	-4.7771	-10.2638	0.0316	-5.3733	-12.2136
1592.0917	5.5511	4.2604	2.2681	12.8908	3.7591	10.3791	0.9553	8.6034	5.9940	12.0097	10.8600	-3.7233	-8.9733	19.3020	-6.2198	1.7983
1600.0921	3.2126	2.7676	3.4758	6.1386	6.0567	7.5304	5.0204	7.1438	1.1239	4.7756	7.7807	-7.7165	4.6882	15.2227	-2.5206	16.3263
1608.0926	-2.9606	-1.1884	-0.8045	-5.6544	2.8373	-0.1680	1.1979	-0.2428	-1.1486	-2.8974	0.2253	-10.8556	6.3584	0.1238	-7.0316	7.1277
1616.0930	-0.8628	0.3227	-2.0094	1.0220	2.3662	2.6575	-0.0388	1.2640	-0.0473	2.2823	2.3901	-5.1486	-2.2455	1.8946	-11.9382	-0.8210
1624.0935	2.9972	2.6439	-0.8200	7.4244	6.7927	6.8816	2.1747	5.4751	-2.3868	7.1835	4.3838	0.5407	-4.8231	6.3866	-8.3914	0.5637
1632.0940	-2.8210	-1.9824	-5.8551	-4.4085	-1.8526	0.0243	-0.7676	-0.8890	-9.3570	0.5996	-4.2732	-5.1842	-1.5387	-0.8104	-8.5260	-2.8387
1640.0944	-6.1972	-2.9829	-4.2424	-9.1338	-4.1192	-2.8799	-3.1887	-4.4500	-9.1724	-2.6959	-2.8878	-3.7680	0.3859	-5.1842	-12.4240	-5.0920
1648.0949	-6.5991	-2.0649	-1.1367	-10.3477	-4.7099	-1.7451	-5.5234	-3.6923	-6.4870	0.6971	3.9391	3.0212	0.3136	-0.3794	-9.8025	-4.9230
1656.0954	-8.4943	-5.0455	-3.8220	-13.4888	-14.9447	-6.3500	-5.6961	-7.9223	-10.8055	-3.1842	-3.6234	-3.0783	2.2738	-2.7275	-6.3430	-4.4237
1664.0958	-2.5827	-0.3815	3.7907	0.2667	-1.8686	-2.0849	-2.8331	-4.1923	-8.0853	-1.0905	-6.5138	-1.9596	-5.2017	-4.2291	-9.2561	-9.4516
1672.0963	2.6210	3.2799	7.1756	8.2818	5.8048	3.3427	-2.9549	1.4629	-1.2449	8.7638	-2.1215	5.1227	-12.0734	2.8381	-3.4331	-12.5031
1680.0967	1.7508	-0.0456	1.5924	3.2406	-6.5248	0.5499	0.1634	0.5237	-1.6768	6.6860	-3.2580	-0.2452	-1.2939	8.0574	8.1619	3.2498
1688.0972	2.2258	1.5888	4.6088	4.3222	0.9370	3.6743	2.0415	3.6158	0.6351	4.9923	0.5212	-4.9217	1.7617	12.5750	3.1916	10.0147
1696.0977	-1.8864	-1.3797	-0.4294	-5.7415	0.9970	-0.0378	-1.8499	0.0752	0.4863	3.2839	-1.3183	-14.7289	-0.1671	3.4203	-0.6956	-1.1459
1704.0981	-4.6882	-5.9440	-6.7425	-15.1608	-3.5594	-6.8608	-0.9211	-4.7389	-7.2346	-7.4268	-12.3665	-29.1321	4.3857	-7.9796	5.0302	-3.6859
1712.0986	-0.5936	-0.0017	2.9668	-5.1193	10.7696	1.3685	-2.4583	2.2845	-2.9981	-1.1895	-7.6450	-20.8950	-4.9146	4.6413	-0.7785	-7.1235
1720.0990	-2.9680	-0.1516	2.4288	-5.1193	1.6455	1.6629	-7.6734	0.5586	5.2216	9.2523	-2.2026	-10.5503	-9.0903	11.1139	-6.5806	-9.6445
1728.0995	-7.0797	-4.7914	-6.0655	-14.0477	-9.2216	-4.2880	-6.7376	-4.1830	0.2322	2.0652	-9.3748	-13.2917	-1.0851	5.3572	-4.4249	-3.4337
1736.1000	-6.7709	-3.0722	-5.8591	-15.6900	1.8477	-2.3144	-7.8346	-1.7141	-2.3357	2.5713	-9.9321	-1.6886	-3.5980	2.4718	-5.1908	-8.2806
1744.1004	-8.7548	-5.2996	-9.6629	-18.8133	-4.6960	-8.1960	-7.8639	-7.5213	-4.5399	1.8080	-13.3789	10.3837	-0.4316	-12.5575	-1.6901	-11.5004
1752.1009	-8.0403	-6.1586	-10.4378	-18.6643	-6.2011	-10.9022	-3.5115	-8.9170	-11.9854	-7.9717	-17.9813	12.4136	6.2319	-18.8179	4.3853	-5.1116
1760.1013	-5.3633	-1.7781	-3.3466	-14.5970	5.3391	-4.5082	-5.9945	-2.8921	-7.2871	-2.6874	-9.7974	20.7113	0.1498	-8.2626	4.1389	-8.3615
1768.1018	-6.5744	-2.6937	-3.0292	-14.5642	-3.3821	-5.7777	-7.4347	-4.8998	-1.2657	-0.7523	-5.9902	18.4526	1.1079	-4.6972	3.2457	-6.0428
1776.1023	-5.6855	-4.1697	-6.7926	-12.1431	-10.0658	-6.3054	-1.8680	-5.0569	-5.3911	-7.2919	-6.1463	9.2602	7.9508	-4.2720	3.3414	5.0794
1784.1027	-1.9680	-2.6100	-8.4151	-4.9350	-3.9111	-3.1290	1.1775	-2.3675	-6.9724	-3.0328	-5.9606	6.4970	3.2481	-8.2781	0.5838	0.6609
1792.1032	-1.4096	-2.3462	-7.3149	-2.0514	-3.7418	-2.7403	-0.5160	-2.5185	-4.7889	-2.6858	-9.7307	-2.2338	-3.2984	-6.2961	-3.7610	-6.2498
1800.1036	-2.7366	-2.8716	-5.8927	-3.9589	-6.9275	-2.8773	-0.0044	-2.0100	-3.0775	-10.7232	-9.8585	-9.2808	1.5699	2.5979	-5.0698	3.3668
1808.1041	-1.5066	-1.9114	-3.5558	-0.7147	0.0585	-3.0751	5.4522	-2.1684	-3.9611	-14.6330	-9.3437	-11.6064	8.2063	-6.7797	-7.9378	9.9949
1816.1046	0.7389	1.4303	1.6988	6.1088	10.3658	0.9935	5.2699	0.1812	-1.8840	-8.6418	-4.5186	-9.3467	1.9293	-8.8108	-15.8213	2.7995
1824.1050	3.2245	2.0821	-0.8412	12.9851	1.1940	3.5441	5.6934	2.2102	3.0198	-0.5367	-1.7552	-0.7508	-0.5042	1.6454	-13.0060	8.1179
1832.1055	6.9705	2.9876	-0.4810	21.0394	-1.4152	4.2254	10.6045	3.5078	3.3026	1.8592	-6.4795	4.0496	2.4120	3.7874	-6.4526	18.0078
1840.1059	7.3607	7.3373	7.6324	21.0440	11.3698	10.8196	2.6538	8.7554	9.0417	12.9848	2.3975	14.1954	-9.7528	15.8404	-10.3122	4.9060
1848.1064	4.0054	3.3355	-1.9339	13.2214	-2.0737	6.7038	0.3900	4.7469	11.1663	17.8548	4.8975	17.7183	-7.0324	11.5482	-6.6522	4.1433
1856.1069	1.2451	-2.4660	-11.6022	7.9632	-11.4122	-2.8330	9.0045	-3.2276	1.5485	4.0525	-8.1651	4.9678	8.7278	-11.1247	-5.3608	15.8650
1864.1073	1.6956	0.7095	-6.1636	8.4570	3.5708	1.4717	4.4222	0.7352	1.3880	1.4133	-8.3953	3.9229	-2.0253	-6.2764	-13.5604	2.4698
1872.1078	3.9448	1.5776	-7.5382	10.2550	3.2969	3.5715	3.1095	3.8028	3.0637	2.6411	-7.9341	9.0567	-6.5787	0.9653	-7.1883	0.1187
1880.1082	3.4349	0.2493	-8.2938	7.7885	-1.9849	1.3845	6.7883	2.9045	-2.7871	-3.6993	-10.0779	12.7453	3.5065	1.7325	0.7611	13.4676
1888.1087	2.4056	0.5022	-6.9766	5.6556	-4.6528	1.4850	1.9828	2.5940	-5.7162	-4.6459	-7.9757	20.2583	-2.4148	5.8366	2.2034	4.5825
1896.1092	-0.9938	-2.3057	-11.6763	-1.3741	-9.4107	-4.1520	-2.3824	-3.0439	-7.5486	-8.2378	-11.2790	22.1709	-6.2814	-7.2019	1.5506	-10.1722
1904.1096	-4.5568	-2.1196	-8.8854	-7.4808	-3.2587	-5.4449	-5.3536	-4.6301	-5.2454	-11.4614	-10.0233	25.4497	-4.6868	-11.2111	-5.2198	-12.6960
1912.1101	1.5557	2.0019	-1.8335	6.8172	-0.6295	-0.7564	-0.9018	-0.4828	1.0290	-5.6342	-5.1076	31.9961	-5.0630	-4.2445	-1.4777	-4.3341
1920.1106	4.2530	2.3863	-2.6645	13.1467	-3.1489	-0.7698	4.3077	-0.7510	2.4536	1.3120	-4.3878	37.6022	-0.0207	-9.2969	2.7013	4.2943
1928.1110	-0.1678	-0.2459	-10.3596	1.3938	-1.2344	-1.4910	2.3858	-0.6675	-4.7809	-1.1451	-8.3238	35.5976	2.3810	-9.4591	-1.3612	4.3394
1936.1115	0.0975	-1.7595	-16.0742	0.9111	-2.3363	-1.8781	2.5703	-0.3242	-11.8218	-8.6314	-16.5100	24.8132	-2.6377	-9.5450	-3.9361	-1.9974
1944.1119	-1.0944	-1.8886	-18.6346	2.3385	-4.4301	-1.5246	-0.4475	-1.1607	-8.5831	-4.3115	-20.0326	27.3029	-9.2151	-8.0893	-13.0034	-8.1723
1952.1124	-1.6319	-2.0325	-22.5742	2.8378	-6.5210	0.5538	0.3171	0.7798	-9.0022	-0.1063	-23.3692	32.9017	-7.8854	-0.2085	-16.8997	0.1731
1960.1129	-2.0724	-1.9775	-21.8991	6.1726	-8.5142	0.0140	0.1101	-1.0359	-11.0089	-2.8640	-25.5040	30.4558	-11.1236	-2.6855	-24.9313	-3.9985
1968.1133	-5.5315	-0.8936	-18.3950	3.4505	-3.6638	0.7677	-8.6366	-2.2685	-6.1492	-1.4150	-24.8545	30.7936	-23.4884	-0.9101	-39.7586	-22.2278
1976.1138	-1.5143	2.0376	-11.8971	6.6908	8.3908	4.7885	-5.0699	3.6694	-4.4068	0.2303	-26.8625	28.9385	-19.7873	7.7755	-29.8726	-11.6062
1984.1142	0.8246	3.3321	-7.5220	7.9541	10.8003	5.5361	-1.7915	5.5371	2.0774	5.1794	-20.4998	33.3335	-11.4442	9.2975	-17.9425	0.3773
1992.1147	-1.0247	0.1427	-17.1490	2.2749	2.7776	2.6813	-0.9702	3.9345	0.5316	-0.7941	-21.4002	32.6886	-7.3075	6.2726	-15.9822	3.3592
2000.1152	-0.2518	-0.5612	-19.8245	1.6889	8.1538	1.3199	2.6553	4.0257	-9.3167	-11.4405	-30.9625	27.4385	-5.6299	-1.0188	-15.3476	3.0922
2008.1156	-5.1034	0.2704	-16.6374	-4.8420	8.6214	0.3955	-9.0579	0.7238	1.2657	1.2746	-22.5639	47.3834	-15.7221	-3.1068	-22.6955	-15.8134
2016.1161	-7.1777	-2.0419	-21.5811	-10.8165	-0.9694	-2.8060	-9.9128	-1.5037	3.1843	0.7085	-19.8054	56.7954	-9.9244	-3.7610	-15.1354	-10.5696
2024.1165	-3.9547	-1.1786	-17.5256	-9.3566	6.9873	-2.1744	-2.5399	1.4289	-5.7986	-9.3210	-23.8408	48.4923	-0.4449	-4.3076	-4.4474	2.2248
2032.1170	-5.1491	-0.2249	-16.5707	-12.3243	5.6723	0.9397	-9.2877	3.3151	2.5356	2.7296	-12.2470	54.8972	-7.0847	5.3210	-5.1286	-5.2182
2040.1175	-5.5877	-2.3048	-20.1797	-14.4996	-3.7892	-0.9789	-6.3384	1.8710	2.4108	1.3757	-6.6458	52.5423	1.3056	4.4933	0.9871	4.4863
2048.1179	-4.3892	-0.5782	-13.0662	-14.5924	5.9960	-0.3645	-4.2965	2.9236	0.5551	-2.0246	-2.7416	49.1228	5.1845	0.1427	4.7534	5.7567
2056.1184	-2.7082	1.1463	-11.4396	-14.9831	9.6168	2.6207	-8.4734	6.2059	7.1873	3.6904	6.2645	53.7946	-1.5247	5.8962	10.5083	-2.9758
2064.1188	-1.1915	0.7353	-9.3200	-11.7969	7.3628	0.2894	-4.6647	4.5754	3.0629	-6.7941	3.2888	46.0071	2.0369	1.2851	14.1645	-0.0197
2072.1193	0.7036	3.5865	-0.7878	-4.0334	11.7936	2.4553	-3.8284	5.2967	5.3157	-4.0020	4.4626	46.6847	0.0248	3.4171	9.8452	0.7036
2080.1198	5.9170	7.0897	6.0294	4.1650	14.1789	8.2668	0.0741	11.2661	11.2265	8.4315	13.9075	53.3991	4.5588	16.7970	21.6342	15.8240
2088.1202	5.9115	6.9399	11.7878	1.4691	14.0046	6.8976	1.8148	10.6627	7.2109	4.7722	16.2054	48.8784	11.7473	17.4775	31.1727	22.6260
2096.1207	1.1966	4.6678	7.4722	-6.2379	10.6528	4.8127	-4.3278	7.7943	3.8683	0.7692	12.7037	44.1938	5.0851	16.8240	21.3262	9.9070
2104.1211	0.1566	4.6612	6.2833	-5.7997	14.0574	5.5646	-3.9882	8.2600	0.4190	-2.6899	4.9325	39.9980	3.3826	18.4163	11.9207	10.3729
2112.1216	0.2725	5.0230	9.4475	-4.1359	12.1548	4.7456	-4.0621	6.9384	4.1385	1.8992	5.6939	42.6347	4.7273	17.8549	13.7810	12.4704
2120.1221	-1.7004	1.4403	1.5353	-9.9629	-0.7758	0.5067	-5.1623	2.7383	8.3121	8.5101	11.7423	44.2648	8.1416	10.2352	20.6263	11.0369
2128.1225	-3.1917	0.4906	3.6172	-12.7536	6.1997	-3.2977	-3.7862	-0.8659	1.3452	-1.1044	3.8403	32.7453	9.3031	-4.4587	16.2005	4.3676
2136.1230	0.7392	3.4434	8.4281	-3.2635	9.7977	0.6989	-4.2507	2.4062	3.9771	1.2064	4.4003	30.9015	0.4759	2.6734	14.5623	-1.3372
2144.1235	1.8198	1.6973	1.4180	-0.8360	-6.5089	1.3884	-4.0952	2.3174	7.5038	8.4312	14.4946	31.2188	-0.0954	8.6816	18.9507	1.0547
2152.1239	-2.4434	-0.0074	6.5503	-5.2359	-4.4753	-4.8309	-5.8945	-5.2730	-1.2408	-4.9756	8.2867	16.5854	-1.2553	-8.6811	8.1427	-12.5664
2160.1244	0.3246	3.6454	17.0628	1.8321	3.6819	-1.1150	-6.6170	-2.4976	2.5469	-2.9386	11.7554	12.6593	-6.2759	-2.4592	6.3372	-15.6576
2168.1248	3.0391	4.1791	17.5068	3.8481	-2.5743	2.4889	-2.5003	1.3907	10.0572	12.1705	25.3037	15.6201	4.0292	9.3570	19.8042	4.5131
2176.1253	2.2877	1.7490	17.4845	1.9725	-4.6559	-1.9607	3.4876	-2.4198	0.4830	4.3633	17.9223	1.4523	14.0278	-1.4471	22.6260	12.7419
2184.1258	5.5849	2.5310	19.8188	9.9892	-4.7386	-0.6695	6.5104	-1.2031	-4.1942	-1.1463	11.9354	-12.4157	10.0524	1.6547	21.5575	11.6805
2192.1262	6.0462	3.1331	22.3909	11.6723	-7.3047	0.1621	3.5970	-1.0437	3.2568	4.4506	16.1792	-15.0652	5.6693	6.6969	22.1225	7.5333
2200.1267	2.9862	2.3125	22.4785	6.0085	-4.7707	-1.8306	0.7853	-2.9687	5.7128	-0.0794	15.2988	-18.0589	5.5790	3.1594	16.6606	3.2201
2208.1271	2.1086	1.5589	18.4018	5.0468	-8.2074	-0.4553	-0.7484	-2.3131	5.5051	2.7278	17.4963	-20.8326	2.4635	7.1694	11.8258	0.8147
2216.1276	4.0557	0.1403	14.6057	7.7884	-14.2138	-0.9197	4.3062	-2.7041	2.8785	7.8155	17.9788	-27.5613	7.5255	4.1151	17.5805	8.2748
2224.1281	4.6598	0.1424	15.2481	6.1165	-6.3795	-0.2088	9.5977	-0.6452	-2.4906	-0.0181	15.8802	-38.4657	15.6523	2.3888	18.2952	18.3401
2232.1285	2.3477	1.1047	16.6809	3.7923	-0.8042	1.4482	1.0650	-0.8654	1.6883	2.8260	18.8935	-42.1835	0.9334	2.9599	4.9775	-3.9450
2240.1290	4.2398	1.7887	15.3312	8.7897	1.5173	2.2584	1.0575	-0.7398	5.6097	7.2076	18.1781	-45.2350	-5.3802	-1.8851	0.9209	-12.1230
2248.1294	5.4510	2.9964	14.7126	7.4211	13.6661	6.6314	8.9955	5.7093	1.3082	0.6418	17.3606	-49.5634	8.1819	5.1598	0.7997	11.4864
2256.1299	0.8463	1.6150	11.7692	-0.4854	13.2121	6.0570	4.4930	4.4650	2.4098	2.2235	17.3680	-48.6824	7.1810	7.0923	-7.8216	8.5587
2264.1304	-4.1593	-2.4463	5.1916	-7.5342	1.7664	-0.2562	0.7088	-2.3152	6.0186	2.5354	11.3448	-50.8262	6.9643	-0.6003	-12.7653	3.1927
2272.1308	-6.3130	-4.0452	2.4052	-12.3095	2.2803	-2.6955	1.2097	-4.1546	3.7741	-4.5473	8.6860	-55.1976	10.2979	-6.3373	-15.5933	3.5498
2280.1313	-0.5290	-1.1477	6.3578	-1.7621	9.3086	-0.7778	6.0148	-2.4483	0.6673	-4.3157	12.8539	-50.8255	8.0186	-16.1791	-10.4283	-1.1282
2288.1317	3.8660	1.3232	9.2973	4.7291	9.9281	2.5663	8.4790	1.5896	4.2460	1.6519	18.3873	-39.2358	9.5616	-8.9394	0.6865	6.5900
2296.1322	-1.4523	-2.7471	-0.8186	-7.5789	-1.8872	-0.8809	-0.1175	-1.0689	6.2887	-0.6592	15.5188	-37.9488	3.3933	-3.4741	0.2860	-4.1556
2304.1327	-3.9976	-6.1572	-7.2327	-12.6140	-5.6625	-6.2178	-1.7550	-6.1895	-3.3895	-9.5054	4.6758	-47.3633	-1.3407	-16.6721	-3.2801	-18.4837
2312.1331	-1.3506	-1.7683	4.1693	-6.8663	5.2907	-0.6286	-2.3738	-1.5298	-3.5169	-0.5876	6.6170	-42.0211	-4.4716	-5.8793	-2.0857	-16.3384
2320.1336	1.6989	0.9487	8.5603	-2.1605	4.9009	4.1226	-4.4801	2.9260	4.1058	12.6918	14.4470	-31.7035	-8.1896	8.3446	6.1219	-13.8215
2328.1340	2.0389	-2.2319	3.9581	-2.6115	-4.6310	-0.3047	3.5839	-0.4263	-7.1471	6.4998	8.8436	-37.2207	4.8496	-0.3974	14.8443	0.8318
2336.1345	-1.7323	-5.5740	2.4480	-3.7837	-15.3193	-6.3728	4.8668	-8.2666	-18.0490	0.6420	-0.5035	-45.7257	7.5041	-11.9822	6.1439	-0.7991
2344.1350	1.0622	-3.3694	2.8984	7.2727	-12.4399	-4.2497	4.7277	-7.7052	-11.5198	2.1018	-2.1689	-46.0275	-2.8187	-14.6921	-5.7528	-10.6095
2352.1354	10.8328	4.7037	10.1127	23.5756	5.6573	9.9320	11.1167	7.5887	-1.4921	13.7026	7.1912	-32.0447	-2.5445	10.7118	0.1501	9.8628
2360.1359	11.6057	4.9066	10.3636	22.4031	-0.4676	12.5135	10.8893	10.5745	-0.1235	23.6965	12.9511	-23.9681	1.4673	24.7879	11.2259	21.1659
2368.1363	4.3165	-0.7227	5.2867	9.3658	-6.8016	2.1480	7.9608	0.0747	-8.2225	12.7066	1.8779	-36.3542	3.8234	3.0146	4.9146	8.9472
2376.1368	5.3286	2.1652	9.8586	13.7985	6.0612	5.5310	6.5585	2.4883	-8.8963	14.5886	-3.1973	-35.9057	-4.1718	3.4584	-5.3071	0.9509
2384.1373	8.5678	2.6164	7.1285	19.4222	-1.0348	7.6340	8.5890	4.6876	-4.4443	22.5504	2.3282	-29.5025	-3.7571	9.5098	2.3098	6.9787
2392.1377	4.2719	-0.5817	2.5369	9.3140	-2.3785	1.9087	8.8782	-0.0695	-3.5309	15.3589	2.0626	-32.4526	4.7223	-4.1749	1.4931	8.4229
2400.1382	4.4668	1.5478	5.6076	11.3878	6.9002	4.1712	6.2271	1.3928	-1.8062	18.3965	-0.3452	-28.7171	-2.4169	-4.1713	-6.0349	0.0638
2408.1387	6.9263	0.2304	2.9308	14.8501	-2.1791	3.4127	10.8534	1.6604	-8.4832	14.6131	-3.9406	-33.6018	1.7113	-0.5537	3.5115	8.9000
2416.1391	6.2794	-0.4297	1.4782	12.8063	-2.0462	2.8433	11.3227	1.3633	-9.4683	11.4838	-3.0503	-36.8628	3.3423	-2.4290	2.7820	9.2457
2424.1396	6.4701	0.6743	-0.6288	16.0876	-1.4042	5.0348	8.2341	1.6810	-1.4674	22.5258	3.2892	-29.8167	-4.3282	-4.2556	-5.6114	-0.0997
2432.1400	3.5486	-3.1947	-6.4622	8.0490	-9.3227	1.0170	10.7777	-1.0735	-6.2097	15.7841	0.6332	-40.0910	5.6870	-6.8886	-1.8567	9.6097
2440.1405	3.6694	-3.3084	-5.8244	5.6903	-3.0380	0.9453	9.1969	-0.3552	-7.8688	13.4626	-5.0371	-50.5298	1.1592	-7.7531	-1.4284	1.7891
2448.1410	4.1420	-3.1492	-5.0371	9.6124	-4.0354	0.1507	6.8900	-2.5753	-7.6047	17.6365	-8.5684	-53.5427	-7.5965	-12.8565	-6.2648	-11.0638
2456.1414	0.9573	-3.9600	-2.0772	7.5618	-10.5971	-0.7129	4.8906	-4.7376	-10.6498	13.7214	-8.6602	-57.7724	-6.2960	-6.1907	-13.0244	-7.9494
2464.1419	4.8335	-0.0655	3.8510	17.2995	-6.9886	4.8874	2.8857	-0.4983	-3.4838	21.5924	-1.3307	-52.9061	-15.6902	3.9028	-14.9928	-13.4458
2472.1423	6.8400	-0.0275	5.4419	20.1509	-8.3934	3.9389	7.8693	-0.9344	-7.1128	19.3130	0.2507	-52.9436	-8.7533	-0.6370	-7.7322	-5.4523
2480.1428	6.2191	-0.0212	9.0890	15.1243	-7.1717	5.1047	11.8885	1.5544	-12.8695	17.3078	3.8951	-52.1114	5.3370	7.8575	1.8625	15.1153
2488.1433	7.6995	1.6045	10.0135	12.9615	-1.1836	9.4370	11.2963	6.7237	-7.0359	27.3436	12.5755	-46.7941	7.1633	16.8579	9.6095	20.6196
2496.1437	4.2315	-0.7946	6.2412	4.6536	0.5004	6.3152	9.0871	4.3072	-11.5208	19.7796	5.9571	-56.0636	6.4427	11.0063	5.4651	13.8371
2504.1442	5.2881	-0.5914	5.7567	6.7833	2.7744	6.3920	7.4153	4.1984	-12.5981	20.2557	1.1936	-61.0380	-1.4597	8.5501	3.6686	2.7621
2512.1446	6.6805	-1.7262	2.9931	7.2568	-0.8546	4.5663	9.3891	2.5115	-11.6171	25.7656	4.7515	-62.2418	0.4503	-0.3383	11.1142	1.0689
2520.1451	0.7798	-6.3653	1.4539	-4.6807	-8.6118	-3.1668	10.2317	-4.6084	-19.9542	12.7692	0.4860	-74.7890	12.0210	-10.7527	11.5182	6.1914
2528.1456	-3.8393	-7.6875	7.5223	-11.1620	-13.4327	-8.6055	3.6067	-10.5811	-14.8967	6.2573	-0.5466	-78.6557	10.1296	-13.2680	9.1811	-2.8765
2536.1460	-4.1388	-4.8118	16.4455	-4.3227	-17.6855	-8.4625	-4.6959	-12.4141	-5.0328	6.4542	0.0473	-63.6914	-3.2136	-4.9928	2.5680	-16.4844
2544.1465	3.6359	1.8739	29.0154	14.5988	-14.3570	-3.3517	0.0082	-6.4220	-1.0217	2.3325	-1.7628	-34.4117	-2.4357	10.9589	12.5435	-0.2334
2552.1469	4.6894	3.5719	39.4503	13.6572	-12.9529	-9.6676	1.9232	-9.2721	5.9708	-14.4211	-1.7189	-8.0371	10.8033	3.8330	33.5851	11.7573
2560.1474	-2.0898	2.4811	41.6138	6.0863	-21.9221	-17.0947	-11.6661	-17.4720	12.9047	-26.9345	-4.9105	14.2839	-0.8359	-0.8048	26.0101	-11.7780
2568.1479	0.7867	-3.7878	-15.5340	-1.1301	-8.9808	-2.5884	0.3753	-1.0518	2.0262	-17.1714	2.1305	-19.8875	-6.6697	-8.0925	-4.0049	-13.9331
2576.1483	3.8813	-4.2081	-19.8670	6.2639	-8.4003	-1.4765	8.0496	-0.0693	-8.1264	-13.0182	-9.5618	-25.9437	-4.2040	-12.0949	-5.2025	-5.6917
2584.1488	13.8211	4.0102	-10.2447	21.3105	10.2880	15.6693	19.2514	17.5755	-12.5312	10.3185	-0.9697	-8.6472	5.9191	20.0855	7.4022	32.0114
2592.1492	15.7302	2.5169	-16.8204	19.3796	2.4183	16.4931	23.6648	19.9770	-14.2155	17.9267	4.7445	-1.5359	15.4683	24.6065	23.5983	47.2110
2600.1497	6.2558	-2.0474	-24.6910	5.9841	2.6489	7.3642	15.0896	8.6056	-15.0012	16.4165	-4.4743	-3.0884	7.4450	-4.3674	1.4739	18.9934
2608.1502	9.7923	2.0629	-22.7513	13.9235	13.8389	14.5663	12.1977	15.0307	-11.3517	25.7239	-5.9271	4.7835	-6.1227	6.1778	-4.9033	9.9004
2616.1506	12.0257	0.5219	-27.9838	16.1602	-0.0410	14.6244	14.7043	16.4863	-16.0755	23.5777	-7.6521	7.4674	-3.4438	17.2058	7.7465	19.7777
2624.1511	8.0337	-1.1939	-30.0737	12.8205	1.2583	9.9814	12.8553	10.1484	-21.3434	23.3400	-15.4410	9.2868	-5.9990	-0.7597	-4.5685	8.0481
2632.1515	7.6364	0.1423	-25.1912	10.4300	9.3004	10.2679	11.0001	11.1170	-14.4942	25.1896	-15.4865	10.9928	-5.3520	0.2504	-2.8101	8.2025
2640.1520	1.2302	-2.4064	-20.9694	0.3881	-4.6654	4.9258	5.1520	5.3037	-11.2355	23.1169	-13.6707	15.7798	1.0046	7.0033	-0.0809	13.9604
2648.1525	6.1299	1.7522	-14.5209	14.3622	0.6166	9.2519	6.8969	7.7418	-13.7712	28.3161	-12.6925	25.3155	-7.0984	7.3596	-3.7634	8.4335
2656.1529	14.9720	9.1399	-0.4121	24.6246	21.5483	18.4628	12.2674	18.9481	-10.9443	30.6900	-1.3951	35.5563	-3.9208	19.8536	13.3760	20.1139
2664.1534	7.9102	7.7691	6.6053	10.6178	17.9170	13.7226	5.7096	13.5847	-5.9269	30.5969	9.2169	43.8703	4.2974	17.9489	15.7341	21.3449
2672.1539	6.1687	4.8818	1.7550	10.7656	4.8341	8.4162	3.9849	7.2251	-6.1711	25.5632	8.6351	39.5977	0.5400	7.2833	11.9329	10.4325
2680.1543	7.7120	5.4149	4.4821	13.8197	1.7701	8.6629	5.2104	8.1069	-7.0841	19.9485	7.8304	38.3232	1.6331	13.4605	16.5843	15.0728
2688.1548	4.7649	3.6750	5.8641	9.9473	-4.0081	4.1841	3.4230	2.8465	-7.6643	21.0814	6.5586	39.4763	3.9717	6.0019	16.8371	12.6114
2696.1552	3.9405	3.3802	11.9256	5.1896	-0.8941	0.7556	-0.6351	-0.1841	-10.6710	17.2987	5.8895	33.9039	-0.1651	-1.5481	24.2634	-2.0025
2704.1557	5.6933	7.6806	24.9849	6.1552	10.6059	5.1760	-6.7088	4.0484	-7.2581	21.6948	11.7664	38.5324	-8.8654	10.1399	29.8636	-11.8245
2712.1562	10.3625	6.3088	19.4715	16.2452	1.1468	2.8719	3.9953	2.0253	-6.7804	24.7465	11.7398	35.4030	0.8689	-2.2068	37.4990	1.8887
2720.1566	9.0206	4.6550	23.1092	16.2640	-4.9473	-2.0489	10.4057	-2.7011	-9.9778	17.8596	8.2123	30.6336	16.1086	-9.4919	40.2991	19.6569
2728.1571	7.2996	7.7023	30.0783	15.2190	0.5686	2.5672	1.8367	0.7341	-2.8911	23.5099	11.3012	40.2856	6.1679	8.0616	33.0121	12.7939
2736.1575	6.5469	4.1996	16.8541	10.0879	-6.1568	0.7864	4.2344	0.3094	-4.5916	24.4729	9.7680	38.4849	10.2777	3.2559	36.4797	16.5294
2744.1580	2.6640	3.4089	20.1501	2.6240	-4.9993	-0.3272	3.9164	-0.7649	-7.9143	26.0569	6.7821	40.5221	19.0623	7.1367	36.2542	28.0440
2752.1585	3.9665	5.4900	23.8368	6.1874	-4.3913	2.0797	-0.6302	0.9524	-1.2332	30.9535	10.6997	46.7765	10.2408	14.5020	36.1946	19.5509
2760.1589	-1.1534	1.0270	18.0229	-2.5877	-11.5551	-6.0866	-0.9359	-7.3801	-8.1860	14.9302	9.5819	37.5451	14.3590	-6.2413	29.6770	10.7075
2768.1594	-1.1571	3.3334	24.1117	2.5897	-7.5077	-3.1282	-0.9864	-5.7030	-9.3924	11.9524	6.9009	37.2013	12.1955	2.2303	18.9963	14.1232
2776.1598	6.2505	4.9504	18.6551	14.7326	-12.7314	1.8533	2.9338	0.6256	-2.1620	19.2732	8.2747	41.2446	7.7675	14.6390	29.8824	20.3893
2784.1603	-2.7948	-0.3585	13.2271	-0.6298	-17.9915	-6.8213	-1.5195	-8.8804	-13.9633	8.2288	-0.8754	34.0719	9.8001	-2.8427	18.1245	8.9264
2792.1608	-1.5815	3.4678	23.5322	6.0956	-7.3958	-2.7567	-4.7632	-6.3878	-15.8279	6.7340	-5.3621	31.0531	-1.1982	5.0796	7.5556	-0.7326
2800.1612	7.7069	8.9357	32.3942	20.0935	-2.3485	4.3561	-1.2886	1.8783	-0.4637	15.7817	10.0330	37.3353	-2.1367	18.8633	25.1862	7.4820
2808.1617	3.1863	7.2162	32.7238	14.1167	-6.6317	1.8013	-3.4570	-2.1173	0.9590	16.8859	14.0514	34.2042	1.6595	15.1452	17.7062	7.9978
2816.1621	2.9155	4.4425	25.3793	15.3459	-15.2183	0.6360	0.1909	-3.1499	-3.8777	12.1582	6.4020	18.2951	3.5945	16.6108	13.0464	13.8776
2824.1626	2.9486	5.4875	29.7482	14.5679	-9.9900	1.3274	1.7385	-2.3405	0.4807	12.8191	12.1223	16.6769	9.3112	15.8703	13.8654	20.2784
2832.1631	5.5270	9.0947	34.9450	20.9191	0.8774	6.1119	1.2368	1.1341	6.1438	21.5476	18.1259	20.5040	3.6685	16.8604	8.4164	15.4052
2840.1635	9.1229	7.2571	26.3476	24.5448	-6.1039	6.0556	6.4096	2.5762	3.8067	21.8943	15.0668	12.3946	5.2575	16.4557	17.3821	20.3084
2848.1640	2.0396	3.4890	24.2007	10.2851	-3.8013	0.8969	6.9299	-2.2353	-3.7867	15.7382	7.1896	1.0456	16.7361	7.1772	10.4038	27.4048
2856.1644	-0.9524	1.0645	19.2742	2.5668	1.7719	-0.8225	7.4518	-3.0240	-7.7725	7.3665	-0.3885	-18.4363	18.4884	2.0068	2.4189	25.5909
2864.1649	-3.1255	-0.8126	13.4586	-0.7352	-4.3198	-2.3043	1.0411	-5.1661	-3.5931	2.2628	2.5211	-27.8151	7.1883	0.8125	-5.7960	6.7005
2872.1654	-2.6738	2.1564	16.2614	4.2808	4.0183	2.2027	-2.2704	-2.6716	3.9957	8.5288	7.3641	-24.9426	-2.1861	3.8142	-20.1225	-2.3635
2880.1658	2.6732	3.1205	11.8378	9.2094	12.4359	5.8418	4.7939	3.6327	8.1389	6.7237	5.1082	-35.8137	1.4244	6.6427	-13.6457	8.0393
2888.1663	0.6158	1.0461	7.8548	5.5999	8.6397	3.4498	1.8557	1.4492	6.7916	0.8994	-1.0036	-45.2095	-3.5050	5.5599	-17.9053	-0.5623
2896.1668	-0.6117	-0.7114	3.8706	4.7439	4.3771	2.2832	3.3599	-0.0739	-0.4587	-0.7391	-7.1339	-50.1349	-2.4003	4.0883	-21.7552	1.3186
2904.1672	-5.4336	-5.5746	-8.7725	-6.8439	-4.3062	-2.0742	1.9795	-3.5054	-1.4168	-4.7479	-8.7099	-54.8768	1.7963	-1.9173	-24.1570	1.1382
2912.1677	-8.6289	-6.6853	-16.0745	-8.8115	-8.2387	-1.8657	-6.2563	-5.0376	4.8653	1.4269	-12.1501	-52.7210	-12.9696	-0.0106	-39.5723	-17.1903
2920.1681	-2.6815	-4.4983	-14.4064	-0.4896	-0.8144	2.3364	0.6440	0.7396	0.3785	2.1807	-17.5586	-57.3003	-10.8590	5.7787	-30.9317	-6.9021
2928.1686	-3.7645	-5.1185	-17.0619	-5.6412	5.6956	1.0096	0.2951	0.2563	-4.2798	-5.7862	-17.2025	-58.2190	-11.0568	-3.9428	-32.1410	-14.4068
2936.1691	-4.0626	-5.5194	-24.7669	-6.5079	5.9160	1.0328	-1.9555	-0.1495	-1.2032	-1.3527	-13.3421	-46.7609	-16.7305	-12.3309	-36.2267	-25.3278
2944.1695	-3.0433	-5.5053	-22.1333	-12.8122	7.7545	0.3284	3.8328	2.1100	-0.9662	-1.8519	-4.2526	-35.6388	2.9147	-11.4015	-13.9568	-1.6908
2952.1700	-3.3162	-5.3284	-21.5466	-17.8780	8.6090	-1.1360	1.0526	2.0876	-1.0432	-10.7560	3.4894	-25.4391	2.9055	-14.3194	-5.0410	-8.1888
2960.1704	0.6198	-5.1516	-29.2208	-11.7564	4.3379	-0.1007	0.4765	3.7785	-3.8454	-14.1182	2.9607	-17.6057	-8.0210	-16.1919	-1.0008	-21.5959
2968.1709	-0.8156	-3.5881	-24.4747	-13.9790	7.1122	1.9149	-0.9914	5.4428	-2.0088	-10.0806	7.3572	-5.4319	-4.0327	-8.2253	-0.9383	-13.4948
2976.1714	0.9400	-1.8325	-20.5903	-9.5872	6.6404	3.4141	1.6268	6.8437	0.8474	-6.9991	12.1394	5.5443	1.2699	-4.5995	3.3662	-2.8185
2984.1718	2.7234	-2.8178	-16.6448	-7.5373	2.0931	-0.6831	7.5587	3.8325	-9.7669	-15.7028	7.3868	1.8915	10.2131	-12.2554	16.1544	5.2497
2992.1723	-1.2718	-1.1068	-3.5757	-11.3286	7.2822	-1.1205	-1.2626	1.2121	-4.9942	-12.9039	8.9585	-1.8515	2.7780	-7.7710	7.5040	-7.4855
3000.1727	0.7168	0.0921	-1.5845	-5.7789	6.2210	1.0228	-2.4532	2.6182	8.6329	-2.3601	12.2594	-7.8241	-1.6740	-1.5453	6.2249	-8.1316
3008.1732	0.2519	-0.6213	2.5676	-5.8233	8.7387	-0.7924	3.4429	0.9305	0.4483	-5.8434	4.7751	-19.7320	8.5026	-5.8848	6.4290	4.5938
3016.1737	-0.5105	1.6315	10.5818	-1.8904	11.8393	2.4199	-0.0048	1.5850	-2.0531	0.9580	3.0388	-20.5673	1.3256	2.9168	-3.7708	0.0036
3024.1741	-1.5900	0.0673	8.5299	2.7079	-4.1355	-0.5217	-3.5167	-3.5728	3.2693	5.0642	3.0226	-20.7301	-5.9273	2.0256	-9.6978	-8.7528
3032.1746	-4.1094	-0.1166	13.9772	3.3214	-4.0632	-4.1691	-3.5184	-8.4538	0.6669	-3.3044	-1.8285	-23.8180	-4.2529	-6.2453	-18.9344	-10.5627
3040.1750	2.8271	3.5031	17.0951	10.7537	2.7549	3.7331	2.8497	1.4994	2.7009	5.8061	3.2177	-17.8958	1.8255	12.0820	-2.3533	10.0362
3048.1755	1.3402	-1.0542	4.4270	3.0157	-11.0431	0.8775	4.6123	0.4465	0.0148	6.7342	2.7765	-19.6293	9.1253	13.2210	8.1273	18.8796
3056.1760	-5.3408	-5.2922	-3.8509	-7.5500	-13.0709	-5.8346	1.4147	-6.9005	-7.1316	-6.4489	-3.9227	-27.4045	7.4521	-5.8266	-7.4350	4.1126
3064.1764	-1.2584	-1.3897	3.2843	-2.3952	-1.3822	-1.2009	2.7877	-1.9290	-3.1531	-2.7342	4.4834	-22.2274	6.6461	-2.8255	-1.8992	4.8621
3072.1769	1.8044	1.4859	10.7041	2.8817	2.5800	1.2621	1.5348	0.1576	1.8291	0.2704	12.5807	-19.0473	2.3928	0.2199	3.1619	-0.1103
3080.1773	3.4388	-0.6954	4.3877	4.3405	-5.5721	-1.1437	4.5375	-1.3591	-1.2950	-4.1175	11.0038	-25.6341	3.3204	-5.2498	9.2070	-0.7904
3088.1778	3.0869	-3.1568	1.8962	2.6572	-14.8842	-4.1519	8.2894	-3.7123	-5.6447	-5.3683	8.8663	-30.8413	11.7568	-6.8371	16.8356	9.5872
3096.1783	3.7095	-1.3584	8.6481	7.7385	-13.7859	-3.1409	7.7186	-3.8967	-3.1944	-6.6875	10.3147	-32.7947	9.3840	-3.7414	11.8580	8.6718
3104.1787	7.0857	0.5396	10.6287	15.0204	-13.1725	0.2737	9.7588	-0.6657	-1.2412	-0.3815	10.2348	-30.2610	7.7925	3.8840	14.4857	13.7445
3112.1792	5.4259	1.5249	15.5955	15.0063	-7.1143	0.9614	8.4658	-1.3997	-6.5705	4.0561	3.4154	-29.6878	5.7115	3.7931	6.8084	11.8192
3120.1796	6.4020	3.2150	21.4075	14.7937	-0.0121	1.6523	7.1024	-0.1655	-5.6943	-2.6341	7.8008	-32.1701	3.6026	3.3160	9.2272	5.8976
3128.1801	4.3578	1.6550	20.8623	9.0197	-5.8410	-1.6778	2.5748	-2.8763	0.7552	-3.2660	10.2808	-31.5097	2.4255	2.6343	14.7752	0.0357
3136.1806	-3.1443	-0.1271	21.3481	1.7652	-4.4276	-5.4351	-3.3845	-8.6557	1.1217	-0.8011	-4.1363	-32.9975	-0.7804	-1.3661	-5.4235	-6.0598
3144.1810	-3.1567	4.6732	13.3604	7.3141	8.5832	-0.1504	-7.8052	-3.4584	-2.0034	3.1579	-18.1371	34.4621	-12.7197	1.3199	-19.8214	-11.2233
3152.1815	3.5243	10.7799	16.6543	10.9768	23.4631	10.4266	-9.6709	8.9105	11.0074	21.2639	0.7543	62.9385	-16.5288	18.4877	-1.8850	-8.0679
3160.1820	0.5807	5.6284	5.9116	-1.4306	14.8699	3.9647	-5.5740	5.1570	6.9034	12.5520	2.4747	60.5160	-1.0587	6.1129	10.1718	2.6591
3168.1824	-0.3087	0.9478	-2.1458	-6.4284	8.4638	-3.0519	-0.2114	-0.1362	-4.5105	-1.3599	-5.6198	43.9222	6.2082	-12.0208	15.8001	2.2922
3176.1829	5.4985	3.3706	-1.6163	4.3279	5.6033	2.2258	-0.3480	4.3667	-1.4421	6.5384	3.0817	43.9394	-3.9567	-3.0735	20.9115	-4.8343
3184.1833	6.0962	2.6035	-3.3947	9.5925	-8.7828	2.0327	-1.8474	2.5319	3.4545	9.8559	9.5764	41.7640	-8.3695	1.6741	18.9549	-7.7351
3192.1838	3.1586	0.1277	-7.8962	3.7685	-10.0490	-0.3816	-0.1369	0.0911	-0.0873	5.3605	9.1496	32.1671	-2.5853	-5.6167	13.5310	-4.9129
3200.1843	-0.8204	-0.9191	-8.1672	-4.4160	-5.5314	-0.5131	-1.9588	-0.2246	-0.5538	0.9846	11.2794	21.9094	0.2867	-5.2680	4.8697	-4.4847
3208.1847	-2.3914	-0.5197	-7.5161	-4.3946	-3.3632	1.0964	-4.9851	0.1283	3.2590	4.3853	9.9712	16.0056	-5.0277	-0.7992	-6.0379	-8.9572
3216.1852	-5.5474	-3.0111	-12.7797	-11.3678	-5.1069	-1.6626	-6.6316	-3.0572	2.5939	7.3493	10.6660	12.0707	-4.2981	-10.1829	-9.4159	-14.6775
3224.1856	-10.7941	-6.8507	-17.4347	-20.2655	-8.8843	-7.7454	-8.0096	-9.6267	-1.3868	-2.2172	8.2343	-0.9045	-1.9352	-25.2809	-18.5198	-22.4831
3232.1861	-7.1061	-1.5912	-8.9859	-9.2801	4.5562	0.2115	-9.1916	-2.9774	1.7586	0.3911	7.1592	-2.4626	-13.0538	-11.0774	-29.8332	-26.4289
3240.1866	-5.2879	0.7727	-3.1407	-4.1618	-1.6456	4.3354	-11.6415	0.2175	9.0598	9.1130	16.9744	6.8592	-15.0802	7.0909	-24.8081	-20.4325
3248.1870	-7.7294	-4.0488	-9.2247	-7.4162	-17.7701	-3.2184	-6.6169	-6.8227	4.6440	1.0046	12.2294	-1.9965	-2.9552	-4.0071	-21.1721	-9.5575
3256.1875	-1.2433	0.9774	-3.1359	3.2166	4.2513	3.7707	-0.0342	1.4622	0.5857	-1.3575	4.8304	-4.2655	-4.4609	-0.0409	-21.8338	-3.5746
3264.1879	3.6489	5.5420	2.6848	11.2980	10.0402	11.5444	1.1420	9.6016	6.0000	5.6301	13.2081	8.3591	-5.4555	18.6608	-15.3260	6.5579
3272.1884	1.4985	2.0017	-6.2553	5.4584	2.0428	9.0034	6.3767	8.0196	3.0138	6.4729	12.1315	6.6862	8.1593	15.3639	-12.2701	23.9411
3280.1889	2.0315	3.3569	-2.8806	-0.6055	19.7237	10.7821	5.5733	11.6335	-0.2028	5.4349	9.4198	1.4733	7.4050	13.2185	-7.0000	18.8546
3288.1893	5.8892	4.9192	3.3569	5.5710	15.3453	10.4509	1.8952	11.5001	4.5688	4.3494	13.6768	0.6532	-2.8087	16.3360	4.5320	4.7090
3296.1898	5.1148	1.4000	-3.5578	8.9544	-1.7197	5.3301	5.0542	5.2367	3.6263	4.4054	10.0827	-4.8478	0.0514	6.6741	1.8763	6.8938
3304.1902	-2.5537	-2.4919	-4.9853	-4.6831	-2.1842	-0.4525	1.5009	-1.3307	-1.9484	-0.9470	4.1794	-19.5969	3.5547	-3.8311	-8.9624	1.2476
3312.1907	-5.9208	-4.3503	0.5281	-12.3030	-2.3652	-4.6607	-1.1886	-5.4718	-6.7710	-12.4363	3.3144	-40.0005	4.4833	-8.2614	-9.3312	-6.2405
3320.1912	-3.5006	-2.5635	4.7935	-8.5327	2.7876	-2.1151	0.9784	-2.9822	-4.3296	-11.2265	8.8448	-45.2815	5.5754	-6.4076	-7.7293	-3.4946
3328.1916	-2.5979	-1.1753	4.9844	-8.5989	6.0244	0.9401	-2.4848	0.3771	4.9060	-2.3761	11.8247	-40.6088	0.5813	2.3795	-5.6823	-5.9245
3336.1921	-3.4677	-2.5919	0.6182	-11.9341	3.5592	-0.5002	-4.5699	-0.2234	4.9269	-1.3565	5.8762	-39.4243	-2.0861	2.8382	-3.0327	-9.5974
3344.1925	-5.7818	-4.5645	-2.2261	-14.5877	1.9481	-4.3573	-1.8890	-4.4020	-2.9257	-7.1117	0.8285	-40.0681	3.2787	-9.8167	-7.6318	-8.1376
3352.1930	-3.1100	-2.2426	3.1941	-6.0510	3.2728	-1.7458	0.6892	-2.5259	-2.9102	-11.1612	2.7575	-42.1863	2.5034	-4.7176	-11.1632	-4.1644
3360.1935	4.1670	5.0419	14.7360	9.4839	15.5165	8.0630	-0.2035	6.5120	7.0120	-2.0690	10.5347	-31.1522	-8.4709	13.4522	-10.1696	-5.7179
3368.1939	6.4487	5.4118	14.8207	10.4805	17.3774	6.6081	3.2763	6.3700	11.1924	5.3500	11.1206	-19.1882	-1.6854	5.7751	2.9095	1.4204
3376.1944	4.0794	-0.1900	4.0086	-0.2124	6.8893	-0.0265	9.7298	2.8963	2.8427	-2.5957	3.7146	-24.1010	16.0781	-2.4394	17.2039	19.6556
3384.1948	-0.8846	-2.5171	-2.1569	-6.6596	1.3318	-1.3134	4.2196	0.3942	-3.2253	-8.3994	0.1311	-26.2781	9.4070	-0.9476	3.4451	9.0139
3392.1953	-2.6721	-2.7910	-1.9927	-4.8780	-1.0985	-3.8234	0.6807	-4.0715	-2.7298	-9.2029	-1.4107	-23.5923	1.7554	-10.4894	-7.1076	-5.4915
3400.1958	0.8092	-0.0286	3.8971	-2.9206	7.7392	0.1556	4.3144	1.8089	-2.5694	-11.3492	2.5169	-20.4736	7.9949	-0.9013	3.9440	7.3504
3408.1962	1.5651	0.2687	4.0604	-5.3403	6.9337	1.8220	3.7174	4.7741	-2.4899	-12.1374	6.0617	-17.4500	9.7855	8.5297	12.6523	12.1986
3416.1967	0.8601	-2.7351	-0.7037	-6.0135	-5.9834	-3.8269	2.4218	-1.2764	-1.0233	-10.5736	5.6515	-19.2047	7.6025	-3.1176	17.3531	2.7789
3424.1972	-0.8400	-2.3497	1.2306	-5.9524	-6.3998	-2.9461	-2.1014	-2.1825	-1.6957	-10.6341	7.4074	-23.1404	-0.4960	-0.7354	7.4208	-8.4317
3432.1976	-2.1417	-3.9400	0.1826	-3.5492	-11.7558	-5.7907	1.4291	-5.8702	-7.2773	-18.3680	0.6530	-32.2073	3.2977	-6.4301	-0.9669	-3.8107
3440.1981	1.5056	-3.1455	0.4321	0.7057	-5.8113	-6.0799	10.7715	-4.6912	-7.1747	-16.1624	0.6819	-27.7843	16.1747	-16.6992	8.6351	12.6056
3448.1985	1.9453	0.8201	1.9823	-3.7574	9.9687	2.7085	4.9063	4.1916	-0.5997	-0.0437	12.4852	-8.8334	10.2326	-1.7180	9.4583	9.7238
3456.1990	0.4638	-0.6456	-1.9067	-6.2995	2.3678	2.2341	2.0354	3.7557	-0.9865	1.5794	9.4701	-7.4992	7.4106	5.3147	9.8394	8.7167
3464.1995	1.0693	-1.2135	0.3622	-4.3787	0.8020	-0.7354	4.9055	1.1564	-3.3558	-4.3108	5.3004	-12.5486	11.0274	-1.4012	12.6184	10.9370
3472.1999	-1.6437	-1.1257	1.8913	-7.5981	0.8380	-0.6483	-0.5530	-0.3699	-1.2890	0.0628	9.2927	-10.5804	5.2711	-1.2732	5.5190	0.7342
3480.2004	-1.2409	-1.0116	3.2978	-3.1866	-6.9089	0.2625	-2.0174	-0.5829	-0.2053	2.3719	8.2594	-13.7615	0.9324	7.7891	2.9698	0.5148
3488.2008	-0.6430	0.0529	6.5857	-1.6976	-1.2912	1.3790	-2.1881	0.4604	-1.0358	-0.5853	6.2791	-20.0902	-1.6920	8.7487	-0.2026	-2.5005
3496.2013	-5.3993	-2.4246	2.4171	-8.4766	-2.9804	-2.9007	-5.2328	-5.0494	0.7524	1.3624	4.9582	-21.3656	-2.1180	-4.6068	-10.2314	-11.0893
3504.2018	-4.3672	-0.6097	6.1567	0.1082	-3.4247	-1.4183	-4.9508	-5.5526	3.0816	3.8148	3.5514	-19.3010	-6.5956	-3.3947	-20.2844	-12.4826
3512.2022	-0.6841	1.5149	9.2879	9.9320	-0.4616	0.9930	-2.1773	-3.8686	0.6013	2.2865	1.6110	-22.0424	-11.1490	-3.1297	-23.3822	-14.6527
3520.2027	1.8953	0.4557	3.6978	12.8716	-3.7684	0.0125	5.3010	-3.5984	2.5191	7.4157	0.8245	-18.6822	-0.7495	-9.2690	-14.5937	0.5838
3528.2031	5.8506	3.3017	7.3191	17.1302	6.3139	5.2003	11.5415	3.7802	2.2645	6.7076	-2.3447	-15.5428	7.4988	3.9353	-6.9221	21.6225
3536.2036	4.0089	2.4217	9.4984	13.9366	4.5304	3.9623	9.8137	2.5970	-5.5662	-0.6031	-7.9008	-22.5247	6.3500	7.7506	-7.9175	19.4706
3544.2041	2.2481	2.6471	8.8060	11.9042	3.8971	4.1044	6.5581	1.1969	1.9409	11.0812	0.8495	-11.9705	5.0365	3.6084	-11.5565	14.9348
3552.2045	2.9060	4.6006	9.0422	6.9879	19.0819	7.7792	6.8403	6.6415	5.0772	13.6999	5.1184	-4.2860	8.3936	5.6833	-7.4864	19.1612
3560.2050	0.9237	0.3629	3.3163	2.6688	3.4464	2.4367	7.7203	2.1402	-5.3802	6.9546	-4.1853	-10.1153	12.0874	4.9902	-0.1958	22.3451
3568.2054	3.4454	2.4185	2.0231	13.2487	-3.0745	6.2961	5.8534	3.5234	5.3713	23.1865	2.8685	3.2939	3.5036	11.2412	-6.1218	19.0111
3576.2059	4.8771	5.1761	1.9827	11.4371	19.8868	9.1578	4.5440	7.3145	11.2374	21.0285	7.5978	4.3812	-2.5891	-1.0753	-12.0863	4.0867
3584.2064	2.3539	1.3844	0.0074	3.3591	18.3934	0.7026	5.5339	0.2598	-2.5082	2.2398	-0.6420	-9.0702	0.3255	-22.6496	-7.3991	-7.4177
3592.2068	2.2586	0.5765	0.2746	5.0360	7.0289	-0.2674	5.6269	-1.4501	-3.4461	3.5365	3.5166	-6.0372	2.2604	-18.7067	-3.6395	-3.3992
3600.2073	0.3789	-0.6695	-0.7593	-1.1309	2.8189	-0.4241	4.2676	-0.8639	-1.6236	3.6708	7.4100	-8.1181	6.8094	-11.0325	0.9455	3.1830
3608.2077	0.8669	-2.1045	-1.7592	-3.3626	-1.9439	-1.9988	3.8179	-1.1018	-3.8050	1.9899	2.6681	-14.7040	6.6356	-7.1274	10.4961	3.2832
3616.2082	1.8607	-2.9456	-6.3183	-3.3306	-1.0256	-3.1319	2.8512	-1.3709	-4.1025	-0.8416	-2.6291	-19.1522	0.4687	-12.1298	11.4460	-6.9905
3624.2087	0.7868	-2.4402	-5.1923	-5.5039	3.9360	-2.1369	0.8559	-0.2855	-5.4236	-3.4353	-5.3027	-20.6552	-2.1678	-9.1119	7.2194	-9.9804
3632.2091	4.7472	0.8440	1.0385	-0.9922	9.2428	3.8628	3.5690	6.7142	-1.9758	5.3457	-0.7682	-13.6268	2.4169	8.2232	18.4363	6.2187
3640.2096	3.1990	-1.7684	-3.4116	-3.2506	5.2066	-1.8198	3.8313	0.9001	-4.0481	-0.0793	-4.2346	-18.5292	1.9534	-9.6593	16.4006	-3.7140
3648.2101	1.0952	-1.8396	-2.3269	2.2690	1.0192	-4.1090	-0.1724	-4.4497	-5.7433	-3.7185	-10.6605	-20.2055	-9.8923	-17.2739	-2.6958	-21.0395
3656.2105	6.0903	3.0788	3.7625	13.3379	4.3370	5.9958	3.8247	5.3858	2.4734	11.1365	-3.7355	-7.6858	-5.5645	10.6943	0.7009	4.2863
3664.2110	3.3370	2.7443	7.6384	9.8337	4.9765	4.5647	4.3979	3.2063	1.8640	11.8667	-2.4030	-7.7984	1.5480	8.5637	-2.4909	11.5010
3672.2114	3.4310	5.1826	19.6991	12.2187	11.8885	3.5881	-0.1325	1.1138	1.6093	7.8275	-2.7855	-8.9534	-6.5592	4.7788	-4.3870	-3.8733
3680.2119	8.8245	6.0722	20.2894	14.1355	10.4725	5.1485	3.2980	5.9097	5.5060	5.6118	4.1716	-6.9702	-1.5715	12.6777	19.4545	5.2623
3688.2124	5.1117	1.6317	12.3153	8.7807	-4.7505	-0.8628	2.7188	-0.3536	2.5868	-0.2319	2.0444	-11.1862	1.4207	4.7679	17.5746	3.7266
3696.2128	2.7804	1.6225	12.4514	6.0866	-3.5628	-0.6074	-1.4102	-0.9600	5.8994	3.4470	1.0164	-10.0527	-2.8996	6.9867	10.5613	-1.7581
3704.2133	3.1950	0.2667	8.0467	-2.0290	1.6046	-1.0596	1.6517	1.6323	2.1775	-1.5479	2.2054	-13.1709	5.6608	4.8915	23.4678	5.5844
3712.2137	3.2245	-1.9109	5.8810	-2.3174	-3.8817	-5.1284	5.4519	-2.1475	-9.5985	-11.5893	-1.2686	-19.9221	9.5965	-6.5283	26.8904	4.5831
3720.2142	3.3369	-2.0260	5.3787	-2.0711	-7.9288	-4.7234	4.1980	-2.1265	-5.5811	-7.1582	3.5890	-18.5261	8.6940	-3.8008	28.6197	4.1242
3728.2147	-1.2472	-3.8415	1.0011	-11.1626	-7.8333	-4.9935	0.1314	-2.6436	-5.9526	-6.3645	2.2051	-21.5307	8.0223	-0.5830	20.6500	2.0373
3736.2151	0.0331	-2.3239	5.9580	-5.4854	-4.6014	-3.5252	1.0846	-2.2176	-10.1020	-6.2749	-2.6490	-25.5859	4.6832	1.1978	15.8895	0.6962
3744.2156	2.8445	-1.8462	6.5691	-0.4381	-9.3456	-4.0606	2.2559	-2.9537	-1.8107	0.2574	5.1650	-22.3713	4.7503	-2.8515	23.3906	-0.1543
3752.2160	-0.2908	-3.8898	-0.8103	-3.7200	-13.5163	-5.6919	2.0602	-5.3181	-2.9640	-0.7421	3.2571	-19.9368	6.0762	-7.8966	13.2677	0.1798
3760.2165	3.3681	-0.2035	1.5459	4.2817	-3.2094	1.7160	7.2838	2.4553	-3.7186	0.6614	1.9474	-14.8806	8.9394	6.0212	9.1310	16.3788
3768.2170	5.6084	2.7551	5.1870	9.4142	-1.7465	6.6062	4.2549	6.2960	7.7599	13.0978	12.5074	-5.5802	3.2437	16.7377	9.5898	14.8512
3776.2174	3.0390	1.6733	2.9252	8.3579	-6.3207	5.0525	0.4328	3.1288	10.0078	18.4694	10.0464	-4.0922	-2.1785	14.0546	1.0726	6.6845
3784.2179	3.9370	0.3045	-0.9996	5.2820	-0.2783	3.3768	7.0064	4.2053	5.6845	6.3846	3.9420	-15.1124	7.6314	7.2404	5.8385	17.0537
3792.2183	-1.6590	-4.2433	-6.4032	-8.1383	-4.1247	-3.5071	3.8137	-1.8691	-1.1252	-6.9145	0.2741	-28.5029	9.1935	-5.7361	3.7558	6.2420
3800.2188	-7.1229	-7.0893	-7.6608	-14.9216	-10.7002	-8.0341	-0.7326	-7.8486	-5.9034	-9.8907	-5.6778	-34.7830	6.6599	-10.8001	-5.8061	-2.4856
3808.2193	-5.8539	-4.1944	-2.6361	-9.9801	-2.1540	-5.1443	-0.6260	-5.1890	5.2215	-13.2996	-1.0860	-35.9142	5.3597	-7.3321	-14.1750	-0.8165
3816.2197	-8.1321	-3.2585	-1.9924	-11.3745	-0.3597	-3.9110	-7.1976	-4.8995	12.9400	-15.7776	1.5639	-33.4391	-3.5744	-1.9495	-25.8649	-11.6998
3824.2202	-6.9643	-3.9800	-7.4990	-13.7816	1.6812	-1.9347	-2.7773	-1.1448	5.3197	-12.7851	-3.8045	-30.4918	3.0963	3.0104	-17.9911	1.3993
3832.2206	-4.4654	-2.4898	-7.5109	-12.2308	15.5898	0.1775	3.3392	2.0631	2.1077	-13.3124	-4.6068	-31.3247	9.0486	-5.0163	-16.9444	7.9793
3840.2211	-6.8648	-2.3864	-6.5773	-10.5742	11.6816	-0.9481	-2.5069	-1.3172	4.9874	-12.9202	-5.8358	-28.3143	-1.1849	-6.4536	-29.8711	-6.3886
3848.2216	-1.6264	-1.2837	-8.7303	-2.6466	3.7705	2.3481	1.8968	3.2778	5.8243	-7.3126	-3.6858	-16.8067	1.9051	6.5001	-14.8147	7.9109
3856.2220	1.5868	0.6107	-8.1475	-1.3755	9.4233	4.8028	3.5156	6.7819	7.4778	-1.6322	4.3855	-3.4577	3.8510	5.2753	-3.3683	9.8011
3864.2225	-4.8028	-2.1447	-13.2903	-10.0182	2.4969	0.6369	-6.9432	0.5821	4.9699	-0.2505	0.0822	1.4354	-8.8648	-1.1304	-15.8046	-14.3026
3872.2229	-3.5417	-2.1620	-14.4472	-4.7629	-0.7645	0.4951	-6.7279	0.3046	-1.4539	-3.5866	-11.4987	1.4155	-14.9710	1.7432	-18.0757	-17.8235
3880.2234	1.2402	1.5293	-6.5383	4.6441	4.3890	4.1087	-2.5900	4.0884	0.3278	1.1710	-8.7293	11.7230	-11.9724	7.3079	-10.1719	-7.5765
3888.2239	2.2040	0.5411	-10.9167	6.9411	-7.9401	4.7247	1.6412	4.7398	0.3347	7.6866	-3.6959	22.2253	-2.8525	13.8845	-2.7330	10.2004
3896.2243	4.5430	0.7972	-12.8117	12.0304	-9.9341	5.4788	8.0163	6.1343	-5.6889	4.8727	-7.0632	27.8020	4.0091	14.4717	0.6459	23.7028
3904.2248	3.9910	3.2156	-5.9794	8.1251	4.0732	6.2095	5.6084	7.5734	-2.2640	5.4805	-4.6461	38.2320	4.7206	11.3079	3.1064	20.6621
3912.2253	0.1518	0.2500	-10.4379	-3.8339	1.7189	1.5207	1.6778	4.4428	-2.0739	0.3781	-5.7658	38.1149	6.5103	5.2115	8.5181	14.6399
3920.2257	-4.1351	-3.1671	-13.1891	-9.3103	-8.7126	-5.1971	-3.2845	-2.8587	-9.7391	-10.4906	-14.4759	33.6779	0.6756	-3.3768	4.1126	-0.7647
3928.2262	-5.9176	-3.5838	-11.8575	-9.4672	-13.5388	-7.1829	-7.5066	-6.1254	-11.3647	-12.0372	-15.7925	36.6528	-5.6671	-5.3624	-0.3494	-11.5721
3936.2266	-4.0732	-3.7293	-12.0929	-6.2381	-14.0113	-8.2339	-4.1602	-6.6394	-12.5274	-16.1834	-17.2123	32.4795	-3.5825	-10.2606	2.4939	-9.7575
3944.2271	-3.7919	-2.1557	-6.8594	-3.7184	-10.0663	-7.7739	-6.4646	-7.0528	-8.9453	-13.0376	-17.4466	34.0196	-8.2261	-10.8326	-0.3738	-15.9901
3952.2276	0.0967	0.8135	-4.3851	2.9767	-4.8069	-2.0767	-4.8135	-1.4705	-4.4842	-1.9514	-13.5325	40.2448	-9.8028	-0.7543	2.9893	-9.8877
3960.2280	5.6373	3.5665	0.4449	14.4554	-1.0333	1.4502	2.7603	2.1984	-5.6239	-1.3021	-12.1454	39.0133	-5.2350	2.0302	7.3967	2.6107
3968.2285	4.4266	5.3322	6.0536	18.3117	-2.2839	2.9160	-0.8204	1.0879	2.1550	5.5969	-6.1155	43.7393	-9.6611	5.7004	-3.0780	-0.8644
3976.2289	1.9581	2.9146	-2.0628	15.0553	-6.2558	2.1501	1.7913	0.0753	2.5015	7.7270	-8.3422	39.1854	-3.5872	3.6602	-10.9260	8.3050
3984.2294	-2.5392	-1.3574	-9.7087	5.0719	-7.2401	-2.8388	6.5865	-3.5524	-6.7873	-2.6821	-18.4391	28.0180	9.5690	-6.8653	-14.9674	20.1677
3992.2299	-6.0975	-0.8421	-10.9928	0.2873	-2.9540	-0.6457	-1.8270	-2.8750	-2.7148	2.2203	-17.3816	31.1551	-1.8925	-1.6190	-28.6698	5.2352
4000.2303	-3.8675	2.2957	-10.8656	8.0198	8.1602	4.5798	-5.4522	0.7665	0.7268	6.9420	-20.1878	31.0004	-18.6848	0.3742	-43.6707	-12.4494
4008.2308	-1.7732	4.4291	-6.9613	9.3639	18.4737	6.3045	-3.2753	3.8965	4.6279	5.1917	-19.8786	34.1844	-15.3979	0.8651	-39.3325	-6.9894
4016.2312	1.5768	5.7140	-8.0309	8.9831	16.0945	9.6918	-2.1648	9.6119	14.0041	11.1524	-7.5965	48.1709	-9.3455	14.0282	-20.4577	6.3407
4024.2317	-0.1629	2.9863	-14.8187	5.6458	6.2182	5.6883	-3.3851	5.4804	10.0383	9.0572	-7.7664	53.1494	-10.0782	5.3850	-18.6659	-0.1610
4032.2322	-6.2409	-0.4613	-18.5136	-6.2946	6.0423	-1.2308	-7.8403	-1.7802	1.7379	-0.7849	-11.9798	50.5007	-11.4530	-13.6837	-25.4459	-16.7891
4040.2326	-3.3210	0.9091	-15.9890	-3.0614	7.7769	0.8370	-8.2510	0.7785	0.3200	-4.9606	-7.5350	46.5564	-16.3199	-9.7606	-20.1235	-22.8223
4048.2331	-0.9814	1.3690	-14.2728	2.1918	-3.3023	2.4237	-7.9935	2.0208	3.9203	-0.9779	-0.4868	48.4227	-16.3197	1.9464	-12.3196	-16.8650
4056.2335	-2.2874	-1.1523	-20.6145	-5.3622	-6.7452	0.3513	-6.0527	1.6105	6.3823	0.2706	3.1430	47.2859	-7.0948	-1.1755	-3.9953	-8.1156
4064.2340	-1.5628	-1.2745	-20.8449	-7.4729	3.4375	-0.6716	-4.7623	1.4178	2.3155	-2.8825	-0.5695	38.2718	-8.3689	-13.0284	-3.1906	-16.3989
4072.2345	-3.2614	-0.2839	-15.0548	-6.8610	2.1401	-0.3906	-10.3661	-0.6067	3.8179	4.9145	1.6711	41.7207	-15.8664	-10.9130	-8.7152	-26.9072
4080.2349	-4.2410	-2.9503	-17.3290	-5.7199	-13.1648	-4.0356	-7.9323	-4.6138	2.2553	1.9188	-0.4276	35.3957	-10.2338	-10.3308	-6.8403	-18.3759
4088.2354	-4.5995	-4.2417	-13.2230	-3.3107	-19.8360	-7.7657	-4.0025	-8.6142	-3.5403	-5.3631	-6.5020	24.8310	-3.6481	-13.7198	-5.6777	-10.5142
4096.2358	-1.5525	1.7333	-1.6785	-0.9144	-4.0988	1.6720	-7.2242	0.2945	4.8757	13.4764	7.6159	40.6559	-6.4004	4.3710	0.6329	-6.5191
4104.2363	1.7440	3.0586	-1.2685	-1.6218	4.3501	5.3174	-5.1453	6.0946	6.2158	16.0703	9.8168	37.0318	-4.5065	11.2616	12.0086	-1.2289
4112.2368	-6.4092	-4.6473	-8.3171	-15.8300	-13.4714	-6.5902	-7.2785	-5.4636	-2.0284	1.3652	-2.9265	16.3271	1.8577	-2.2410	9.0809	-4.7578
4120.2372	-8.8092	-5.8637	-11.9955	-18.0489	-15.2404	-7.6625	-9.5851	-7.9629	-2.7927	1.0737	-0.7651	12.8697	-2.1222	-8.8417	-1.1563	-14.2183
4128.2377	0.8704	0.6566	-3.2676	0.6951	4.7920	0.1555	-3.0562	0.0448	-1.8758	-3.3070	1.0867	6.3920	-10.1733	-8.7480	-3.0912	-18.4492
4136.2381	4.3353	4.4065	9.1152	5.2669	8.8378	3.5323	-5.1374	3.9385	9.7961	1.5470	10.4047	8.7343	-11.4369	4.8431	8.6145	-15.4129
4144.2386	0.2852	0.8500	5.2630	-6.8729	0.1923	-0.9829	-8.4827	0.3206	13.7213	4.1284	15.6709	6.6528	-5.5628	2.3094	17.4258	-14.7993
4152.2391	-4.8287	-4.1778	2.3656	-14.2109	-4.0676	-10.2483	-4.4394	-8.7541	0.0076	-13.8288	0.4043	-15.6609	3.5480	-18.2918	9.5082	-14.0454
4160.2395	-2.4371	-1.3807	10.4085	-6.4371	-2.0333	-7.1770	-4.0875	-6.7107	5.0643	-11.3456	3.7483	-17.6756	1.2590	-10.0791	7.4934	-11.3290
4168.2400	1.4541	0.1583	9.4702	-1.1326	0.4233	-3.9168	-2.1290	-3.0211	9.6498	-5.6602	8.8761	-16.4902	-0.6620	-7.3798	12.5671	-10.5062
4176.2405	-2.0751	-2.8606	6.3470	-8.1479	-1.9275	-7.8789	1.2225	-6.3571	0.0292	-11.2186	-0.0558	-22.4837	9.7056	-13.4796	11.5441	-0.1823
4184.2409	-1.8030	-1.4386	6.2630	-8.3387	-4.1339	-3.1687	-2.6686	-2.0476	5.8270	-1.6724	7.8603	-12.8058	5.9772	3.1165	13.1439	2.0574
4192.2414	-3.7021	-2.3200	2.1984	-11.9015	-5.0253	-3.8960	-8.8064	-3.5213	7.5276	-0.6158	9.0298	-12.7772	-4.4737	-0.2723	7.2640	-15.9468
4200.2418	-6.6420	-3.6227	4.4528	-13.8183	-3.3334	-8.0574	-9.4539	-8.9005	-2.3043	-5.4056	-2.2093	-19.2559	-6.2088	-12.4591	-1.3549	-24.3496
4208.2423	0.1153	-0.0244	8.9823	-2.0278	-0.6764	-2.9188	-7.5283	-3.8391	0.6332	3.7133	2.7931	-13.4890	-12.2429	-5.0825	8.3024	-25.4106
4216.2428	1.7121	0.5748	8.8311	-0.1935	-3.8763	-1.3958	-9.1776	-2.6128	5.3828	9.4010	10.9766	-10.7005	-15.6844	-1.7735	12.9843	-29.3049
4224.2432	1.9519	0.4859	9.2081	3.1113	-6.6312	-0.5689	-6.5373	-2.6511	-0.2516	7.0359	9.5686	-16.0194	-14.0361	0.5055	8.2503	-24.3281
4232.2437	2.0623	-1.0841	5.9699	1.6166	-9.2983	-2.0622	-3.2362	-3.3215	-5.8995	2.1597	7.4682	-21.6904	-9.1159	-2.8234	11.6202	-19.4754
4240.2441	-6.6947	-5.4212	3.3171	-15.1361	-16.4870	-8.4315	-7.3991	-9.8508	-3.0380	1.5917	8.5919	-22.9039	1.4715	-7.7791	7.7855	-13.9051
4248.2446	-4.9441	-3.9234	7.4925	-9.5371	-14.3868	-6.6339	-3.1786	-7.9077	1.5390	-0.2588	8.2276	-27.4937	7.0544	-2.0047	5.8524	-0.4996
4256.2451	0.3305	-1.6282	11.0974	-0.9776	-5.3780	-5.0594	2.2696	-5.1609	0.1430	-7.5599	6.0075	-34.0527	6.5969	-6.7459	9.9438	-0.3558
4264.2455	-2.5087	-2.9047	11.2834	-3.2350	-8.2938	-7.4546	1.4573	-8.8233	-2.3664	-7.2724	3.7927	-36.5952	7.7266	-11.9878	3.1806	-1.8518
4272.2460	0.5593	-1.3532	12.6834	3.9236	-8.0864	-4.2286	6.8654	-5.7597	-0.9671	-3.1048	6.3269	-35.5769	13.0258	-6.3691	4.4784	12.0858
4280.2464	0.3017	1.2602	12.4717	-2.5797	9.2229	0.5939	2.3565	-0.1004	7.2063	3.7371	16.9902	-23.9981	9.2511	-4.9803	3.9322	4.5700
4288.2469	-4.4565	-0.9633	1.9799	-13.9008	15.1507	-0.6285	-3.1827	-0.4684	12.3985	1.1097	13.0829	-25.1999	4.2131	-10.1075	-7.7263	-6.8533
4296.2474	-3.6204	-4.4004	-5.2717	-11.2857	8.1818	-5.9168	7.3269	-3.6435	4.1438	-15.2614	-2.7924	-38.8493	17.0508	-19.8481	-6.3411	10.6836
4304.2478	-0.1765	-1.1861	3.1165	-2.6557	10.9637	-1.8309	11.0695	-0.8393	-4.3516	-9.4172	-0.1017	-29.9147	18.9370	-13.8980	-2.4934	18.7064
4312.2483	5.4496	2.4753	6.9476	7.1387	9.9681	6.0630	11.4894	6.3191	-4.4447	4.8158	8.6912	-19.3064	13.4534	4.8832	6.6783	22.9023
4320.2487	4.0900	0.7247	1.6252	1.2909	5.8301	4.6045	8.9689	6.3517	-1.1067	2.3574	7.9607	-18.2128	13.2628	8.0171	11.3924	21.9392
4328.2492	1.4825	1.5532	1.5453	0.1517	9.4774	5.0622	-0.1870	5.0934	2.1441	1.7858	5.6588	-14.7914	-3.3669	7.5448	-3.6366	-1.9638
4336.2497	7.4779	3.5999	6.0001	13.9358	5.5214	6.6221	5.9699	6.2659	2.1964	1.2385	8.7703	-16.6248	-2.5415	7.9105	2.6198	3.8324
4344.2501	7.5811	3.2818	12.3624	13.2379	2.8535	3.9890	10.9706	3.6788	-1.5167	1.6881	13.7834	-16.2415	10.9433	1.9893	12.8605	17.5526
4352.2506	5.8386	4.8933	16.3774	11.9488	10.3919	6.5681	5.5004	4.7366	-2.4532	7.8224	11.2871	-14.6625	1.9919	6.6469	3.5369	7.0014
4360.2510	6.7034	5.0196	13.4670	12.5938	8.0660	8.7256	6.2128	7.7560	3.1324	11.2225	11.7951	-12.0522	3.9804	16.8129	6.1556	16.2040
4368.2515	3.7758	2.5578	10.7451	7.1797	2.0321	5.0547	6.2405	4.1937	0.6691	8.3829	9.9110	-13.7877	9.0485	12.2254	6.2879	19.0478
4376.2520	2.8450	1.8707	12.7392	6.4749	5.6371	1.9283	3.3534	0.6747	-4.8811	-0.0215	1.3504	-26.6354	0.1962	2.1891	0.6582	0.6731
4384.2524	-1.8844	0.0895	12.5344	-3.0840	2.1390	-0.8766	-2.4885	-2.1097	0.8253	-0.0756	3.0626	-26.9221	0.5246	3.9877	-0.9682	-2.7672
4392.2529	-5.3908	-2.4102	10.2287	-6.6448	-7.7551	-3.7109	-1.2740	-5.5029	-2.4779	0.5998	-1.8439	-26.8219	8.3484	5.9744	-3.7418	9.1649
4400.2533	-0.6443	-2.0937	9.5427	0.3967	-8.3545	-2.8410	7.6019	-2.8910	-6.6685	-4.0348	-5.6295	-32.4919	16.6103	6.9847	6.0545	24.8875
4408.2538	-3.5576	-3.8265	3.2008	-8.0574	-11.1796	-2.9860	2.9799	-2.5749	-2.9132	-4.1161	0.1648	-31.8487	14.5816	9.9529	4.7943	19.6035
4416.2543	-6.3343	-5.3184	1.2927	-8.6085	-8.5239	-6.5115	1.8446	-7.8013	-12.6224	-11.6504	-10.0539	-41.6652	7.8617	-6.0521	-11.2422	3.4807
4424.2547	-0.2711	-0.2629	11.9553	0.2329	8.8772	-2.1730	6.6735	-2.6212	-9.2461	-8.0605	-6.0786	-35.9275	10.0035	-7.9411	-2.7594	8.2175
4432.2552	1.6288	1.3278	14.1565	-1.9370	5.3257	1.6966	3.5836	2.6864	5.3297	2.9834	9.4842	-23.8007	12.5911	10.5931	14.1678	17.4413
4440.2557	1.7871	-1.6268	11.3630	2.2563	-6.5764	-4.4455	8.2885	-3.9494	-0.3360	-6.1900	3.0204	-36.1620	15.9298	-3.6104	13.1033	17.0918
4448.2561	5.7053	2.4789	16.4787	12.2996	4.8986	0.3689	9.4134	-0.4425	-0.1156	0.2092	3.8239	-28.3660	8.7433	-4.6509	7.6174	11.3780
4456.2566	8.8044	6.1948	18.0662	16.6290	8.9473	9.2909	5.4718	8.4378	3.2581	12.6652	7.9829	-14.3964	-0.4481	20.5872	10.7008	12.7569
4464.2570	6.1472	2.6231	13.4640	10.7767	1.3587	4.1677	8.6333	4.2200	-3.9533	3.3436	3.1555	-21.6847	8.8178	12.9450	12.9563	19.9484
4472.2575	3.6348	1.6621	10.2446	4.7272	3.6846	3.3171	6.9987	3.6500	-2.5691	0.1382	5.7461	-21.6184	10.0742	9.3291	8.7227	17.6235
4480.2580	7.2314	4.4703	13.5002	10.9743	10.7942	7.0342	7.2154	7.7173	2.0548	0.3947	7.8662	-20.8501	4.8469	14.2428	9.4849	14.8002
4488.2584	5.6178	2.4981	10.1931	6.1944	10.2879	2.3568	7.3081	3.5146	4.2386	0.5960	7.4565	-19.7878	7.9620	-1.2390	12.0916	10.1825
4496.2589	1.8219	-1.9741	-3.1328	-2.0261	-1.1008	-0.7754	5.1008	1.0002	-1.1313	-1.2980	0.1770	-20.2607	7.0801	-1.5354	9.8633	7.9051
4504.2593	4.0792	-0.6193	-1.8543	3.3145	1.4143	2.2416	8.7212	4.2804	-6.5418	-6.7095	-2.9194	-23.4348	7.9330	5.5912	7.8978	15.1637
4512.2598	3.7329	1.4227	2.7705	1.0217	7.3103	3.8630	4.8185	5.4863	2.7883	2.5979	7.6093	-10.7043	6.8153	6.0928	10.7663	11.4973
4520.2603	3.2660	-1.0800	-3.4835	1.1722	-7.2628	0.2800	1.8426	1.9101	0.8195	2.5529	2.1794	-5.7586	0.7348	5.4451	15.3094	3.1267
4528.2607	3.9845	-1.2655	-3.7602	3.7059	-5.0556	-1.7397	3.5449	-0.2131	-6.4571	-4.2817	-3.9047	-7.4799	-1.5868	-5.1911	12.8959	-3.9015
4536.2612	1.9888	-0.5410	-2.8137	-2.6904	0.9628	-0.1434	-1.5387	1.1350	-0.7301	3.2897	3.4355	-1.3819	-4.2251	-3.3889	12.2264	-10.1052
4544.2616	0.2216	-2.5318	-3.8927	-1.2231	-16.5008	-1.5658	-3.0536	-1.5610	-2.6895	2.7709	1.5758	-5.4486	-4.7685	7.6298	10.1373	-5.4501
4552.2621	-0.4588	-0.2302	0.1185	0.3331	-6.5784	1.6445	-4.1315	0.2952	-1.7424	3.4575	4.0518	-4.3482	-7.5641	8.6421	-1.9870	-7.9756
4560.2626	4.0788	5.5748	6.6399	3.3840	21.8560	9.5503	-4.6087	9.5333	5.6339	8.3141	8.4533	0.9778	-13.8689	11.5297	-1.7840	-13.9827
4568.2630	5.5009	4.8102	7.9307	7.6927	15.1398	6.7565	-2.4124	6.8089	3.4801	4.7040	3.9493	-3.3074	-13.1797	7.9405	2.6707	-13.4471
4576.2635	-0.3163	-0.3016	0.7802	-0.2063	-1.1919	-0.9772	-3.7251	-1.9235	1.1773	1.5856	2.2014	-5.8719	-7.7479	-4.1185	-1.8691	-14.4085
4584.2639	0.9503	-0.2158	2.0705	-1.1365	4.0093	-1.4834	1.7079	-0.4489	-1.1211	-4.8894	-0.6512	-9.1130	2.1650	-5.8140	5.1963	-1.4315
4592.2644	1.5697	0.8392	6.0274	-2.3835	8.1639	0.1791	3.4512	2.2545	-1.8715	-4.2951	-0.6971	-7.0345	8.1353	1.4227	11.5836	9.5936
4600.2649	-1.4328	-0.5388	1.5634	-8.0736	4.4415	-0.5306	-2.1552	0.7974	0.4880	0.9565	1.2894	-2.9192	2.6160	1.7409	7.6000	-0.0210
4608.2653	0.0088	-0.7468	0.4400	-4.3408	3.6483	-2.3627	-1.5535	-1.3359	-0.4925	-1.2453	-0.5869	-4.8010	-1.6862	-8.0639	7.0596	-9.3001
4616.2658	-4.0180	-4.0302	-7.9139	-11.1418	-3.8614	-5.6228	-4.1922	-5.0776	-2.2077	-1.8665	-2.5589	-5.8577	-2.5425	-13.6782	0.8576	-14.7121
4624.2662	-6.5525	-5.1263	-10.6702	-15.6940	-3.1210	-5.7539	-5.3244	-4.9614	-5.2069	-7.4930	-6.6815	-10.7568	-2.2736	-10.6007	-5.7122	-13.8670
4632.2667	-2.0906	-0.3948	0.3256	-8.2048	7.3786	-0.6669	-4.8776	0.4271	1.1946	-3.9320	-1.0533	-5.4943	-4.2495	-0.6684	0.3835	-10.6846
4640.2672	-1.1106	-0.4200	-3.5596	-6.2275	-0.9389	0.8219	-8.3161	1.4848	7.2726	5.0519	3.7541	3.8551	-10.5265	6.7777	3.9179	-15.0080
4648.2676	2.2872	0.6627	-3.1947	3.4510	2.1311	1.8722	-1.3480	2.1318	-4.7384	-0.8826	-4.9273	1.4119	-9.8772	1.2433	-0.0995	-11.1378
4656.2681	6.0300	4.6489	2.9559	11.5168	14.7663	6.6966	3.2428	6.2764	-6.0596	5.2625	-1.6065	10.4636	-7.8078	0.2261	-1.3442	-4.7730
4664.2686	3.3343	2.5277	-2.7321	8.1878	1.6977	4.5784	-2.0443	3.3796	0.6815	10.8568	1.3245	17.5358	-11.8495	3.2710	-2.4930	-10.0608
4672.2690	0.9231	1.7041	0.9468	7.1551	-0.2044	1.6461	-3.7011	-0.3490	-5.7901	5.8813	-8.4937	12.7667	-13.5933	1.4129	-7.6506	-13.7967
4680.2695	-1.1756	0.6271	-1.2081	2.5678	-0.8479	2.4204	-3.0140	0.5703	-9.9829	7.9696	-11.3476	10.9703	-8.7529	7.3599	-9.2684	-4.7665
4688.2699	-2.0622	-3.2985	-10.5095	0.9819	-17.4386	-0.9427	2.3800	-1.6362	-12.0400	-1.2974	-11.3292	3.8785	2.3883	8.4589	-5.7427	11.4256
4696.2704	-1.0379	-1.4367	-7.3113	2.2367	-5.7994	0.4052	5.4420	-0.2131	-10.2037	-0.9528	-8.0370	5.7945	6.5640	0.9884	-8.2031	14.5183
4704.2709	-5.2512	-2.4883	-12.2126	-7.8161	0.6375	0.6635	-1.1336	-0.2193	-6.1511	7.4467	-9.2973	7.7698	0.8711	-0.5846	-15.7680	3.4656
4712.2713	-9.5829	-8.0516	-20.0398	-14.2310	-19.3977	-6.9929	-3.0040	-7.2215	-12.1008	-5.5356	-20.4193	-2.8469	2.0521	-1.8772	-15.4145	2.0694
4720.2718	-4.9751	-4.9464	-15.8827	-6.8800	-11.4369	-3.2582	2.3239	-2.6948	-10.8877	-4.1059	-16.9722	4.1359	6.3279	0.2972	-9.3037	12.1828
4728.2722	0.8570	2.3665	-4.3101	1.4196	14.4606	5.7725	2.6291	6.2887	-1.4477	7.7799	-7.2311	15.8402	1.0011	4.9701	-7.8146	9.6764
4736.2727	0.5535	3.2464	1.8135	0.7418	16.8151	3.9098	-1.5749	4.2025	1.5042	4.6426	-5.2407	16.0621	-4.4632	0.8710	-5.9212	-2.8025
4744.2732	0.7372	0.4229	-5.1023	-1.2135	6.2441	0.9479	3.1924	2.3981	-2.7295	0.4315	-3.3319	15.6875	4.9134	-3.7317	2.7160	7.3938
4752.2736	4.7967	2.6670	0.1081	9.0434	6.1983	3.8735	8.3322	4.7067	-7.6606	-0.1745	-2.8520	15.2412	6.5531	1.0843	4.5811	15.6390
4760.2741	6.9325	5.9506	6.0213	20.4567	4.0897	7.8498	2.0148	5.6304	-0.2794	9.1884	-0.6932	19.6917	-11.4351	10.6898	-5.7933	-0.9762
4768.2745	4.9296	3.9604	-2.5410	18.5360	-6.1644	8.4072	0.1734	5.5658	7.3160	16.3152	1.9350	20.2966	-11.9781	17.8199	-11.5102	2.9472
4776.2750	0.8827	1.6809	-4.1140	9.0900	-6.4894	5.3762	0.3262	3.2689	5.0004	11.0612	0.9247	15.6358	-3.5045	14.4802	-12.2494	9.3373
4784.2755	-4.4170	-3.0789	-13.6769	-1.6560	-11.8323	-1.7722	-1.8394	-3.5099	0.4902	3.5312	-6.0170	10.1141	-2.5926	-2.5564	-17.5425	-0.6461
4792.2759	-5.6739	-5.7624	-19.0853	-2.5553	-18.5218	-4.8891	2.4318	-6.1431	-6.8823	-3.7429	-14.8813	3.4840	3.7431	-6.6513	-19.6642	7.8006
4800.2764	-1.4639	-0.0582	-7.3365	5.9680	-6.2027	2.5019	-1.0576	0.3451	-4.3652	1.9549	-9.8878	10.3194	-7.6441	7.6020	-19.4647	-0.0182
4808.2768	-3.2209	0.2934	-9.8339	1.0589	-1.1069	3.9377	-7.7934	1.2646	2.1531	8.8855	-5.4528	14.4571	-16.8751	7.4085	-24.4755	-14.9918
4816.2773	-7.4187	-3.2270	-11.6203	-6.7149	-6.0560	-1.3035	-1.7791	-3.1172	-3.7283	3.2164	-12.0144	7.6602	2.0713	1.0020	-23.5973	6.8828
4824.2778	-5.1414	-2.5637	-7.2944	-2.5766	-5.5365	-3.2127	2.7754	-4.7098	-7.4737	-0.7958	-11.0689	9.9903	7.6658	-7.8387	-16.3529	10.9066
4832.2782	-4.6700	-1.9419	-8.0309	-0.1606	-4.9485	-4.1784	-1.6422	-6.7596	-4.7677	-1.0187	-7.9360	15.0869	-3.7395	-17.0659	-20.6836	-9.5028
4840.2787	-2.7138	0.2916	-6.4993	6.4046	-4.0532	1.4031	-0.4671	-1.6148	-3.2101	3.6309	-10.1761	18.0154	-5.3079	0.4879	-25.0892	1.1123
4848.2791	1.4730	1.2510	-8.9193	12.1854	-0.8848	4.8130	7.5956	3.6320	-6.0221	2.2038	-14.7115	16.6227	2.3833	7.5136	-19.0581	19.8956
4856.2796	0.9523	3.1393	-0.2100	11.1532	9.0078	3.3121	3.3125	1.8703	-2.1186	0.7106	-15.1142	18.3175	-3.1090	0.2088	-19.6868	6.3987
4864.2801	1.8144	4.7449	3.2920	10.8550	9.3551	5.1848	-2.2350	3.7264	6.3957	7.5959	-7.8001	25.7004	-9.9571	7.8379	-13.6866	-1.6486
4872.2805	-0.4888	-1.9132	-15.3711	0.8619	-2.0000	-0.3359	5.1248	0.7237	-7.8279	-2.0461	-15.0457	16.6803	3.6036	-4.7107	-7.2830	10.1472
4880.2810	-3.3544	-2.2251	-15.9033	0.9148	-0.6308	-0.4871	1.1025	-1.5023	-13.9820	0.5593	-26.1323	15.0967	-5.8237	-5.6602	-22.6084	-1.2952
4888.2814	0.0022	2.2714	-9.9927	8.9138	-0.0913	7.1833	-2.2885	5.3875	2.3145	15.2665	-14.3165	30.7957	-11.1757	17.5996	-20.3625	5.0444
4896.2819	0.7075	0.6130	-12.9439	3.5843	1.8988	3.9142	9.0238	5.6580	-0.6695	-1.9013	-7.3543	29.7177	13.7529	6.5170	-7.0914	31.5775
4904.2824	0.4982	1.2137	-10.3258	5.7443	6.3718	1.0324	5.2264	2.3278	-0.6751	-12.0556	-12.9455	27.4018	2.9587	-4.8124	-14.3206	11.0168
4912.2828	-3.1509	-0.4758	-15.5023	-3.2454	-0.9743	-0.2131	-4.2240	1.3413	9.3730	-6.0904	-8.8948	36.5593	-4.2603	2.1872	-12.5263	0.1942
4920.2833	-6.6169	-2.6943	-20.9803	-17.7982	6.0605	-1.5322	-1.6871	2.5006	2.5040	-10.6730	-7.4247	38.9815	9.8345	-2.6682	-5.9955	12.2888
4928.2838	-6.1201	-3.5560	-22.5831	-15.4656	5.5610	-4.7770	-2.6132	-0.7670	-0.3713	-15.9550	-16.4971	34.1024	2.5969	-13.1297	-8.3367	-1.3473
4936.2842	-10.3371	-6.9766	-21.4472	-19.4048	-8.3993	-13.4058	-2.9490	-9.8150	0.7893	-26.1631	-19.0362	30.1293	9.7771	-24.1032	-8.9122	0.4879
4944.2847	-3.5887	-0.9719	-8.9471	-7.9530	4.2195	-5.6381	2.6396	-1.9060	1.6269	-24.0436	-7.2318	36.6163	13.5909	-13.3965	-1.0029	13.0181
4952.2851	3.3428	3.5644	-2.5348	1.1281	5.8109	2.3598	-0.2982	6.1746	8.2572	-8.3287	4.9629	47.2916	3.1001	6.5358	15.2852	8.7083
4960.2856	-0.3175	0.9526	-3.3710	-4.9231	-4.2045	-1.9323	-3.9497	0.8968	6.2023	-6.0531	6.1451	47.0200	3.3647	2.1976	16.4737	3.2596
4968.2861	6.4806	3.7404	-0.9688	8.1040	1.3636	2.2787	2.3929	5.1332	6.0935	-5.1711	8.1314	39.6468	1.0142	1.9912	18.9793	5.1083
4976.2865	5.3732	2.9286	3.7821	3.6477	-4.0920	0.6251	0.3915	3.9731	11.1335	-2.5950	12.9081	34.1075	5.3077	8.1817	28.8184	9.6845
4984.2870	2.9269	2.3866	7.7802	1.3969	-6.9896	-1.8319	-3.4109	0.0364	10.1299	-2.7667	14.6533	31.5001	2.1013	3.9464	25.1940	0.3503
4992.2874	7.1127	3.4308	6.1658	8.3237	-7.0241	0.1996	-2.0732	2.1360	9.5768	-2.7912	17.5647	28.9204	-4.4455	2.8685	28.4919	-7.2341
5000.2879	-3.9139	-1.2138	7.6443	-9.1182	-15.5739	-7.4275	-11.0113	-7.0484	6.1252	-6.1789	10.3631	20.3756	-2.4335	0.3017	17.2224	-13.5187
5008.2884	-1.0179	1.0934	11.7513	3.6145	-10.3516	-5.2598	-9.3966	-7.3015	5.1942	-2.0126	2.5996	12.0737	-12.3763	-3.8375	3.4575	-22.4501
5016.2888	6.1582	5.1631	17.1537	15.0210	-2.7795	-0.4422	-5.0712	-2.0320	11.9639	5.5496	11.2797	17.7358	-13.3189	-2.2619	13.7338	-19.3994
5024.2893	-0.9273	3.1740	18.8169	3.5576	-5.1572	-4.4918	-12.8163	-7.1260	12.3661	1.8200	10.5369	17.6053	-14.9288	-4.1966	4.8287	-28.4325
5032.2897	2.9531	1.5812	8.9886	10.2343	-11.4149	-3.6855	-5.2507	-5.0736	8.9438	-3.5512	5.9985	5.7790	-12.3741	-4.2544	6.4575	-19.8783
5040.2902	0.3692	0.7075	11.4612	0.7612	-10.6234	-3.3683	-3.3251	-3.6270	6.6612	0.2719	10.5747	7.0918	2.4354	3.3584	15.6784	-0.0971
5048.2907	-1.2530	2.2096	14.7700	1.9827	-0.7240	-1.8906	-7.9898	-4.1320	3.7027	3.4587	2.2636	4.5046	-9.4955	0.9354	0.0007	-16.0747
5056.2911	4.0132	2.8676	6.5746	10.9084	2.4033	0.8542	-1.6301	-0.4273	7.5954	3.2745	2.5953	0.6950	-10.8617	-4.1948	-0.8537	-14.2343
5064.2916	-1.1740	3.2491	12.4892	-0.8899	6.6271	1.9094	-5.0063	0.3101	12.0610	7.1286	15.1265	7.3057	-0.4383	3.5890	-1.5001	-2.8344
5072.2920	5.0041	4.1905	13.3490	7.9254	8.0987	3.1071	1.3705	2.8046	7.5430	3.2658	13.4571	-3.1120	-0.4323	1.2346	9.2858	-1.1944
5080.2925	5.1358	0.9218	6.0125	2.4293	1.9199	-1.0097	6.9867	1.1548	6.0735	-1.4535	14.5104	-6.4076	12.4788	-7.3856	22.6784	10.7617
5088.2930	-4.4194	-0.7834	5.3135	-9.5298	0.6575	-3.2456	-1.5703	-3.6818	8.3764	0.6409	14.1462	0.7029	11.3339	-7.2026	0.9150	5.6171
5096.2934	-1.6673	-2.5155	-0.6913	-3.1613	-6.8617	-5.4079	5.0983	-5.0016	6.2866	-5.2742	7.5964	-8.1515	15.0726	-12.8787	3.0871	12.5131
5104.2939	-8.5327	-5.7429	-2.6654	-18.0125	-8.8779	-10.0497	0.5123	-9.4671	6.4660	-6.4264	7.4509	-10.3086	20.5873	-17.5050	0.8026	11.6028
5112.2943	-11.4600	-4.2534	0.0951	-16.9995	-0.5640	-8.4157	-8.5656	-10.7283	3.1077	-8.4166	-0.2560	-15.3100	0.0888	-18.1563	-22.9999	-16.5561
5120.2948	-1.7701	0.5002	9.0971	1.0077	2.7106	-2.5454	-1.2090	-4.0428	-0.2575	-8.3260	-0.3181	-13.5736	-1.1585	-6.4639	-8.9070	-6.7341
5128.2953	-0.7265	4.8128	17.9379	1.6379	9.9506	4.6977	-5.3900	2.2758	8.7007	12.7638	11.1308	6.1477	-2.1871	12.6142	-3.2198	0.3890
5136.2957	-1.8761	2.8513	8.9812	-0.9104	13.8199	2.9753	-6.1463	0.4230	6.6588	11.4334	4.8578	-2.8408	-8.7687	-1.1235	-12.8976	-14.0467
5144.2962	-0.8420	1.4037	7.9757	0.2606	13.7597	0.2422	-1.0883	-1.4098	-2.2935	-0.9367	-1.3512	-17.8814	-4.9407	-10.0116	-11.6400	-12.8220
5152.2966	0.3021	1.8217	8.5192	4.1863	5.4359	2.6856	-3.8933	-0.1893	3.0096	7.5671	4.4553	-19.7929	-10.9265	1.5225	-10.8900	-15.1250
5160.2971	-4.0904	-4.4524	-1.0534	-7.0852	-9.0482	-5.4778	-2.3009	-6.9689	-1.1445	-0.9721	1.0084	-33.8564	-0.8293	-9.6320	-5.2961	-10.9985
5168.2976	-2.7127	-2.4438	4.0454	-3.3142	0.1061	-2.7199	1.7595	-4.1580	-7.6540	-4.4015	-4.3063	-36.8417	2.5752	-6.1849	-8.8706	-2.2320
5176.2980	4.7991	1.6777	5.0355	15.1813	-0.4914	4.5870	2.9173	1.4819	0.7901	8.0887	0.4691	-32.8076	-10.7899	4.3469	-11.4635	-7.4887
5184.2985	-2.5483	-3.5034	-0.9246	0.8524	-13.8827	-3.0360	-2.7190	-6.5705	2.3703	4.1817	4.5385	-37.3923	-7.4064	-5.3724	-13.4603	-14.8169
5192.2990	-0.3404	-1.1372	-1.3916	1.5170	-1.4878	3.3972	1.7518	0.9627	3.2538	6.9637	9.4828	-35.9191	-1.2167	3.4650	-13.7398	-0.3029
5200.2994	4.0961	-1.2121	-7.9398	3.5078	3.0676	5.2765	10.4280	5.5212	4.6942	5.5550	13.1328	-38.7100	8.8401	-0.0482	-2.8479	14.2690
5208.2999	-5.7932	-5.2475	-8.1430	-12.5862	4.5948	-4.3880	-0.0262	-5.2574	-5.5810	-11.9295	0.6625	-47.6612	-0.0113	-20.5493	-19.6236	-15.7848
5216.3003	0.9481	-0.6767	-6.1582	2.8819	13.2749	2.8805	1.9807	1.6645	-4.3629	-9.1049	-3.4974	-43.3545	-11.9364	-10.8497	-24.1133	-19.7260
5224.3008	0.2762	-3.5761	-11.2532	-4.9408	-1.3722	1.2969	7.4646	2.7318	2.2985	-2.0391	6.7611	-34.3573	11.0150	-0.5072	-1.3800	14.0477
5232.3013	-10.1915	-7.6019	-8.6753	-23.9452	-7.2901	-5.8463	-2.4771	-5.1741	-2.5461	-9.9484	2.6327	-39.9215	12.1104	-2.2263	-8.3545	4.7431
5240.3017	-0.5196	-0.9631	-0.2028	-4.2076	7.1138	2.5330	1.0619	2.8710	2.0065	-6.9583	5.1607	-39.1333	0.1847	4.2965	-8.0203	-1.2674
5248.3022	2.3210	1.3822	4.3350	-0.4087	7.8758	5.0439	3.0682	5.5475	6.6998	2.6720	14.2764	-23.0193	5.3587	8.6871	3.0962	8.7367
5256.3026	-1.9343	-1.9230	-1.2782	-3.7584	-4.6274	-0.0421	-0.2682	-0.7956	-2.8938	-2.0705	3.9572	-19.6868	1.1302	3.1497	-4.4032	0.0521
5264.3031	-0.9604	-2.3736	-4.9715	-0.4249	-6.7533	-0.9270	1.9380	-1.5174	-5.4964	-4.9484	-1.2016	-16.9982	0.5437	-1.0193	-6.0315	0.1936
5272.3036	0.4844	1.8306	5.3580	-1.3751	9.8217	3.6344	-1.4284	3.4421	0.1783	3.7759	3.8579	-7.4239	-2.1404	5.8533	-0.6408	-2.1049
5280.3040	5.6163	4.4737	12.2589	6.5255	16.0705	5.5869	1.1039	5.7471	1.9846	6.2092	6.4281	-11.3827	-4.6795	4.4649	8.1210	-4.8733
5288.3045	3.1625	0.8038	8.8602	0.4791	5.7425	0.0066	4.4975	0.8780	-0.0465	1.4216	8.0142	-18.3075	7.5496	-3.9625	14.3616	5.0282
5296.3049	1.3508	-1.1420	5.6392	-5.5330	1.0134	-1.2497	2.9028	1.0985	-2.9462	-5.0840	3.0715	-23.1410	8.8304	3.7066	18.2368	7.9565
5304.3054	6.8615	0.9996	8.2170	4.8513	-0.1773	0.9925	5.0330	3.8530	-1.6512	-6.4519	3.5765	-21.8828	3.7138	8.2682	25.7796	6.2316
5312.3059	7.3943	2.3380	10.2566	5.6129	2.1900	2.7127	5.7446	4.7629	1.4526	3.2078	12.4483	-11.0751	7.0436	6.6034	27.8942	10.1012
5320.3063	8.3531	2.7432	5.9489	3.2631	8.2445	6.5537	7.9101	10.0607	2.4296	4.5291	14.2885	-12.1362	10.5638	14.0881	29.4654	19.0383
5328.3068	7.7434	2.3101	5.0813	2.2939	9.7699	5.8679	7.8013	9.8783	1.9630	-2.9144	10.7750	-18.6354	9.6817	13.6572	25.7129	17.3642
5336.3072	3.9066	0.3182	3.1531	-3.2241	5.8245	1.6252	3.9538	4.5865	1.4293	-1.2895	9.1521	-15.4227	7.7579	3.5714	21.1995	7.7460
5344.3077	2.3310	-1.6501	-4.5473	-8.3609	3.5661	-0.1399	2.5175	3.2460	2.3087	1.9103	9.0479	-11.1128	7.1355	-2.8472	21.7684	3.0719
5352.3082	0.5111	-1.7137	-5.6163	-9.3037	4.5057	0.1799	0.9536	2.9060	-0.3006	-0.2976	5.2978	-9.1903	4.6876	-1.5455	13.3217	0.9542
5360.3086	1.8214	-0.4406	-0.3377	-2.2209	0.3896	1.5637	3.8612	3.2141	-3.4303	-0.8303	3.9805	-8.5500	7.3669	5.7137	11.5104	10.8707
5368.3091	4.1504	1.7982	7.8369	0.8613	6.3070	3.2207	6.8596	5.0654	-1.9285	4.0262	7.8594	-6.4461	13.1454	7.3266	19.2745	19.7645
5376.3095	0.4842	0.9351	8.6189	-8.4717	13.0682	1.2473	3.4107	3.5253	-3.1004	3.3386	4.8870	-6.9295	13.8936	2.4696	17.4815	14.7203
5384.3100	-5.1945	-4.1056	-1.2276	-14.5698	-4.6565	-5.3138	-1.6493	-4.1077	-5.2677	-6.2443	-1.0101	-14.4225	8.5864	-3.3580	6.0403	2.5659
5392.3105	-3.4223	-3.2188	-0.0121	-5.5118	-9.1167	-5.1757	-1.8558	-5.7693	-3.7605	-6.2429	-1.4825	-15.8423	1.0119	-5.7475	-1.3049	-5.5324
5400.3109	3.2998	1.2254	4.5087	6.1778	2.5666	1.7679	5.9235	1.6676	-1.4861	2.8885	1.6244	-8.6664	5.5806	0.2461	4.2261	10.0319
5408.3114	3.1086	-0.1749	-1.0419	6.5339	-5.6367	1.9475	8.0964	1.7994	-2.3100	6.4224	1.8070	-5.7255	9.6771	4.0955	5.1619	19.2579
5416.3119	0.1210	-1.5276	0.4328	4.0157	-11.7869	-0.9391	3.6827	-2.1576	-7.1767	2.8995	-4.1305	-8.3436	4.4569	4.3490	0.4955	10.3152
5424.3123	0.5960	0.0192	4.4420	4.5440	-4.0526	0.4058	3.4143	-0.4102	-6.3491	-2.1984	-4.6521	-10.9534	3.3805	6.0256	-1.8712	9.2161
5432.3128	0.0745	0.4613	2.9738	2.1107	2.0454	1.0237	1.9122	0.3133	-1.2047	-1.9646	0.3076	-10.2192	1.6826	1.3446	-5.4733	3.5368
5440.3132	-0.9710	-0.1321	3.4365	-0.2795	1.3083	-0.5688	1.3003	-1.2819	-0.9174	-0.7484	0.2524	-8.9998	3.3033	-1.8790	-3.8282	3.0943
5448.3137	-0.9544	-0.8368	1.7951	4.6960	-5.7743	-1.3563	1.8332	-3.4710	-1.7385	-0.8941	-3.0680	-13.6861	0.0204	-2.6100	-11.1105	1.0424
5456.3142	-0.7108	0.4412	3.9748	10.0701	-4.9958	-0.1307	-2.2883	-4.8679	-3.7785	3.5974	-3.2117	-13.7817	-13.1912	-5.7545	-21.9568	-17.1610
5464.3146	0.6501	3.1516	10.7523	8.7741	2.4626	3.5742	-3.1205	-0.3283	-2.1634	8.2300	3.4583	-3.2134	-10.3591	4.3052	-12.5167	-10.6105
5472.3151	0.5763	2.0433	8.5757	4.5369	-0.6004	2.7578	-0.0404	1.0598	2.3726	6.5174	5.4734	-1.4816	1.0457	9.4357	-1.9506	6.3353
5480.3155	-3.7259	-1.6826	4.9053	-1.4377	-6.7761	-4.1344	0.0730	-6.1397	-4.7609	-2.3565	-3.2013	-9.4156	4.3173	-5.1226	-7.5368	2.1569
5488.3160	-2.0368	-0.0607	4.5425	2.2895	0.0326	-0.9802	2.7628	-3.0898	-7.7143	-3.1400	-3.3728	-6.9032	4.1710	-4.4980	-12.0290	4.9030
5496.3165	2.7517	2.1798	3.0068	7.0365	4.5037	3.8210	6.7692	3.2272	0.8599	5.9050	4.3667	2.4705	8.2504	2.5106	-1.3358	16.7896
5504.3169	-3.0459	-1.0402	4.1611	-1.9984	-2.5134	-3.7664	2.8500	-4.9523	-3.7206	-1.3287	-0.8383	0.3286	10.4308	-8.8427	-3.8716	9.5097
5512.3174	-1.5569	1.1419	5.8467	5.0093	3.8041	-0.5616	0.6121	-3.2284	-6.3482	-4.7809	-4.6137	-3.9080	-2.6361	-7.3087	-17.2108	-4.8413
5520.3178	4.1132	4.1263	4.5805	10.6633	9.7796	6.5397	0.4121	4.9941	3.9841	9.3142	2.8559	1.6202	-8.6403	5.9091	-7.2062	-4.1856
5528.3183	-4.9208	-2.4829	-1.5589	-7.9587	-2.1388	-3.0357	-4.9073	-4.0731	-4.1483	1.9988	-7.3023	-7.9192	-3.6844	-2.9601	-7.5934	-9.1649
5536.3188	-6.6049	-4.8081	-6.4927	-9.2227	-2.6905	-5.8095	-1.9346	-6.9971	-14.0592	-6.5004	-17.7281	-20.1434	-2.3436	-12.3833	-16.2753	-10.4164
5544.3192	-2.5251	-2.0696	-3.9090	-5.0776	1.5210	-0.8690	1.5159	-1.1657	-3.8615	6.0243	-6.4889	-9.6824	4.1542	-3.4246	-4.8459	4.5907
5552.3197	-5.2580	-4.1201	-5.6749	-10.8522	-6.1614	-3.3052	-2.6163	-3.6076	-3.9305	5.5677	-7.0049	-11.9378	2.3884	-0.6463	-3.0009	0.1524
5560.3201	-6.1249	-6.5326	-11.0251	-12.7896	-13.2187	-5.9094	-3.8508	-6.2226	-8.7134	0.7906	-9.9137	-20.2390	-1.7230	-5.0452	-3.5937	-8.8432
5568.3206	-9.5933	-7.8333	-10.7167	-20.1142	-15.6352	-9.2887	-6.6431	-9.3288	-4.8533	-2.5985	-5.8832	-15.7386	2.3841	-9.2492	-2.7991	-9.2827
5576.3211	-6.7212	-5.5528	-4.6791	-14.1385	-7.0758	-9.0336	-4.6072	-8.4445	-6.0943	-12.8103	-9.4077	-18.6208	-0.0232	-13.5071	-2.9677	-13.2318
5584.3215	-0.7898	-1.1462	3.7106	-7.4335	-0.2639	-3.1054	-3.2562	-1.6514	0.1512	-5.7911	4.1877	-9.3337	0.1319	-2.4101	12.3253	-8.0233
5592.3220	-4.8448	-2.2571	0.7462	-15.5731	-6.7926	-2.8990	-12.2836	-2.4634	6.2277	1.1695	12.7252	-1.9242	-6.7133	4.9908	9.6182	-18.6964
5600.3224	-5.1517	-3.6036	-6.2056	-11.8499	-6.4125	-4.0757	-11.8196	-4.5562	-0.0757	-4.4154	-0.1681	-12.3312	-15.7389	-3.7927	-5.3361	-30.9640
5608.3229	-3.0301	-2.8752	-6.7841	-10.1195	-2.1756	-2.0266	-4.8102	-1.2341	-2.1333	-1.8738	-0.7903	-8.0385	-4.4124	-1.8078	0.8889	-11.6620
5616.3234	-0.7617	-4.1052	-11.2157	-8.6931	-5.0995	-3.5102	0.6290	-1.0774	-6.8014	-5.3029	-4.6585	-8.7876	1.5730	-6.3192	10.1774	-3.9161
5624.3238	0.6145	-4.5392	-10.0821	-4.6625	-7.2400	-6.6960	1.6929	-4.5054	-8.2090	-7.6422	-9.1023	-12.3828	-1.1627	-16.9526	12.0299	-11.5059
5632.3243	-2.2475	-3.3699	-5.9322	-8.9738	-6.5520	-4.4714	-4.4950	-3.4555	-2.0239	1.6085	-3.1777	-2.7580	-3.5919	-5.9214	8.7631	-12.1100
5640.3247	2.1307	-1.9624	-9.9812	0.1832	-3.6248	0.1396	-0.6608	1.1712	-7.4534	1.9001	-8.3261	-6.1024	-9.4777	-0.9736	5.2797	-12.0995
5648.3252	2.4014	-0.9022	-9.2549	2.2709	0.0188	2.1013	0.4254	2.4330	-6.1807	5.3308	-6.6673	-4.1235	-8.8043	-0.4133	0.2645	-9.1745
5656.3257	-1.3206	0.0515	-4.5013	-2.0038	-1.0488	3.3595	-6.5968	2.1774	3.9055	12.6628	0.4542	3.5146	-11.3135	9.8323	-6.3361	-10.5314
5664.3261	1.5897	0.3920	-1.3698	8.9566	-8.7863	1.5075	-3.0679	-0.7384	1.1554	8.4148	-4.1249	-0.6198	-13.2710	5.7364	-6.9377	-11.1244
5672.3266	-2.6134	-0.9703	-2.0882	3.4094	-10.0977	-0.3103	-3.6812	-3.4445	-4.4857	7.7274	-7.3542	2.8741	-8.5899	3.3717	-14.1673	-6.9076
5680.3271	-4.2968	-0.4864	-3.4262	-3.5854	0.5996	2.4577	-4.2912	0.4797	-6.8794	8.3827	-9.4843	5.1387	-5.7246	8.9462	-15.8387	-1.6686
5688.3275	-0.3674	1.3808	4.2053	1.5008	6.9670	1.4557	2.9731	1.1856	-3.6390	1.0224	-5.9827	3.1320	5.3648	2.0945	-4.5560	10.9038
5696.3280	-2.7027	1.0996	5.9901	-2.8960	8.4988	-0.9228	0.8527	-1.2679	1.8376	-3.3593	-0.2504	4.5584	7.5021	-4.5382	-7.0644	7.4929
5704.3284	-5.0399	-0.9070	0.3001	-7.7961	4.8507	-2.1404	-2.9349	-2.6187	-1.2156	-5.3322	-3.3295	0.0964	1.6598	-4.8728	-11.3063	-2.4881
5712.3289	-7.3271	-3.6683	-0.8556	-13.2339	-4.2299	-6.0491	-0.0958	-5.7989	-3.2401	-9.4636	-2.1756	-4.8820	13.6516	-6.4084	-5.0646	10.5684
5720.3294	-5.2153	-3.0509	-2.0838	-11.9315	2.0919	-4.9456	2.7335	-4.0516	-2.3340	-9.2363	0.9584	-8.1881	14.9044	-12.3248	-2.9740	10.0870
5728.3298	-1.5497	-0.4258	-0.5334	-4.7627	10.6979	-1.2361	1.4319	-0.8497	-3.8068	-5.3253	-2.1372	-7.4041	2.6789	-12.0747	-5.4958	-3.5018
5736.3303	-2.0444	-0.3772	-1.9978	-3.9042	4.2671	1.4883	1.2913	1.8987	-5.8636	-4.2106	-5.1167	-2.1858	4.0886	5.2094	-6.4206	8.3328
5744.3307	2.7918	1.5791	-3.5842	4.1520	5.4071	7.1320	6.9688	8.1882	-6.5508	0.2879	-2.7311	0.5274	6.8231	16.4102	-1.6210	22.0772
5752.3312	6.4132	4.6388	4.8261	12.1078	10.8559	9.3392	7.7909	9.5154	-2.0062	7.5042	1.5362	2.0732	3.8252	15.8809	1.7559	19.5136
5760.3317	7.5765	4.5225	5.4206	17.6605	4.8229	8.5078	7.8146	7.8535	-0.9321	9.0505	-1.9957	-0.7388	-0.1796	16.2459	0.4947	16.6228
5768.3321	7.9946	3.9080	1.6402	19.9898	2.0961	8.0230	8.2086	6.5510	-0.9856	13.7968	-2.7175	0.3603	-3.0033	10.6647	-2.3499	12.1535
5776.3326	2.0602	2.2702	-0.4608	10.3536	1.1814	5.3298	0.4946	2.5799	4.4686	18.6671	-1.5687	5.2189	-7.0915	6.3341	-11.9987	0.8464
5784.3330	0.1761	-0.3017	-8.5619	9.0529	-7.0994	3.2986	-0.6491	0.5944	0.2199	15.2900	-12.5298	3.0656	-10.8221	7.6251	-17.7563	-1.7010
5792.3335	0.0629	0.5704	-6.9190	6.8141	-0.7040	4.3320	1.0538	2.5468	-2.1702	13.0630	-12.7342	8.6976	-5.5040	8.7560	-15.4686	5.6482
5800.3340	-3.1962	1.2873	-6.0145	-2.8213	11.0903	3.6971	-5.2832	2.9166	6.1443	5.1896	-6.2974	13.2072	-8.6850	3.8741	-20.3326	-6.6230
5808.3344	-4.5379	-2.5118	-14.2706	-4.0033	1.1574	-3.3204	-5.8138	-3.2273	2.2313	-8.4402	-18.9668	5.3113	-13.1302	-9.1942	-22.2210	-18.4574
5816.3349	-5.1199	-2.9122	-10.0703	-9.3193	0.7908	-4.4909	-2.7620	-2.5939	-2.4016	-7.6909	-21.0700	11.5158	0.1871	-3.7458	-7.2444	0.1134
5824.3353	-1.2774	1.0217	-6.7375	-9.6712	13.4127	2.3292	-2.3095	5.8701	2.2807	-2.4696	-4.9143	27.1648	2.5534	5.4867	5.2753	5.5626
5832.3358	2.9308	1.9116	-6.0941	1.2520	9.9517	0.8124	0.8488	3.5053	-2.1618	-8.9697	-3.5916	28.5819	-2.9829	-7.4743	6.1080	-5.2668
5840.3363	4.7019	3.6140	2.9033	6.0837	7.8530	1.7274	0.4897	4.2219	-2.0015	-9.1345	-4.7152	26.8308	-3.7980	2.5733	11.8530	-1.5938
5848.3367	3.8661	2.3869	-5.4936	1.5611	0.2330	4.4497	-4.2937	7.4115	6.1876	0.6706	1.1348	30.9742	-8.3425	16.8165	14.6940	-2.2073
5856.3372	-3.2334	-4.6748	-19.3830	-8.2331	-14.2715	-5.2768	-2.4622	-3.1086	-3.6679	-5.9888	-9.9672	23.8966	-0.7013	-5.5726	3.6440	-2.8780
5864.3376	-3.1213	-3.1554	-10.9293	-6.2812	-4.3089	-4.3645	0.6164	-2.2210	-13.4866	-15.6854	-18.8927	11.9596	2.0265	-3.9322	-1.7688	2.1840
5872.3381	2.4604	2.8623	-2.9356	2.3004	8.5063	5.8748	-2.3215	7.8707	-2.2509	-4.4838	-7.6205	18.1296	-8.3123	16.8459	0.7697	-0.3825
5880.3386	4.8164	3.5680	-5.7980	7.0275	10.3773	5.8090	0.6876	8.0553	5.8643	1.5532	-5.8987	26.4177	-6.5709	8.7644	2.2287	2.0553
5888.3390	9.5307	4.8890	-9.1324	15.5220	12.4745	8.1962	6.0003	11.4721	6.1671	1.6534	-9.3168	30.6897	-6.4951	9.0718	5.7381	7.8905
5896.3395	7.7144	4.4256	-13.5704	12.7000	9.8906	9.5395	2.9303	11.8328	8.0987	9.2363	-4.7753	38.4673	-9.2534	11.5351	1.1440	4.9051
5904.3399	1.8576	0.6264	-16.5756	4.1752	7.3540	1.7029	1.6872	3.2298	1.9086	0.6492	-12.7260	30.5538	-6.4684	-8.8421	-8.6544	-3.7898
5912.3404	0.2075	-0.9341	-16.4480	2.9655	1.6915	-1.7134	1.2378	-0.2801	-2.6693	-8.4003	-17.4980	25.1559	-6.3682	-11.9982	-10.5963	-6.3592
5920.3409	-1.8087	1.1972	-11.2818	1.7873	2.1732	1.6410	-3.6000	1.4064	5.0334	-0.5963	-6.2310	38.1478	-7.5018	-0.8640	-16.0435	-4.3609
5928.3413	-0.9303	2.5781	-9.0404	4.7140	5.3093	2.6252	-4.5720	1.9471	7.2305	-3.2550	-3.3884	39.3955	-11.4269	-1.9087	-19.5857	-9.9762
5936.3418	0.0051	0.1669	-14.7438	6.5576	-7.7755	-0.1550	-1.9624	-0.4075	0.8745	-8.4105	-5.5077	37.5246	-9.7938	-4.1139	-13.4467	-8.1994
5944.3423	2.7412	3.7104	-6.6508	13.9200	-1.7575	3.6422	-0.9239	2.3198	1.3064	-1.8235	-2.4001	46.7565	-11.0356	0.7487	-13.0059	-5.1286
5952.3427	8.2506	8.6201	3.8808	21.1381	9.4781	9.9573	-2.1475	9.3238	5.9047	3.5025	2.3994	49.8747	-17.7597	14.5208	-3.0444	-7.3753
5960.3432	5.8469	3.3735	-4.8868	9.9835	-8.0005	5.1910	-1.7340	6.7273	4.1181	2.9794	4.8744	43.7984	-7.6096	17.6165	14.4607	2.6510
5968.3436	4.5644	2.1288	-5.1602	9.0477	-5.5749	1.4276	0.0505	2.6269	2.8655	-0.9533	0.3407	35.5262	-5.5859	2.8379	9.1956	-1.3210
5976.3441	6.3899	5.2857	2.1340	11.7840	6.5442	4.5607	-1.7758	5.2944	7.6558	5.5619	3.4939	37.3019	-10.5334	3.4309	8.7421	-7.6817
5984.3446	1.8620	1.3185	-4.3496	-2.6640	-4.3280	1.9468	-3.3295	3.8952	7.6851	12.2415	9.9762	40.7412	1.1024	8.3643	20.5570	4.5803
5992.3450	-3.1186	-2.8955	-9.4672	-10.5989	-9.0609	-5.1836	-3.7591	-3.1582	0.5339	-1.9946	0.9709	26.7758	3.4527	-6.6719	12.0878	-2.1455
6000.3455	-6.3162	-5.8255	-10.4001	-14.8395	-13.2715	-10.2821	-2.3807	-8.6958	-8.1363	-9.6889	-6.4747	13.8704	7.4975	-17.1716	7.5609	-3.2031
6008.3459	-4.5566	-4.6338	-5.2335	-12.1679	-12.6776	-8.3639	0.5977	-6.9211	-9.3651	-3.8513	-3.2904	13.5401	12.9605	-11.8041	14.0968	7.2815
6016.3464	1.6577	3.1060	9.5074	1.8442	6.0691	-0.0768	-3.6333	0.3121	4.5347	-1.6907	5.3979	16.0147	-3.8916	-1.2545	8.4263	-8.3191
6024.3469	4.2005	5.4567	13.6691	4.7833	8.8791	3.8280	-4.3470	4.0137	12.2375	7.7236	16.2900	20.4265	-4.8076	6.2623	14.3981	-6.3879
6032.3473	5.3798	3.6704	12.6878	5.0290	-0.0157	2.3947	3.0446	3.1840	2.6121	10.2618	16.7145	19.3027	9.0273	6.0057	27.3652	12.8150
6040.3478	5.0714	3.7649	14.7847	8.2857	1.0502	0.8115	2.0712	0.8972	-1.1889	-1.9719	10.8103	9.0986	2.4438	1.2747	17.5545	1.9814
6048.3482	4.7709	2.7968	9.5368	8.2730	-0.6851	0.6919	0.9270	0.8218	4.0184	-0.1274	8.3451	4.3915	-1.4177	1.1263	12.9531	-1.8752
6056.3487	7.1119	3.2859	8.2064	10.6426	-1.5784	3.4748	6.8064	4.6208	6.0390	7.3130	10.5648	8.4208	8.9437	9.0693	21.1061	18.9822
6064.3492	4.5902	2.5197	9.1153	8.5627	-1.5404	2.1071	7.6677	2.2932	1.5394	1.4843	10.6693	3.0974	12.3889	4.6004	12.5749	20.5399
6072.3496	-0.1510	-1.4156	3.4551	2.8141	-13.4873	-3.5124	2.8984	-4.8264	-1.1189	1.8902	5.4658	-3.0166	7.4198	-3.9199	5.3499	7.5889
6080.3501	-0.1619	-1.0202	4.0393	1.8694	-18.5076	-2.2593	-0.8694	-3.7272	6.0214	10.5750	11.5455	5.1462	5.0339	5.1202	11.0062	7.3313
6088.3505	1.2029	0.8292	7.6276	1.4096	-5.6272	-0.0195	0.8298	-0.8935	3.2709	4.4224	16.2216	0.0095	5.8262	1.0966	10.1960	4.8009
6096.3510	0.2820	0.3807	11.3790	-3.0302	1.4690	-2.1224	0.6238	-2.2289	-5.1956	-3.5084	10.2137	-10.4016	5.8832	-5.3766	12.1791	-1.3578
6104.3515	-1.1477	0.8679	18.3824	-6.3757	-3.3521	-2.8111	-3.8565	-2.9872	1.7249	2.1049	15.5619	-3.9756	7.3994	4.2398	20.6196	1.5690
6112.3519	0.0935	0.1702	17.1651	-2.9609	-7.9789	-4.3310	-1.1917	-4.7857	2.6668	0.7933	17.7057	-8.8534	9.0451	-1.7398	21.5604	2.0279
6120.3524	1.7478	0.4005	13.5700	0.9160	-6.1244	-2.3015	0.7991	-2.9309	0.1532	-0.6374	15.6366	-14.7298	5.6847	-1.7249	16.3186	0.1259
6128.3528	4.3816	4.2306	18.6728	5.9978	3.0866	3.8766	0.1342	2.8944	9.1051	7.0519	23.1285	-8.5993	2.8689	9.3417	14.4827	3.4231
6136.3533	9.6081	6.1416	23.4781	14.9585	5.3433	5.3996	6.2762	5.3223	9.9425	6.1144	23.4078	-12.6837	6.8124	10.3872	23.7480	12.4425
6144.3538	10.4248	4.9035	19.3601	13.6822	-0.2380	5.8157	9.1117	6.8539	8.4577	6.1552	25.3784	-14.3288	12.5697	15.4671	31.2109	22.5383
6152.3542	6.1011	2.6296	11.2062	4.8243	3.3702	3.7662	8.0379	4.4828	9.9061	6.1618	27.6974	-15.1839	15.1003	2.6143	20.4029	18.1568
6160.3547	3.1494	1.4183	9.4788	5.1286	5.8360	0.2005	6.2696	-0.7527	5.6515	-2.7173	18.1187	-24.8572	7.9048	-12.1067	1.6790	2.5554
6168.3552	2.8495	1.7961	8.7969	8.3034	0.4585	2.2769	1.3352	0.0675	8.2567	-2.2940	17.0098	-28.0874	-3.2692	-0.8756	-6.5195	-6.5505
6176.3556	1.5258	-0.2426	2.6096	1.5691	1.3501	1.1000	3.3148	0.4972	10.2957	-3.1460	17.1820	-33.0752	3.8688	-3.6508	-3.4867	0.5806
6184.3561	-2.7392	-3.6162	-0.5842	-7.0829	1.3581	-4.4947	7.0344	-3.9582	2.1585	-13.3305	6.5330	-40.8868	15.9595	-14.6054	-5.8779	10.5022
6192.3565	-3.4327	-3.1515	0.1925	-4.2814	-2.0276	-3.9206	3.6711	-4.8597	0.5943	-9.8044	2.5241	-35.5571	8.4928	-10.5771	-11.9856	3.7777
6200.3570	2.1870	1.5171	3.6343	7.1867	4.0871	3.9982	2.8519	2.2665	6.4494	4.2899	7.0512	-22.2637	-1.4776	3.0582	-10.2712	1.7080
6208.3575	5.0842	4.0461	8.8217	13.8089	9.3520	7.1053	4.2478	4.8749	5.6299	8.9451	6.0068	-19.8541	-4.0253	7.1065	-9.4643	2.8815
6216.3579	1.9987	1.5201	8.9490	10.2435	4.6890	0.6963	0.5893	-2.6946	1.0750	6.2477	-0.8831	-27.0301	-9.4514	-8.4865	-13.1542	-14.3583
6224.3584	1.2097	1.5089	7.9280	9.3096	1.8699	2.2298	-1.7084	-1.3497	3.2648	9.1965	-0.6776	-25.2569	-11.5521	0.6900	-14.6928	-12.9085
6232.3588	4.0953	3.3827	11.6533	13.7946	4.0056	6.1303	4.3211	3.7445	3.9058	8.9696	0.5235	-24.1903	-1.5587	14.0948	-8.3278	9.7523
6240.3593	2.6034	2.0312	12.9748	8.7193	6.2431	1.5399	5.9978	-0.0458	0.0480	3.5104	-1.0081	-25.1391	5.1244	0.1690	-3.3841	9.5303
6248.3598	-0.5792	1.9197	9.0522	0.4473	8.4278	3.4660	-1.5948	1.6768	1.4221	7.1360	3.8571	-14.6916	-2.1144	6.1467	-7.3228	-1.3329
6256.3602	-0.6917	1.9740	9.1177	-2.5077	9.3536	3.5061	-3.0489	2.9148	1.3206	6.5640	1.7305	-9.4023	-1.9000	10.6534	-1.1096	-0.1502
6264.3607	-2.6802	-0.2596	8.5597	-7.5577	6.4153	-2.4005	-2.0530	-2.0573	-0.6977	3.0715	-3.8973	-7.8281	4.5253	-1.4712	5.0944	1.1745
6272.3611	-2.5544	-0.4503	3.7780	-5.9787	4.6076	-1.0497	-3.3521	-1.6220	-2.3422	5.9854	-3.0050	-5.2601	-1.4213	-2.0616	-0.5146	-5.8648
6280.3616	2.5823	1.8063	8.2776	3.2299	8.2177	0.8162	-0.3618	0.9763	-5.6913	1.8845	-6.9301	-7.6511	-5.4828	-0.0102	6.0873	-7.6184
6288.3621	2.3032	1.4677	7.5213	0.5038	4.2875	1.0881	-0.7840	2.7148	-0.9394	3.3819	-7.5949	-1.5226	-0.8581	10.6937	14.0392	3.3126
6296.3625	-3.6555	-2.8590	-3.4716	-10.7221	-3.5013	-2.5518	-2.7147	-1.1121	-1.9236	4.6706	-9.4756	-1.4844	3.8089	5.5855	6.8116	5.2050
6304.3630	-6.2892	-3.9990	-1.3676	-14.8254	2.9229	-6.6404	-2.0237	-5.6646	-12.2419	-4.7137	-16.1748	-9.9553	4.9858	-11.0337	0.0174	-3.1370
6312.3634	-6.7619	-3.1619	-2.2133	-17.3076	1.4797	-3.2818	-7.1599	-2.5517	-5.9774	1.3489	-7.0737	-3.5743	-0.1977	0.8989	0.7917	-6.8573
6320.3639	-8.4607	-5.3432	-8.5131	-19.5381	-11.1937	-5.8221	-12.4870	-5.7183	2.4412	3.8206	-1.5276	-1.9194	-6.7439	0.0551	-0.0554	-18.0340
6328.3644	-6.8431	-3.5971	-3.0932	-14.0516	-0.8132	-6.7851	-10.2809	-6.7207	-0.5483	-6.4682	-8.9579	-8.0198	-9.7117	-10.3243	-6.5349	-24.8601
6336.3648	-3.1674	-0.7999	-3.4693	-10.9453	12.7293	-0.3235	-4.4972	1.1717	0.2541	-3.4047	-5.7411	-5.0188	-3.8442	-3.4026	-4.3852	-10.3395
6344.3653	-3.3752	-2.4456	-4.3253	-10.1241	4.7955	-3.6212	-1.2325	-2.2650	-1.2100	-5.9354	-4.8928	-7.8925	2.5715	-9.8340	-1.3392	-4.5360
6352.3657	-3.0998	-2.2840	0.6765	-3.8002	-0.8789	-5.9861	-0.9723	-6.2194	-5.2468	-10.1834	-9.6784	-11.4009	-0.6708	-13.5655	-5.7528	-9.1479
6360.3662	-1.3719	-1.5256	-2.5262	-3.8514	0.3496	-1.7501	0.4855	-1.3354	-4.9428	-1.7016	-5.1208	-4.7025	1.5819	-4.1779	-0.0496	-0.6023
6368.3667	-2.9413	-2.3500	-2.1199	-6.9690	-0.9822	-3.3373	0.0687	-2.6708	-7.0345	-6.2094	-6.3255	-6.2702	3.9097	-4.7896	-0.0944	0.6003
6376.3671	-3.0350	-1.5699	3.3780	-3.7078	2.3541	-5.5184	-1.9841	-5.6704	-6.6281	-12.3259	-11.8067	-12.6213	-2.7717	-11.7991	-6.3692	-11.6414
6384.3676	0.0234	0.3129	5.4516	0.4540	7.6997	-3.3118	-2.0744	-3.3775	-1.9284	-4.7418	-9.1970	-9.6960	-6.9160	-12.2656	-1.8316	-16.0836
6392.3680	0.4963	0.8022	5.2845	4.9650	1.4167	-1.6067	-4.2497	-2.9318	-0.3373	-1.0708	-8.9563	-7.7324	-13.0923	-4.0051	-5.9997	-18.7691
6400.3685	1.5422	1.0917	4.7468	7.2818	-3.3443	0.1586	-3.8483	-1.3907	0.6625	1.8147	-5.0974	-5.6099	-12.8576	3.2672	-3.6812	-14.3714
6408.3690	6.2734	4.7042	10.6849	10.9600	7.0495	6.2090	1.2280	5.8627	1.5272	7.8582	5.8764	1.5650	-5.1707	11.5649	8.9158	0.4394
6416.3694	5.0313	4.4999	9.9570	13.5195	4.2124	6.0009	0.3997	3.8471	0.6163	7.2788	5.8032	-0.5926	-8.7242	8.9753	-2.3383	-4.2647
6424.3699	-0.6070	-0.6671	-0.4623	3.5817	-4.3795	-0.8930	-0.5344	-3.0367	-1.2999	1.6401	0.1924	-8.6456	-4.9267	-5.5375	-9.7778	-8.1377
6432.3704	0.7849	0.1966	-1.1668	-1.6990	6.2927	2.9764	4.3613	3.7106	-2.5095	2.9198	1.7753	-7.2227	7.1881	3.4073	1.3600	11.8904
6440.3708	2.1615	0.9796	-0.7169	2.8808	1.0868	5.0230	4.1290	5.1005	-0.0288	8.2738	3.7062	-2.9848	5.1737	11.8989	2.1796	15.1576
6448.3713	3.3193	-0.2846	-2.1736	5.8192	-6.8902	0.6944	5.2983	1.0017	1.0782	1.9394	4.5719	-3.3112	4.9023	1.1598	7.0272	9.6032
6456.3717	8.5566	3.3038	1.9608	10.1384	7.0798	5.3989	9.1772	7.7083	2.2298	-0.0979	9.8020	1.6539	6.8394	3.9753	17.0893	14.4251
6464.3722	3.8697	0.9200	-1.6629	3.1873	-4.5694	3.0627	1.9085	3.8524	4.2106	6.8899	12.5021	7.4340	2.1662	6.8294	13.6387	6.0223
6472.3727	-2.0174	-4.2661	-7.4212	-7.2627	-17.2468	-4.4648	-0.6885	-3.9299	-5.0662	0.2666	4.8035	-0.2419	4.6722	-2.5128	11.9440	0.7183
6480.3731	1.7116	-0.3796	-1.3081	-1.6078	3.4792	0.3564	1.9216	1.1653	-9.6614	1.5069	-0.9861	-2.9186	0.1690	-4.4833	8.7739	-3.1639
6488.3736	0.3659	2.0468	5.5040	-0.9978	6.9424	2.3709	-5.6504	1.7545	2.3174	9.4816	2.3292	4.7970	-8.7982	4.0521	2.4349	-12.1036
6496.3740	-1.2653	0.0187	6.0366	-6.2697	-1.0341	-1.9047	-4.4487	-0.6413	5.4857	-3.5613	5.0474	0.4565	1.2426	5.1163	10.8959	-1.8673
6504.3745	-0.1567	-0.5658	4.0755	-5.4496	1.6464	-3.1842	-0.8366	-1.6347	0.0931	-9.3322	5.6213	-5.8628	3.2752	-6.2662	11.0311	-4.4828
6512.3750	-3.7205	-1.7039	0.3072	-7.4951	-2.7362	-2.9749	-6.6986	-3.7112	-0.7112	-3.2730	2.2699	-6.7185	-6.4065	-3.8914	-3.3172	-16.2640
6520.3754	-2.6922	-1.5010	-1.1833	-4.4599	-2.6638	-1.3776	-3.3969	-1.7426	-1.5405	-3.0701	-2.7791	-8.4663	-3.3797	1.5973	-4.9806	-6.1686
6528.3759	-0.7624	-1.1175	0.7245	0.5827	-5.0483	-2.9572	-1.5698	-3.7558	-0.5803	-1.9927	-1.7451	-6.2971	-3.5117	-5.7940	-1.6889	-8.3897
6536.3763	-1.2636	-1.6910	2.4480	1.4199	-14.3286	-4.8109	-2.7239	-6.0696	1.1823	-5.1705	2.8030	-4.5486	-2.7581	-3.8694	0.8869	-8.0321
6544.3768	3.6834	1.3015	4.6120	9.0168	-8.4836	0.2194	3.7206	-0.3731	4.9201	-0.5594	11.5530	2.7007	3.9913	0.8962	7.3940	6.9488
6552.3773	4.5417	2.1150	1.4783	9.9119	-6.1555	2.5123	0.7829	1.5682	8.6740	6.1524	14.2835	8.7841	-3.5592	2.0249	5.5808	-2.0350
6560.3777	-1.0852	-2.2756	-8.3910	0.5043	-13.2046	-1.7807	-3.4013	-2.6943	1.4461	-3.6993	2.8745	-1.6224	-7.9755	-1.1773	-5.7541	-11.8059
6568.3782	-3.3934	-3.3911	-8.9113	-1.3280	-9.2037	-3.8153	-0.1457	-5.5956	-5.7687	-5.2798	-3.6805	-7.6900	-2.6818	-12.0773	-14.9115	-8.4981
6576.3786	-1.3585	-0.4606	-0.9203	2.7937	-1.0181	-1.4685	-1.1161	-3.5228	-2.8363	-2.9167	-2.2589	-5.3565	-6.1871	-9.2892	-13.7757	-11.5486
6584.3791	1.1180	0.6249	-1.1553	4.6208	1.9021	0.1907	0.0735	-0.2202	1.1835	-6.6364	-1.1693	-3.7656	-5.8172	-4.3720	-7.7903	-8.1322
6592.3796	-1.2401	-1.1195	-4.5431	-0.0143	-3.4547	-1.8618	-0.2657	-2.3645	1.5998	-3.0765	-0.0847	1.5712	-1.0899	-6.6847	-6.6009	-3.7997
6600.3800	-2.5774	-1.0963	-4.7390	-3.4646	-6.7747	-0.8143	-5.9863	-1.4891	1.5447	-0.7615	1.8492	8.0702	-7.3745	2.4637	-4.9124	-10.7072
6608.3805	2.2440	1.0966	-9.5709	2.0789	0.4791	4.4283	-3.7018	4.7645	4.5042	3.4252	6.8833	15.0927	-11.6549	4.7599	-1.4883	-12.1914
6616.3809	4.1653	0.6934	-13.2591	7.1286	1.8812	3.6209	2.9786	4.0625	3.9286	3.1048	3.5038	11.6486	-6.2493	-5.7384	-4.1284	-5.1889
6624.3814	1.8821	-1.7738	-13.1488	3.7516	-3.4973	-0.8754	5.6606	0.3488	-2.3780	-6.3467	-6.3723	2.5767	1.5682	-8.3125	-3.1525	3.6165
6632.3819	-1.4494	-4.3398	-16.8470	-6.0138	-8.0567	-2.9974	4.6438	-0.4596	-5.9427	-5.9882	-10.2766	4.2377	8.3296	-3.8558	3.1210	11.9121
6640.3823	-5.2345	-5.1968	-15.6142	-9.8782	-11.5479	-4.8328	-0.8336	-3.4274	-4.1604	-5.5649	-13.7478	4.6417	3.9134	-1.4622	-4.4750	5.3472
6648.3828	-7.7192	-5.0005	-12.8951	-11.9971	-9.8870	-6.8230	-6.1890	-6.5966	-0.3929	-8.4702	-12.0720	5.4639	-2.7780	-7.5215	-12.5914	-9.0392
6656.3832	-7.7626	-5.4326	-15.3967	-15.0789	-7.0910	-7.3011	-4.8722	-6.2677	-3.8943	-9.8254	-10.7557	9.5724	0.3299	-12.8260	-8.8521	-8.3939
6664.3837	-2.7592	-1.8498	-9.8893	-3.3550	-3.5066	-2.2149	-0.1518	-1.4646	-6.3652	-8.2881	-10.5792	15.9908	0.5250	-3.3734	-6.9067	1.4495
6672.3842	-3.4586	-1.0159	-8.5492	-6.5980	-2.1424	-0.4169	-2.2068	0.4060	0.3420	-2.0931	-1.5745	23.7749	2.8509	2.1219	-3.8488	5.1471
6680.3846	-11.1167	-5.5788	-13.6912	-21.4242	-4.8933	-7.5851	-7.8852	-6.7004	-5.1566	-12.7676	-9.4794	13.3946	2.0211	-10.1128	-12.7539	-7.9182
6688.3851	-7.3119	-2.7415	-6.6852	-5.8192	-5.5012	-6.2239	-6.0127	-7.5831	-11.4731	-14.9057	-17.7632	14.8223	-7.3888	-10.6932	-20.8178	-14.6805
6696.3856	-3.7647	-0.4642	-4.7121	-0.3065	-10.2896	-2.0763	-4.5595	-3.7693	-1.4420	4.7127	-4.5401	35.2268	-2.9348	-0.3012	-7.6971	-1.4180
6704.3860	-6.9737	-1.8458	-5.2953	-6.1362	-8.5450	-5.0724	-8.1249	-6.9468	-0.9895	1.0861	-8.0180	29.6778	-5.6855	-7.0647	-13.3478	-10.9792
6712.3865	-2.1756	1.3236	1.8969	5.2183	-4.1400	-2.2183	-5.7822	-4.5447	-4.9903	-2.0224	-10.5326	28.5698	-11.4650	-4.0292	-12.2314	-14.0536
6720.3869	-2.8927	-1.6027	-4.7505	-3.0784	-19.3341	-2.6994	-2.2400	-2.5728	-0.3337	5.7955	-0.3469	37.5385	6.9884	9.4703	9.4356	14.6224
6728.3874	-4.0935	-2.7647	-6.1720	-3.1982	-17.9205	-5.2561	-0.3684	-5.2104	-4.6415	-2.1830	-8.1483	28.8483	7.8287	1.0774	2.0692	12.8855
6736.3879	4.7174	4.6292	6.8689	14.1109	2.4640	2.8269	3.7086	2.0956	-8.1227	4.8153	-7.0394	37.5931	-0.7246	2.5158	5.0653	7.9449
6744.3883	-1.6985	1.1240	1.6299	-4.2440	-5.5772	0.5360	-1.0919	1.3021	-1.4726	14.0314	-0.1110	47.1247	10.9928	11.9016	15.4678	21.2911
6752.3888	-12.5925	-6.4295	-8.6462	-22.0759	-19.2459	-11.0018	-7.2256	-10.5249	-2.1456	0.1949	-9.7702	32.5529	13.6194	-4.3903	1.1587	10.9076
6760.3892	-9.0271	-5.5131	-7.0341	-13.1188	-17.5428	-11.8470	-3.0072	-12.0860	-5.3505	-5.6575	-8.8248	25.8881	10.8840	-17.4944	-0.8814	3.5383
6768.3897	-5.8675	-3.0234	-5.2953	-3.5107	-14.9342	-8.0293	-1.3202	-9.7718	-0.8609	-4.0315	-1.3864	24.7216	6.0861	-16.8442	-8.6776	0.6990
6776.3902	0.6348	2.1398	0.8341	9.9500	-0.4950	-1.2038	1.1985	-3.3358	0.0344	-4.9442	0.6689	24.1615	-3.2099	-13.3695	-12.7703	-5.5082
6784.3906	6.0453	4.3504	2.3235	13.6928	6.8680	3.1986	5.5332	3.2393	-1.5069	-1.1720	2.3184	26.9393	-0.5014	-5.9223	2.7632	3.1314
6792.3911	-2.5652	-1.7057	-8.8583	0.6256	-10.9289	-3.0018	-0.6233	-3.9825	0.1833	0.5346	-3.4612	22.5430	0.4152	-6.3537	-7.7133	1.0728
6800.3915	-5.8179	-2.0713	-7.7822	-2.7592	-9.2700	-2.8215	-4.0730	-4.8591	-2.6115	-1.0517	-8.2420	17.3803	-3.2051	-2.6232	-18.5718	-3.0735
6808.3920	-1.1955	2.2920	0.6396	1.4036	8.6692	3.5618	-0.6623	3.0384	-1.4247	-1.0676	-5.0992	14.6628	-1.2743	6.3870	-12.3962	4.6390
6816.3925	-3.1703	-0.7072	-6.0235	-2.8031	-0.0642	-0.6347	1.0739	-0.6839	3.5822	-2.8098	-1.5496	12.9074	6.1489	-2.2049	-11.0732	9.7065
6824.3929	-1.6550	-1.8818	-8.5778	-1.1956	-3.5622	-1.9398	6.8970	-1.0407	-1.5004	-7.9072	-2.9162	7.8341	13.6964	-6.0147	-5.6599	19.3525
6832.3934	1.7837	0.3387	-6.1379	4.4838	5.3135	2.7668	8.3517	4.3184	-3.0577	-10.5838	-8.0927	-3.3804	8.0556	3.6378	-7.7653	18.8705
6840.3938	-3.8778	-3.7935	-14.0050	-4.1391	-4.8890	-2.0256	3.0588	-1.1184	-0.6727	-13.8903	-11.8120	-11.9231	4.7513	-0.3791	-17.5494	9.6483
6848.3943	-2.9055	-2.1558	-8.7049	-2.0709	2.4961	-0.7766	4.2602	-0.0918	-1.7209	-15.0662	-11.3555	-15.0575	5.1847	-1.7077	-19.0248	9.7657
6856.3948	5.5453	5.0410	2.2871	12.6350	20.1610	9.4624	5.1815	9.9320	5.2203	-4.2009	-4.6969	-10.9457	-5.2946	11.9954	-14.8715	6.5439
6864.3952	6.0772	3.4097	-3.7547	11.7642	10.6136	9.8356	6.1501	11.0781	7.5672	0.9950	-3.4256	-10.0847	-2.3984	19.7280	-7.8423	14.8283
6872.3957	6.7960	2.3508	-6.6992	11.6376	10.2527	10.0617	11.1310	12.3893	4.1259	-0.5677	-8.2948	-18.0780	4.7262	21.6956	-5.3585	27.2751
6880.3961	5.6883	1.6757	-10.2959	9.3793	14.2272	9.7574	6.6937	11.1131	4.9063	2.0133	-8.6980	-26.2360	-6.1729	13.6187	-13.6996	7.4011
6888.3966	-2.2864	-5.2156	-21.5408	-4.1965	0.8989	1.2013	2.1372	1.9221	-2.9856	-7.9515	-17.8139	-44.5652	-7.8190	0.3469	-25.0037	-6.0850
6896.3971	2.1372	6.6729	4.2314	-6.0312	16.9060	3.8981	-11.8939	8.5036	-8.0964	-15.6895	1.7283	79.5285	-12.9840	11.6439	23.6816	-17.6812
6904.3975	-0.7460	4.9629	1.0387	-10.9049	8.7048	4.0961	-12.6210	8.1606	-1.8015	-11.6443	10.1562	76.2014	-6.7781	18.8849	20.9400	-7.7076
6912.3980	-2.2820	5.9305	10.8219	-7.9163	11.5646	2.5241	-12.2196	4.6628	-3.0265	-17.5168	8.9811	64.9055	-5.8057	14.2643	10.2027	-8.9266
6920.3985	-1.7742	7.1561	19.6536	-4.2442	13.7156	1.9652	-14.1007	2.7613	-1.6780	-12.3022	5.6116	57.3435	-10.5269	13.6414	9.3069	-15.5043
6928.3989	-3.8462	4.1388	11.8031	-6.8182	10.0420	-1.7545	-11.1128	-0.9862	-0.6850	-11.9415	-0.0465	49.9712	-5.5265	1.8009	3.2706	-12.2909
6936.3994	-4.7000	3.8709	12.9655	-6.5867	11.8224	-2.9378	-8.0784	-2.1309	-1.7485	-18.5696	-2.4024	44.5471	0.1014	-1.8191	-1.7410	-5.5624
6944.3998	-4.0804	5.6191	17.5386	-4.1967	8.6938	0.3869	-11.6836	0.3923	3.7175	-11.4098	3.1332	49.8016	-3.9507	13.2523	0.0075	-4.3582
6952.4003	-8.7059	2.4164	14.5723	-13.8966	4.4144	-4.5903	-15.1785	-4.7135	2.9692	-10.5598	0.1721	45.0395	-2.6537	5.0565	-0.8377	-10.4120
6960.4008	-12.3190	-0.7286	15.2551	-21.0781	1.1184	-11.2848	-14.5426	-11.0651	-1.1500	-16.7972	-6.1468	33.8257	4.1181	-7.5392	0.4930	-10.4078
6968.4012	-10.0783	1.4282	18.4640	-12.4310	-0.2871	-7.2150	-14.9795	-8.1709	3.2641	-11.5489	-7.4785	33.0632	-1.7334	5.5872	-4.8605	-8.0296
6976.4017	-6.6224	4.1775	23.9386	-4.1843	3.7663	-3.9231	-11.6449	-5.2858	10.1629	-1.8182	-5.8675	36.8512	0.5716	10.6599	-2.6087	1.8829
6984.4021	-4.3664	2.6431	22.1767	-2.9146	0.6623	-7.3421	-2.6580	-7.1947	9.1820	-1.7735	-5.1294	34.5182	15.6198	-1.4931	10.3831	18.1537
6992.4026	-5.6553	0.0980	13.9650	-4.7983	-2.2927	-9.0294	-1.1708	-8.8532	1.0604	-12.0964	-9.7629	21.9318	13.8596	-8.3083	1.9954	12.6255
7000.4031	-3.7244	2.4860	19.1440	1.3220	1.3270	-5.8500	0.0220	-6.8288	5.4521	-11.3694	-1.7196	18.9293	12.9005	-5.2789	-2.9206	13.8928
7008.4035	2.4736	4.8339	20.9097	9.3332	3.0012	-2.5549	6.1138	-2.2165	13.0981	-6.9853	9.6598	23.4193	18.8364	-3.0155	11.1543	25.3957
7016.4040	1.1893	2.4983	10.3023	1.6100	5.6668	-3.2644	2.9305	-1.2294	6.4686	-14.5570	3.3663	17.4816	11.1688	-6.3572	10.2080	10.9259
7024.4044	-1.2780	1.3150	7.9718	-1.9005	4.6193	-4.1884	1.2738	-3.0876	2.3404	-13.3994	2.1783	16.3421	9.8176	-9.7989	4.2060	6.4455
7032.4049	1.0711	3.2975	12.2143	4.3371	5.8701	-1.5127	4.6694	-1.5259	3.3257	-6.9629	9.3315	20.3052	13.2297	-8.7137	4.8645	13.7552
7040.4054	0.7700	4.7962	15.4420	3.6391	11.2227	1.2774	1.7908	0.7813	5.4524	-4.4328	12.3453	19.7937	9.2527	-2.3098	1.4163	10.2435
7048.4058	-0.0166	3.3275	14.2480	3.4754	4.2199	-0.3299	2.7925	-1.1428	5.7703	-3.0798	11.1721	14.5300	12.2045	-1.6531	1.8134	14.8685
7056.4063	0.2670	3.0160	13.6691	6.8615	1.7024	-0.4544	2.7530	-2.1604	1.5135	-5.2928	6.5754	7.9244	7.3837	-2.0623	-3.7714	9.6408
7064.4067	-0.6249	5.5566	18.7358	10.2306	8.6221	2.9757	-2.5121	-1.2304	3.8856	0.6927	6.9784	9.5508	-4.0777	1.9542	-18.5159	-2.9665
7072.4072	-2.5775	4.2629	18.7271	8.4162	8.0680	-0.1617	-2.2650	-5.0941	4.4121	2.6394	3.5369	5.1945	-2.1312	-7.5680	-22.6105	-4.7168
7080.4077	-5.6448	1.9299	17.1475	1.4348	5.8799	-3.7606	-3.6867	-7.8098	4.3097	-4.7217	-1.0175	-4.5749	0.4926	-9.8327	-23.3217	-5.1929
7088.4081	-6.4135	1.4256	15.8329	2.5498	-2.4263	-2.7417	-3.6835	-7.5731	9.8783	-2.2390	4.6662	-6.1242	3.0033	-1.2694	-26.5130	2.7871
7096.4086	-5.1449	1.0230	14.3783	6.8287	-4.8669	-3.7030	-0.6452	-9.2299	6.2282	-1.9314	3.3703	-8.3067	3.2854	-8.6976	-27.9081	1.9082
7104.4090	-3.1449	3.9633	19.6203	7.4775	9.0861	-0.3376	-3.1331	-5.0788	4.0343	-4.0656	1.8611	-5.7836	-4.1183	-5.5436	-26.1532	-7.6903
7112.4095	-2.0983	4.0408	18.2268	5.7202	6.3916	1.5439	-4.1892	-2.2353	7.3488	-0.5659	7.7695	-3.2044	-3.6627	3.3978	-17.5164	-4.4954
7120.4100	-6.0130	-0.4534	10.1887	-1.5267	-5.7143	-4.3788	-6.1353	-8.2815	6.9801	-1.8380	5.0159	-9.8819	-2.4691	-5.7506	-18.5655	-9.6242
7128.4104	-8.0901	-1.7294	4.8833	-6.1024	-1.2999	-5.0569	-5.9145	-8.3312	6.6717	-4.5978	-0.9644	-14.1247	-1.3900	-9.3805	-25.4917	-9.3437
7136.4109	-5.1648	-0.6927	0.9252	-4.9873	7.3140	-0.9445	0.1383	-2.1288	3.7230	-4.5096	-3.6992	-12.0092	5.2299	-4.0497	-20.7113	5.4130
7144.4113	-3.1266	0.0494	-1.4514	-2.3120	6.6269	1.2431	0.3504	0.5243	2.7982	-1.0003	-4.3289	-4.0495	2.5650	1.1723	-16.4775	6.0802
7152.4118	-1.3734	-1.2315	-10.1377	2.9239	-4.4330	1.7333	1.2623	0.3431	0.3827	2.4928	-4.8506	-0.7070	-2.6062	1.8346	-17.2824	2.7893
7160.4123	0.8009	1.0273	-10.3397	9.7481	1.7595	5.7663	1.5384	3.4470	2.2618	6.0660	-5.7298	1.7279	-9.3657	4.4101	-25.9391	-1.0362
7168.4127	1.7611	5.5870	-2.0903	12.2859	19.1967	10.1727	-1.8244	7.5309	15.3901	12.3061	-1.8966	11.3971	-14.3611	7.9259	-32.3751	-4.9850
7176.4132	-1.9126	0.6039	-10.1489	3.5665	7.3344	2.6492	-0.1492	0.6681	10.1601	6.8493	-3.1418	8.0967	-5.4868	-7.4700	-27.6130	-3.4648
7184.4137	-5.2825	-1.6675	-9.6961	1.1389	-0.0566	-2.0766	-1.3490	-5.1839	0.2021	-3.4416	-9.3118	1.5985	-6.1191	-14.4802	-34.2078	-9.6149
7192.4141	0.2432	3.9413	1.7100	14.0089	10.9363	3.8281	0.6599	0.3184	5.4297	-1.4973	-6.5125	8.1319	-9.9881	-5.2438	-33.8526	-6.2408
7200.4146	3.5788	4.9542	3.3518	16.8337	8.9523	5.7703	4.0553	3.3471	5.6410	2.6539	-0.7467	14.4041	-4.4191	0.7891	-19.8446	4.5253
