Time	Fz	Fpz	C3	C4	T5	T4	O1	O2	F7	F8	F3	F4	T3	T6	P3	P4
0.0000	26.2987	17.3239	-5.7408	9.8207	97.0003	34.5341	14.4158	24.7184	13.4555	23.5472	30.8964	19.1215	-2.8440	10.5409	38.3648	9.8125
8.0002	0.5023	-0.6389	0.7367	-0.7997	-2.4269	-2.6294	1.4232	6.5656	1.6129	-8.0501	0.4525	-1.4809	2.1193	-3.9814	5.5977	-1.2331
16.0005	1.2434	-0.9779	-4.3731	-0.4108	-5.4863	-0.4883	0.5366	0.3282	1.5533	-1.8948	0.9304	1.3905	0.7703	2.8059	7.9003	2.1684
24.0007	0.9715	-0.3066	3.9213	1.2292	-6.8714	-1.7481	0.4673	-0.7141	-3.9122	0.2875	0.0802	1.6614	1.7953	1.6484	10.4892	1.8017
32.0009	1.9661	1.9815	9.9052	4.4685	0.2846	0.6407	2.5865	9.5851	-7.9768	-7.4815	0.5225	2.1556	1.7672	4.5322	5.6625	2.8647
40.0011	1.6673	1.0652	0.6407	3.9853	-2.7933	3.6743	1.2560	10.6178	-0.4811	8.2575	0.6293	4.0646	-1.2678	11.5694	1.2105	5.5320
48.0014	-0.2025	0.6409	2.2288	2.8016	-3.0239	2.4464	-0.6043	4.0585	-0.1895	14.2878	-0.7765	2.6251	-1.8744	7.8127	-3.1295	3.1326
56.0016	-0.4383	2.8515	7.8542	4.9142	6.2755	3.8460	0.5426	9.4382	-3.4745	-2.1154	-1.1206	1.3240	-2.1468	8.0742	-13.7185	2.3346
64.0018	-0.8405	0.4416	-3.4278	2.7311	-3.3680	3.4310	-0.9865	6.8806	5.1916	3.2889	-1.2077	2.2864	-3.3846	12.7924	-11.7910	4.5357
72.0021	-3.8445	-3.3824	-9.6709	-3.8249	-10.7340	-2.2616	-2.1664	-5.2819	0.4600	4.3824	-3.8935	-3.0530	-1.4887	-1.5191	-10.0950	-1.5760
80.0023	-3.8895	-2.2594	-6.1905	-2.9421	-4.2080	-1.3882	0.1783	1.2830	-8.3023	-6.2473	-4.5634	-4.9276	-0.7635	-4.3479	-16.1717	-2.9382
88.0025	-1.8460	-0.9839	-5.0040	0.8381	-6.9826	1.2768	-0.2413	7.8717	0.7151	1.3010	-2.5877	-0.0553	-2.1748	7.7022	-11.4992	2.5497
96.0028	-4.2638	-1.8269	-5.8205	-1.8627	-5.1222	-0.5266	-1.7902	4.0006	3.5370	4.0891	-4.0579	-3.4622	-2.7252	0.2681	-19.1160	-1.8200
104.0030	-3.3018	-1.1597	-5.9515	-2.1589	1.4160	0.6588	0.2004	4.5968	-3.8996	-2.5605	-3.3943	-4.2774	-1.8549	-3.0363	-18.9418	-2.7768
112.0032	0.1609	1.0236	2.3447	2.2225	1.3178	1.7575	0.7499	4.8423	-3.1541	-2.5658	-0.4521	0.9033	-0.6432	4.5216	-4.3778	1.7860
120.0034	-2.6162	1.0504	2.3480	2.7603	0.1850	1.9728	-1.3459	9.0871	4.7281	-1.0798	-2.6705	-0.4569	-3.2654	7.7976	-19.7938	1.2799
128.0037	-2.8422	0.3929	-2.4940	2.7035	-2.0550	3.6027	-0.3803	10.9814	-1.2133	-0.8855	-3.7289	-0.2574	-3.9567	11.0250	-23.4204	2.9305
136.0039	0.2911	2.0063	7.0688	5.2293	0.0293	3.4912	1.6188	6.6277	-13.1611	-1.8694	-1.7013	2.6198	-0.8922	9.9927	-6.4335	4.4286
144.0041	0.8458	1.3055	1.2467	5.4639	-5.1546	4.5210	0.7149	10.6485	-2.5072	5.7343	-0.7460	4.7662	-2.3506	16.7963	-4.6890	7.3662
152.0044	0.3634	-2.4752	-11.9513	0.8982	-18.0049	1.9703	-1.2088	-1.7385	1.7191	12.4692	-0.9865	5.0278	-2.1646	16.3250	4.5505	8.0833
160.0046	-1.8875	-4.2928	-7.9243	-5.0192	-15.9219	-4.9061	-2.1718	-24.2884	-11.4183	2.1903	-2.8077	-1.0750	1.8215	-5.1847	10.2619	-0.9205
168.0048	-1.6260	-1.9572	-4.7050	-2.6615	-5.2707	-1.6631	-0.8456	-8.6222	-5.3900	1.0670	-1.9309	-1.6267	0.1667	-3.2955	-1.1109	-1.3256
176.0051	1.2362	2.9016	2.1333	5.3986	6.2768	6.5612	0.7428	15.6158	5.5575	8.8370	1.0512	3.9026	-3.5592	13.7933	-10.4090	5.1144
184.0053	3.1673	3.8904	5.3676	6.1754	9.3978	6.6444	1.1494	11.1095	4.2698	5.8782	3.0383	5.5413	-2.3151	13.3014	-1.4639	5.7199
192.0055	5.7418	1.5056	0.8450	2.7352	1.9529	3.0900	2.5826	0.8590	-2.2136	6.9261	5.1224	6.2426	1.8288	6.1479	23.4478	5.3627
200.0057	5.4304	0.8706	4.1667	1.0514	1.4383	0.0730	3.0125	-5.4129	-9.5315	2.6498	4.5784	4.2575	4.1952	-2.1063	29.2255	2.3602
208.0060	3.6593	0.3864	0.2148	0.7254	-0.2353	-0.0247	2.2370	-1.4404	-4.1720	-7.1741	3.0337	2.7068	2.6830	0.9916	17.5083	2.5100
216.0062	3.0571	0.9164	-1.9729	2.4728	0.0835	3.1031	1.9913	5.7265	-1.2135	-0.2729	2.3040	3.8516	0.0994	8.2019	7.8499	4.8268
224.0064	1.6680	1.1662	2.3785	1.4430	3.4380	2.0701	0.3486	-8.2899	-8.1720	1.7009	1.0993	2.6004	0.2435	2.3639	5.7307	1.9139
232.0067	1.6734	-0.8194	-3.4174	-0.8265	-4.0760	-0.4653	0.0692	-12.8109	-6.7836	-4.3382	1.0070	2.1511	1.4265	1.3792	12.1360	2.1740
240.0069	0.8937	-0.8437	-5.0810	-0.4080	-3.0757	0.8515	1.5400	0.0623	-6.7983	-2.9551	-0.0360	0.7268	0.5500	2.1765	3.5199	1.9483
248.0071	-0.7340	-1.8385	-9.1772	-2.8543	-2.2337	-0.1266	0.9782	-3.1982	-6.8087	-7.8537	-1.2558	-1.9637	0.1912	-2.1005	-3.1542	-0.5489
256.0074	0.3372	-3.5528	-16.1553	-4.3636	-9.0157	-1.1860	1.8096	1.2314	-1.8896	-6.9799	-0.2205	-1.4503	1.0623	-1.0792	5.1058	0.8211
264.0076	0.6629	-2.2286	-12.9884	-2.8323	-2.5749	1.7894	3.2641	7.1399	-8.2516	2.8463	-0.2757	-1.1847	0.3244	-1.3418	0.9509	0.6242
272.0078	-1.0727	-3.5451	-16.3720	-5.5792	-4.0856	0.4100	1.5163	-8.6153	-14.3427	0.6959	-1.9773	-2.7698	0.1951	-5.5025	-1.6661	-1.3481
280.0080	-1.7747	-4.5403	-16.3346	-6.1212	-10.0653	-2.0543	1.0392	-5.2869	-9.3599	-0.5986	-2.5700	-3.5725	0.8063	-6.1125	-0.0508	-1.7418
288.0083	-0.9318	-1.5533	-8.8970	-1.2849	-2.9806	1.9842	1.8423	6.0597	-8.3063	2.4616	-1.9804	-1.2487	-0.9683	1.5872	-7.4928	0.8705
296.0085	0.0356	-0.2780	-7.2632	0.2656	0.9041	4.2038	1.4679	1.4185	-9.9568	4.0235	-1.0521	0.8861	-1.7602	5.2741	-7.0075	2.5774
304.0087	1.9399	1.3960	-0.4259	1.5755	7.0655	4.5437	1.7932	3.4487	-5.7952	11.7433	1.5600	2.2608	-0.8749	2.6152	1.3443	1.7788
312.0090	3.5824	3.0495	0.6267	4.5827	10.2253	8.3394	2.3071	3.0483	-9.4401	12.7839	2.5821	5.7194	-2.0428	10.8976	1.3940	5.7441
320.0092	3.8159	2.6001	-2.3901	5.3396	7.4128	9.9745	4.4656	7.3991	-20.6099	9.6273	1.3096	6.0788	-1.9055	14.4710	-0.4784	7.9969
328.0094	6.0588	4.5963	5.7213	8.0378	12.4865	10.7588	5.9683	18.4682	-16.1799	16.0287	3.8367	7.7284	-0.9010	14.3076	7.0062	8.3284
336.0096	6.6670	4.7390	5.0731	9.1026	8.7983	11.5166	3.7975	9.2779	-12.0898	21.4274	4.5845	11.0271	-1.9809	20.9692	11.4105	11.4017
344.0099	-3.3925	-1.9586	3.0860	-3.1039	-6.7881	-6.1096	-2.4617	-9.4039	0.3675	-4.7789	-2.9641	-4.1929	1.3859	-9.4892	-2.2297	-4.9524
352.0101	-5.1419	-2.3368	0.1457	-4.6558	-3.6661	-5.5804	-3.0701	-8.0959	2.5174	-1.2431	-4.1027	-6.4814	-0.0440	-12.5126	-12.2871	-7.3277
360.0103	-4.2700	-3.1364	2.0570	-4.8502	-9.9077	-9.3554	-1.6088	-5.6586	0.4052	-18.4716	-3.9225	-7.1828	3.0889	-14.4158	-2.7108	-7.1248
368.0106	-5.5479	-4.5965	0.0632	-7.0197	-13.8622	-11.4498	-2.3817	-12.3810	-2.7616	-17.8638	-5.2742	-8.7675	3.6610	-18.5919	-2.1612	-8.8737
376.0108	-7.7199	-5.5608	-9.9946	-8.4400	-13.0198	-8.2707	-3.0780	-9.1725	-0.6693	-10.6583	-7.2019	-10.0613	0.1425	-15.1336	-18.8036	-8.6641
384.0110	-6.3353	-5.7139	-11.9466	-8.3482	-13.7949	-8.1616	-1.4436	-5.5618	-2.4437	-16.7397	-6.2432	-9.5445	1.2321	-14.2847	-13.6356	-7.4693
392.0113	-4.8806	-4.3746	-6.1490	-6.4385	-11.2765	-7.7127	-1.0689	-4.6450	-2.4341	-14.2423	-4.8177	-7.8015	1.9214	-13.4101	-7.5986	-6.6626
400.0115	-3.5315	-1.3358	-0.9372	-1.2641	-5.8645	-2.3416	-2.3919	-3.5040	2.1310	-3.0822	-3.3915	-2.6040	-1.2423	-0.5781	-11.8741	-1.7057
408.0117	-3.8915	-2.3959	-5.1092	-3.1025	-7.0824	-2.8400	-2.1900	-6.0190	-0.0158	-3.2798	-3.7831	-3.6623	-0.9883	-3.1596	-11.5947	-2.6043
416.0119	-4.2118	-3.1692	-7.7115	-4.4113	-5.3249	-3.4737	1.7709	13.9371	-3.3421	-10.3420	-4.5673	-7.7320	0.4550	-9.4519	-16.4790	-5.2779
424.0122	-3.2044	-0.0513	-1.8530	-0.6823	5.3736	0.5624	1.9442	22.7224	2.7614	-7.7341	-2.9500	-5.8782	-1.5861	-4.0435	-24.0016	-3.9340
432.0124	-3.3524	-1.8785	-7.6953	-5.4517	3.5818	-2.8368	-1.3612	-1.0957	8.6677	-9.0161	-1.6186	-6.4292	-0.7136	-11.1255	-13.9631	-6.6243
440.0126	-1.2074	-4.0714	-12.3702	-7.2536	-5.9201	-5.5312	1.3110	-3.4672	-1.6119	-16.7408	-0.9076	-5.8662	3.0652	-13.4801	4.4672	-5.1028
448.0129	-0.2464	-1.9111	-6.7147	-2.5782	-2.7726	-0.6705	2.8308	3.2757	-11.9514	-5.9861	-1.3659	-2.5850	1.5837	-4.9175	0.4772	-1.1722
456.0131	-1.0510	-0.1726	-4.8112	-0.3742	2.4247	2.5151	0.3259	5.6552	0.1018	5.9267	-0.9969	-0.8887	-2.0415	1.5684	-10.5513	-0.0717
464.0133	0.9882	1.4694	-1.7173	2.9005	2.9678	3.3854	0.8463	14.4995	9.2719	-4.2850	1.1662	1.8076	-2.0105	9.5596	-7.2379	3.4704
472.0136	0.7519	0.4427	-1.6673	1.0216	0.4338	0.9787	0.7118	3.6193	1.3676	-9.4880	0.5356	0.7859	-0.2058	4.3293	-1.3028	1.9412
480.0138	1.2413	-1.7343	-2.0373	-1.7169	-7.7313	-2.7727	0.6658	-4.7117	-3.3415	1.7144	0.7409	0.5901	2.5618	-3.1295	15.3902	0.2858
488.0140	4.0132	-1.7772	-0.3342	-1.0123	-10.7656	-3.6016	2.5080	-2.2850	-5.3881	2.8243	2.9566	2.7359	5.0351	-3.1296	31.7569	2.0452
496.0142	2.6797	-1.6730	-4.1913	-2.8904	-4.0594	-2.6116	1.4209	-7.9831	-3.6964	-1.2263	2.5138	0.7139	3.5125	-6.1245	21.5106	-0.3276
504.0145	1.5819	0.4783	-1.5194	0.2454	2.7622	1.7199	0.3467	-0.3814	1.8847	6.4396	1.8558	1.7485	-0.2225	1.2809	5.0807	1.0818
512.0147	1.3519	1.1989	-0.7875	1.6541	4.3465	3.5368	0.3889	1.5483	0.1628	7.2706	1.3362	2.4312	-1.3549	4.9405	-0.2867	2.3016
520.0149	0.5390	-0.5059	-6.3205	-2.0493	3.6997	1.4347	0.4411	-5.4537	-2.9265	1.2921	0.7647	-0.3117	-0.2756	-2.3631	0.6169	-0.6249
528.0152	2.0445	0.5792	-2.3480	0.7289	3.9966	2.8942	2.6965	5.4729	-6.7451	1.8093	1.3587	1.2431	0.3760	1.3741	3.6125	1.6274
536.0154	1.2924	0.8099	-1.0271	2.0678	1.4285	3.2760	1.7272	5.3958	-5.7629	2.1422	0.3749	2.0562	-0.6463	5.8657	-0.5717	3.0908
544.0156	0.2720	0.2532	-2.3332	0.3679	1.0357	1.9179	-0.6507	-3.4293	0.4864	4.6962	0.3471	1.4567	-1.2659	3.5045	-1.3311	1.4701
552.0159	3.1331	1.7485	2.5247	1.5992	7.6795	2.8449	2.0408	1.2079	-4.2939	4.2869	2.9636	2.5421	0.8331	0.3957	9.2413	1.3711
560.0161	2.9214	1.6510	0.8746	1.0985	8.2138	2.4993	1.6542	1.3524	-0.2525	-0.7753	3.1548	2.0183	0.5874	0.4727	7.2354	1.0708
568.0163	0.6926	0.1735	-6.2228	-0.6546	3.1485	1.8443	-1.0624	-1.1297	10.6498	0.3418	1.7956	1.1001	-1.7043	3.4271	-1.8305	1.0698
576.0165	1.0866	-0.8864	-7.8648	-2.1638	1.5746	0.6350	1.2660	1.4706	1.5813	-2.7892	1.3887	-0.5370	0.3517	-1.8868	3.0393	-0.2213
584.0168	1.1334	-1.3781	-3.3470	-3.2543	-0.0285	-2.7594	1.8337	-0.7865	-2.2526	-6.6657	1.3037	-2.1435	2.9403	-9.2172	10.6702	-2.7987
592.0170	1.6854	-0.4832	0.4938	-2.8955	2.3559	-3.1199	-0.5231	-10.9273	4.1262	-1.0027	2.8472	-0.4054	2.6238	-9.3545	15.8033	-3.0292
600.0172	1.7423	-0.2349	-0.8261	-2.3699	3.2311	-1.4339	-0.5796	-13.3675	0.7640	0.8790	2.5903	0.5010	1.7714	-6.5984	13.5056	-1.8059
608.0175	-1.1687	-2.2856	-3.4250	-3.3739	-5.5542	-3.6077	0.5474	-1.2394	-3.3811	-2.7639	-1.3357	-3.1516	1.8802	-7.9142	3.1381	-3.0134
616.0177	-2.8708	-2.9593	-3.9229	-4.7516	-5.7015	-4.9734	0.4086	0.3859	-3.8139	-5.5960	-2.8805	-5.8352	1.8660	-12.0446	-3.2636	-5.4845
624.0179	-2.1220	-0.8463	-2.9309	-2.9077	2.7376	-1.5178	-1.0362	-5.0267	0.9312	-6.0658	-1.3634	-3.5631	-0.3667	-6.6062	-8.5039	-3.8628
632.0182	-0.4897	-0.2953	-2.5788	-1.7769	3.3709	-0.5737	0.0660	-0.6831	1.8722	-5.9543	0.0954	-2.0037	0.0969	-4.1829	-3.2571	-2.1905
640.0184	-0.0533	-1.9396	-3.6621	-4.2646	-0.8412	-3.7368	1.5686	-5.5176	-7.5134	-11.1625	-0.1659	-3.6461	3.1769	-11.7555	7.2945	-4.0802
648.0186	-1.5600	-2.6363	-4.3651	-4.8497	-5.2006	-5.1915	-0.6479	-14.0593	-5.7420	-14.4919	-1.5354	-3.8496	2.5209	-10.2997	4.1399	-4.0066
656.0188	-0.8050	-0.3231	0.2663	-1.3379	-0.2909	-2.3825	-1.6396	-7.5803	4.5019	-9.8914	-0.0964	-1.2211	0.4087	-2.7145	-0.4341	-1.6523
664.0191	1.2901	3.1808	9.1075	3.4169	9.9303	1.8400	-0.4667	0.2697	4.1921	-6.1307	1.9098	1.8228	-0.5377	2.9691	-1.7876	0.6626
672.0193	1.2443	2.8405	11.3912	3.5990	6.4430	0.5720	-0.4184	-3.0668	-0.7676	-6.9884	1.2856	2.0388	0.4799	2.3454	2.2134	0.8755
680.0195	-0.2130	0.7558	6.2994	0.6706	0.7579	-1.9605	-1.1292	-7.2427	-0.5743	-8.6443	-0.0716	-0.0854	0.9612	-1.6097	1.9753	-0.8695
688.0198	-1.7102	1.1594	1.8568	1.1103	4.3949	1.0974	-1.6079	-1.5898	3.0294	-7.8548	-1.2679	-0.7764	-2.0651	2.9597	-13.8444	-0.3053
696.0200	-2.1037	1.5951	-0.1992	1.6078	6.5777	3.2136	-2.4377	-2.7504	4.9211	-4.2634	-1.4326	-0.0328	-3.9014	6.5328	-19.9616	0.6609
704.0202	-2.3776	0.4074	-2.3933	-0.4358	3.2950	1.3043	-3.5942	-11.7035	5.4365	-2.3343	-1.4060	-0.3726	-3.2245	3.2813	-14.6459	-0.4008
712.0204	-1.0918	-0.0173	-1.3237	-0.9126	2.0555	-0.1088	-1.4493	-5.4699	2.7347	-2.9127	-0.4909	-0.9163	-0.9716	-0.8585	-5.7230	-1.1499
720.0207	1.7700	1.8717	1.6942	1.7588	7.8192	2.9241	0.7315	-0.3485	-1.0040	-2.1968	1.8778	1.8826	-0.4857	2.8218	0.5881	1.4202
728.0209	1.1976	1.7496	-2.9803	1.7635	6.9269	4.5205	-1.0865	-8.8894	0.5402	-4.4546	1.4181	3.2119	-2.4488	8.6511	-4.7475	3.4878
736.0211	-1.4930	-0.2395	-0.8191	-1.2644	0.8726	-1.2422	-1.8742	-8.3949	2.3982	-8.1791	-0.8976	-1.4340	-0.5825	-1.6596	-5.7917	-1.5737
744.0214	-2.6887	0.8058	8.6719	0.8586	0.3239	-2.7558	-2.8788	-1.7656	7.6557	-4.1815	-1.8003	-1.9422	-0.7216	-1.9442	-9.5011	-2.7162
752.0216	-1.4827	0.8967	2.9152	1.7553	-2.0313	-0.1424	-4.5552	-9.5475	12.8263	-0.6586	-0.4421	2.0111	-2.6520	7.7888	-6.9594	1.7800
760.0218	-0.0706	0.3626	1.0437	-1.7851	4.0728	-1.5849	-3.4325	-20.6312	6.0103	-3.6914	1.4141	0.3618	-0.0795	-3.6984	3.9680	-1.9664
768.0221	-1.5016	0.6582	4.3833	-1.5955	7.0826	-1.9938	-1.8247	-9.2349	2.4036	-6.8931	-0.2899	-2.7794	0.1788	-8.0560	-5.2009	-4.6128
776.0223	-1.2021	-0.9437	-1.0812	-1.5243	-2.1932	-2.7619	0.1685	6.4931	5.7439	-9.0348	-0.7557	-2.9112	0.7480	-3.9903	-3.3346	-2.3186
784.0225	1.1866	1.5569	7.1053	0.1133	7.7644	-1.7048	-0.0848	-0.6815	6.3380	-6.7163	2.3637	-0.7071	1.6091	-6.2546	5.6856	-2.8309
792.0227	1.2142	3.6013	11.3746	2.8767	12.7124	1.0746	-1.9484	-6.0827	8.5590	-3.9702	2.6925	1.7902	-0.5862	0.2731	-0.1291	-0.8304
800.0230	1.4578	0.7891	1.7562	0.3331	2.7708	-0.4863	-0.1881	-2.2089	5.1067	-5.9600	2.0504	0.9802	0.7923	-0.2145	6.1538	0.1959
808.0232	1.5988	1.6630	4.2974	0.7059	6.9556	0.4224	-0.9604	-10.0526	1.9308	-4.0601	2.3348	1.6582	0.4491	-0.8585	5.9966	-0.1511
816.0234	-1.2992	0.3241	3.1471	0.2093	-1.8428	-2.0021	-3.8941	-11.0316	10.7349	-3.9308	-0.1774	0.5672	-1.0483	2.0695	-2.3302	-0.2494
824.0237	-2.5145	-2.2707	0.8681	-2.8047	-9.6798	-6.8966	-1.5658	3.3936	11.2697	-8.7988	-1.6840	-4.1009	1.7645	-7.1992	0.3723	-3.9337
832.0239	1.9086	1.6610	10.3103	2.3241	2.6276	-1.7380	1.5304	7.9702	1.9415	-5.9633	1.9145	0.5670	2.5183	-2.3693	9.5658	-0.4555
840.0241	5.2628	2.5014	11.9363	5.1132	-0.5925	-0.1666	2.4437	7.2623	0.7022	-2.4737	4.4916	5.5943	3.4402	5.4848	24.6335	4.6414
848.0244	5.0497	1.9160	12.8248	4.3353	-2.0591	-1.6645	3.2735	13.2501	1.5077	0.4840	4.3244	4.1789	4.4374	1.3988	26.7273	2.9924
856.0246	6.1613	3.8189	13.4739	6.8804	4.3731	3.1938	2.8546	11.1686	0.5264	10.7870	5.4389	7.4684	2.0588	8.4631	23.2967	5.8800
864.0248	5.2362	1.9171	3.5874	4.4087	-0.4488	3.3109	1.8146	5.0340	1.7697	11.0521	4.5925	7.1249	0.9365	10.1435	20.6372	6.5766
872.0250	3.7169	1.6319	2.8752	3.1252	2.6301	2.7586	2.6438	9.9063	-0.5590	5.3219	3.1554	3.8309	0.9368	5.1735	11.7870	3.6876
880.0253	4.9145	3.3139	7.7261	5.9729	6.1189	5.2318	3.3428	13.8694	-2.7963	11.5959	3.9789	6.0851	0.4275	9.2507	12.6296	5.6314
888.0255	3.2293	1.4115	2.8548	3.9784	-1.2233	3.2961	1.8386	9.9539	0.0091	12.6471	2.3993	4.9845	-0.0041	9.0187	10.5584	5.2120
896.0257	1.8215	-0.3101	0.5300	1.1920	-5.1531	0.0489	1.7297	5.8888	-2.9221	5.4041	0.9305	2.0690	1.3678	2.6600	10.6970	2.5026
904.0260	3.1609	-0.1989	1.3301	0.1995	-1.1891	-0.2090	3.5224	5.6398	-8.5129	5.3778	2.1676	1.4276	3.1673	-3.2849	17.8438	0.8588
912.0262	4.7447	1.5307	0.9847	2.2411	5.5626	3.6519	4.0449	10.1996	-4.9157	9.1891	4.0608	3.7347	1.6097	2.1135	15.8603	3.0733
920.0264	5.7985	2.6776	2.9865	5.4350	3.4545	5.5633	3.3627	11.8616	-0.9620	10.2916	4.8220	7.2893	0.4281	11.9528	16.8766	7.3582
928.0267	2.2979	-0.0068	-2.5448	1.5427	-2.6474	1.9734	2.7432	10.3771	-3.3372	2.9215	1.2712	2.2888	0.6813	5.0612	7.3017	3.5223
936.0269	-0.5431	-1.5871	-6.9445	-1.4697	-3.2863	0.1756	2.6768	11.3206	-5.5430	-3.9344	-1.4307	-2.2720	0.4265	-1.2152	-4.2566	-0.1968
944.0271	-0.2177	0.4728	0.9932	2.2016	-1.8356	1.8111	0.6939	6.7605	-3.1774	1.9505	-1.0605	1.0619	-0.9854	5.8610	-4.9707	2.3791
952.0273	-2.4089	0.6559	-0.5995	2.3166	-1.0960	3.3605	-2.3379	-1.7987	-0.2161	6.9930	-2.7454	1.3031	-4.0312	9.9111	-17.2433	2.6813
960.0276	-3.3847	-1.8438	-7.1885	-1.4700	-6.6256	0.7167	-2.2378	-6.3520	-2.9591	6.6322	-3.7751	-1.1052	-2.8420	3.6513	-14.0946	0.4624
968.0278	-3.3515	-2.4410	-3.0735	-2.7733	-9.3028	-3.0270	-2.9253	-12.0687	-1.9123	5.7528	-3.3899	-2.0157	-0.6691	-2.8042	-4.8503	-1.8874
976.0280	-5.0306	-2.9920	-7.0804	-4.7773	-7.6385	-3.3499	-4.9871	-20.9413	1.4329	1.9717	-4.2604	-3.5356	-2.0284	-4.4064	-12.6059	-3.5657
984.0283	-5.3500	-6.4149	-15.1537	-9.5739	-16.0138	-7.1159	-3.3993	-24.7909	-6.8910	0.0663	-5.2367	-6.4226	0.8354	-13.5098	-2.9398	-6.0330
992.0285	-4.4587	-7.3092	-11.8846	-9.6086	-22.6757	-10.2095	-1.7242	-19.8339	-10.5612	-1.6789	-5.1320	-6.6861	3.7497	-16.6926	8.6650	-6.1902
1000.0287	-3.6308	-5.9480	-12.4458	-6.4540	-21.6769	-6.8599	-1.5460	-12.3240	-6.1564	-3.2422	-4.5462	-3.9924	1.7691	-6.2326	3.3209	-2.0483
1008.0289	-3.5418	-6.7963	-19.9932	-7.2924	-21.9042	-4.5363	0.1476	-5.0203	-8.9874	1.3916	-4.9066	-4.3584	0.8466	-4.6005	-0.6811	-1.1125
1016.0292	-2.3401	-6.0700	-20.2432	-5.9802	-19.7699	-2.5649	1.3288	1.5833	-8.3061	4.1917	-3.8652	-3.0770	0.5093	-1.5903	0.1973	0.4593
1024.0294	-0.7802	-3.6351	-13.7095	-2.6788	-13.8085	-0.4523	1.3070	3.8818	-5.2459	3.4715	-2.0986	-0.5325	-0.0181	3.1407	1.1260	2.3614
1032.0296	-2.2177	-3.0297	-9.6911	-2.8723	-9.8502	-0.8278	-0.0015	-0.4385	-5.5222	5.6779	-3.0332	-1.9072	-0.6452	-0.3734	-4.9986	-0.0900
1040.0299	-2.9991	-3.7268	-9.8659	-4.0416	-13.4185	-2.7597	-2.5294	-14.3359	-3.8735	4.5858	-3.4315	-1.5581	-0.6371	-0.9687	-2.2657	-0.4470
1048.0301	-2.7711	-4.8117	-10.2058	-6.2143	-15.2502	-5.6270	-1.8369	-18.2498	-7.4182	-0.9372	-3.2667	-3.2133	1.6646	-7.8409	5.2212	-2.6542
1056.0303	-3.3735	-3.7424	-9.2825	-4.3197	-10.5204	-3.1910	0.4808	1.8710	-6.6081	-2.6828	-4.1537	-4.7834	0.4337	-5.7132	-7.7421	-2.7071
1064.0306	-1.6641	-0.6344	-6.8582	1.2272	-5.0471	2.5701	0.0359	10.1436	1.9328	-1.6707	-2.3563	0.1772	-2.8968	10.0047	-14.8892	3.3337
1072.0308	0.1952	0.7402	-3.5598	0.9323	3.2692	3.2103	-0.6458	-1.1111	2.4569	1.5892	0.4007	1.5877	-2.2214	6.0340	-6.2272	2.1339
1080.0310	0.0820	-0.6870	-3.2364	-0.7903	-1.6987	0.2681	0.1888	-0.0133	-0.4016	3.9682	0.0036	0.0987	-0.1234	0.0284	1.2689	0.2804
1088.0312	0.7815	-2.3331	-5.1421	-0.6394	-13.2872	-2.1747	1.6881	5.1244	-3.6010	-2.6890	-0.5588	0.7253	1.9590	2.7620	10.4474	2.7387
1096.0315	0.1767	-0.6273	-2.7693	-0.0072	-3.2114	0.0547	1.1515	3.1613	-3.6925	-5.0255	-0.5355	-0.0478	0.4127	1.8528	0.2592	1.2423
1104.0317	-2.0769	1.3681	1.4407	2.3334	4.0858	3.1162	-0.9723	7.4132	3.0620	2.0726	-1.9515	-0.3545	-3.3940	6.2022	-19.1110	0.7612
1112.0319	-0.7120	0.4777	0.6262	2.1976	-2.0515	1.5536	-0.1014	11.7327	5.7555	4.9059	-0.8285	0.7230	-1.8197	6.5465	-7.9376	1.9732
1120.0322	1.3245	0.5421	1.2997	1.3851	-0.8345	0.7276	-0.0354	4.3586	6.1151	7.1956	1.5691	2.1401	-0.1667	3.4239	5.4856	1.7791
1128.0324	0.8772	1.4509	6.8541	1.7186	2.6557	-0.0580	-1.2307	-4.4400	3.5032	4.1473	1.3608	1.8894	0.1304	0.7839	5.0020	0.3126
1136.0326	1.2330	0.5513	4.5002	-0.1645	2.9565	-1.5684	0.8941	-0.0829	-0.5431	-3.3916	1.4672	-0.3898	2.0421	-5.2280	8.1277	-1.6600
1144.0329	1.0655	-0.9561	-3.6379	-0.7132	-3.2061	-0.3674	1.8980	9.0270	1.0937	2.1920	0.7952	-0.1248	1.0677	-0.7476	5.8994	0.4985
1152.0331	1.8405	-0.6745	0.1278	1.0443	-7.1588	-0.3747	1.8876	6.1800	-3.7446	5.9927	0.7592	2.1096	1.6757	2.6579	12.3075	2.7149
1160.0333	3.3655	0.8074	7.6576	1.2165	0.2203	-1.4747	2.1957	-1.4195	-7.2255	1.2685	2.6850	2.1789	3.7693	-3.8212	21.0961	0.5017
1168.0335	1.8960	0.6582	3.6669	0.2019	3.0020	-0.5047	1.1575	-0.8019	-2.1470	0.7366	1.9300	0.7413	1.8678	-3.6097	10.4277	-0.5805
1176.0338	1.1184	-0.0115	-1.7351	-0.2213	1.2574	0.5823	1.4027	0.5877	-4.0170	-3.5741	0.7565	0.2714	0.8085	-0.4940	3.7067	0.5046
1184.0340	-0.0537	-0.4343	-1.7217	-0.7745	-0.3451	-0.2184	0.4780	-4.0080	-5.8068	-5.2138	-0.4826	-0.5125	0.5461	-1.2028	0.4144	-0.1597
1192.0342	-0.0700	0.1655	2.3208	0.4277	-0.1068	0.0466	0.1903	-1.9486	-5.0724	2.3960	-0.4863	0.1773	0.3183	-0.6498	0.9075	-0.0667
1200.0345	2.7313	1.9873	6.7053	3.3519	4.4461	2.2742	2.8260	8.7979	-6.6119	2.8250	1.8352	2.4653	1.2419	2.3683	7.6461	2.1499
1208.0347	1.0187	1.1721	3.8239	2.2798	2.4830	1.6689	2.0073	8.4037	-5.3298	-0.0025	0.2425	0.8452	0.3683	2.1305	0.1181	1.2904
1216.0349	0.9984	1.6857	3.2529	1.7966	6.5622	2.6511	0.5058	-2.5253	-5.4836	0.8264	0.7408	1.5106	-0.5030	1.9621	-0.9628	0.9815
1224.0352	3.4671	4.3640	8.0229	4.4847	16.0714	5.5101	0.8888	-2.9829	-3.0010	-1.6770	3.6546	4.2935	-0.8084	5.4424	2.3724	2.6748
1232.0354	1.7021	3.8536	8.2376	4.6765	12.7721	4.9173	0.4158	6.6952	2.8155	4.0594	2.0877	2.8939	-1.9002	6.1478	-5.4154	1.9601
1240.0356	2.0796	3.7978	6.1471	5.4480	10.9455	6.6890	0.2685	7.4434	2.9107	12.7588	2.2119	4.6620	-2.9472	10.5562	-5.0287	4.0616
1248.0358	1.6642	3.1451	5.0505	4.4056	8.8891	5.1957	-0.0118	0.6128	-0.9952	3.4240	1.5258	3.8954	-2.1319	9.0601	-4.0788	3.6339
1256.0361	-0.1452	2.1658	10.0170	2.8362	6.2664	0.8319	0.7496	5.1211	-4.6151	-1.7860	-0.4569	-0.2421	0.1255	-0.5823	-4.8890	-0.8007
1264.0363	-1.5474	0.8314	-4.7404	0.7243	5.1334	3.9764	-1.7830	0.7607	6.5219	3.3984	-0.8309	0.3140	-4.0952	6.6957	-17.3004	1.1484
1272.0365	-2.8534	-3.1807	-16.5843	-4.0978	-7.0572	0.5625	-1.6389	-2.9540	4.3056	2.7597	-2.5499	-2.1308	-2.8633	2.2844	-12.8689	0.0543
1280.0368	-5.0850	-5.8010	-16.6001	-8.1068	-14.3143	-5.5787	-1.6561	-9.1766	-2.4512	-6.8615	-5.0904	-6.8415	0.1308	-9.4901	-9.8019	-4.7767
1288.0370	-7.0879	-4.7838	-12.8257	-7.5096	-8.4537	-4.8632	-2.0781	-4.8138	-2.2694	-7.9208	-6.7352	-9.1443	-1.2682	-11.4782	-23.6864	-7.1704
1296.0372	-8.0488	-3.3932	-7.8979	-5.9651	-4.1362	-4.6210	-2.8541	-1.3989	2.0285	-13.7024	-7.2288	-9.8963	-2.2292	-10.4546	-32.4644	-7.9551
1304.0375	-6.1842	-2.5143	-2.7740	-4.1610	-5.8988	-5.3824	-3.5284	-5.4097	5.5259	-13.0404	-5.2813	-6.9391	-1.1712	-7.5513	-20.9112	-5.9407
1312.0377	-5.2734	-3.7478	-4.0709	-4.5435	-13.9673	-6.5818	-3.8879	-9.7085	4.7240	-3.0723	-4.8003	-4.9230	-0.1929	-6.2651	-8.9969	-4.2071
1320.0379	-3.6873	-2.8895	0.1298	-4.5241	-7.9903	-7.2520	-1.1268	-4.0903	-0.7500	-10.8587	-3.4209	-6.1943	2.2912	-12.7114	-2.9966	-6.2029
1328.0381	1.3399	2.0780	7.8797	1.6299	8.7683	-0.8331	2.2934	14.7287	5.3860	-13.7387	1.9257	-1.6223	1.7651	-4.3184	0.3712	-2.1720
1336.0384	3.2279	3.3038	5.3269	5.3278	7.2284	4.0373	1.7342	20.0850	12.8453	-0.7228	3.6587	3.8877	-1.0681	10.2976	1.0212	4.2924
1344.0386	2.6640	-0.0335	-0.9467	0.3578	-1.8939	-0.4588	1.4276	3.6431	3.3076	-2.3897	2.6032	1.9403	1.7448	1.2566	13.2955	1.8777
1352.0388	0.3892	-2.2706	-2.1383	-3.7089	-5.8141	-5.0671	1.1667	-4.4888	-3.9705	-8.7487	0.2201	-2.5487	3.8074	-10.1115	13.3252	-3.0121
1360.0391	-3.2504	-3.1561	-3.6212	-4.3883	-8.8159	-5.6069	-0.4268	-2.2378	-2.9077	-8.1734	-3.3849	-5.3489	1.7025	-9.7565	-3.4852	-4.6021
1368.0393	-3.2010	-2.4152	-5.8163	-4.3725	-3.1812	-3.5198	-0.7818	-1.9322	0.8380	-7.7023	-2.7070	-5.2540	0.2227	-8.5170	-9.1506	-4.6733
1376.0395	-4.3327	-1.0113	-1.9262	-3.7553	3.9476	-2.4693	-2.4100	-3.7241	5.5429	-4.6112	-2.8694	-5.9368	-1.4567	-9.5605	-18.2094	-6.4999
1384.0397	-4.9112	-1.7333	1.5177	-5.1824	1.2986	-5.7953	-3.1770	-11.4881	2.8942	-6.1008	-3.3767	-7.2091	0.3281	-15.7816	-12.3297	-8.8929
1392.0400	-1.3842	-1.0672	0.1771	-3.9509	1.7698	-4.2935	-1.8699	-11.8270	4.0861	-6.2862	-0.0386	-3.4958	1.4252	-11.4417	1.9703	-5.4196
1400.0402	-2.1540	0.0463	-3.5381	-0.9443	3.9254	0.9020	-1.4009	2.9442	8.0173	-2.2416	-1.1376	-2.2196	-2.4493	0.1116	-15.3002	-1.7373
1408.0404	-5.2542	-2.9992	-9.5841	-4.0916	-5.7284	-2.5987	-0.5281	8.6545	2.6157	-10.2285	-5.0724	-6.9447	-1.6238	-4.7774	-23.2772	-4.2082
1416.0407	-4.8111	-3.6068	-5.9454	-5.5598	-7.9525	-6.3765	-0.7072	1.0023	0.5111	-15.6271	-4.5265	-7.8344	1.0962	-11.6406	-12.3610	-6.3841
1424.0409	-1.6740	-0.3935	1.4860	-2.2730	2.9910	-2.9483	-0.5663	-0.9115	3.1350	-8.9157	-0.7902	-3.8804	0.8081	-8.5687	-4.9338	-4.6187
1432.0411	0.0521	-0.8022	-4.2134	-2.4633	1.7068	-1.4580	0.4701	0.0789	3.4152	-8.5107	0.6917	-2.0908	0.8814	-5.0841	0.8947	-2.1750
1440.0414	-1.4436	-1.9614	-6.8808	-3.4728	-2.8412	-2.4036	-0.1581	-2.0535	1.4285	-9.6188	-1.1087	-3.1885	0.5129	-5.0196	-3.2620	-2.4367
1448.0416	-0.7968	-0.5547	-2.7951	-2.0819	2.7091	-0.7913	0.1121	-0.5903	0.7643	-4.5501	-0.2937	-2.3944	0.1432	-5.0256	-3.7508	-2.5658
1456.0418	0.5278	0.6594	-4.9557	-0.4045	6.4652	2.5728	-0.2333	-1.1325	4.5997	-3.1696	1.2669	0.3733	-1.5802	2.0881	-5.0835	0.4503
1464.0420	1.2814	1.7298	-3.5145	1.5608	7.9470	4.4706	-0.3725	-2.4430	3.4699	-4.2821	1.7280	2.4393	-2.3456	7.4401	-5.7012	2.8226
1472.0423	2.2007	2.1276	0.8564	2.5725	7.1121	3.4190	0.6693	2.9315	3.4635	-4.7790	2.4211	2.7519	-0.9245	6.3771	0.2269	2.8519
1480.0425	0.2531	2.0633	1.4399	2.3626	6.9972	2.6104	-0.6793	4.3193	8.3389	-8.2277	0.9593	1.0479	-2.0559	6.2446	-9.3765	1.5209
1488.0427	0.0614	2.0373	2.4451	1.8352	8.5042	2.0450	-0.1462	4.8113	5.8707	-9.9249	0.7373	-0.0711	-1.4472	3.0078	-9.6419	0.1418
1496.0430	0.4434	0.1456	0.1866	-0.3939	1.7276	-1.0920	0.7182	3.6599	3.2664	-9.8548	0.7680	-1.0436	0.9357	-2.1000	1.0165	-0.9213
1504.0432	-0.1203	-1.0213	-0.3295	-2.5536	-1.7676	-3.8585	-0.7467	-9.6320	0.9376	-12.1397	0.3586	-1.7253	2.1096	-6.5622	6.7339	-2.4749
1512.0434	0.8608	-0.6749	0.3539	-2.3887	-0.3017	-3.7389	-0.4171	-10.1924	1.5620	-12.3543	1.4639	-1.0475	2.6376	-6.9698	11.0576	-2.2656
1520.0437	-0.5946	-1.2400	-6.2058	-1.7095	-3.5618	-1.4930	-0.4758	1.6680	7.6482	-10.4697	-0.1097	-1.2668	-0.1366	0.6231	-2.3489	-0.0839
1528.0439	0.2055	-1.1883	-10.0811	-1.6568	-2.3168	0.8789	-0.2043	-3.3311	2.6907	-7.6984	0.2966	0.3178	-0.8730	3.7005	-1.5785	1.7672
1536.0441	1.0263	-2.2907	-14.5005	-4.0027	-3.2950	-0.3340	0.0778	-8.2094	2.9834	-8.8683	1.4040	-0.0847	0.3340	-0.2412	6.0260	0.8547
1544.0443	-1.0319	-2.2044	-15.3494	-3.8323	-2.4025	-0.3701	-0.4902	1.3903	10.7681	-14.4374	-0.1089	-2.3475	-1.3362	1.0214	-8.0686	-0.2422
1552.0446	2.4337	2.4116	-3.0249	2.6596	10.0849	5.2533	1.3202	6.1315	4.3606	-10.1976	2.6974	2.7021	-1.8519	8.9148	-4.8825	3.7097
1560.0448	2.4203	1.7225	-5.7792	2.2735	7.4769	5.8623	1.6654	4.9324	0.0937	-5.5160	2.1753	3.1326	-1.9957	9.9044	-3.8888	4.5600
1568.0450	-1.4765	-1.7826	-12.7992	-1.5951	-2.9459	2.1410	1.9575	11.8627	-2.5455	-6.8373	-2.2186	-2.2811	-1.7539	3.7102	-14.1476	1.1326
1576.0453	0.1556	1.1647	1.3407	2.5995	3.3660	3.5083	2.4192	12.5972	-7.6798	1.8064	-0.9414	0.3643	-1.0177	4.4557	-8.2674	1.7943
1584.0455	0.2779	1.7971	6.0514	1.9099	6.5452	2.1453	-0.2797	-1.5430	-2.9359	8.5656	0.3639	1.1277	-0.8408	0.3603	-2.2346	-0.1619
1592.0457	-0.3976	-0.2447	1.9277	-1.0372	1.4284	-0.7563	0.1698	-0.7808	-2.6624	8.0624	-0.2437	-1.2048	0.6015	-5.6496	1.5898	-2.3749
1600.0460	0.1635	0.3483	3.0862	1.0165	0.4621	0.9305	1.1236	4.6451	-5.7585	9.4728	-0.4338	0.2812	0.1901	-0.6352	0.7023	0.0222
1608.0462	1.3758	-0.9340	-4.2824	-1.9166	0.3354	0.3520	1.6007	-3.2563	-7.0799	5.6498	1.0147	0.1103	1.3299	-4.1783	8.8900	-0.4591
1616.0464	5.7149	-0.3784	-5.1681	-0.7905	1.6528	1.8689	5.2640	2.9750	-11.9960	4.9824	4.5472	3.0769	3.8290	-2.8131	26.5941	2.4658
1624.0466	7.8854	3.3032	3.5686	6.8097	4.3080	7.2286	5.0886	12.0432	-7.9302	10.4495	6.0662	9.5052	1.3085	14.6129	24.3436	9.7315
1632.0469	9.3887	4.4705	2.0849	10.0277	3.3172	10.7178	4.9044	14.9219	-4.3220	11.0214	7.1775	13.6127	-0.5188	26.8093	23.8361	15.1449
1640.0471	10.2875	4.6078	0.7706	12.0967	-0.2418	12.8226	6.2951	19.2806	-10.6776	11.1449	6.7971	15.8078	-0.8334	34.0503	24.5826	18.9787
1648.0473	5.3465	3.7108	7.3199	9.7205	-1.6223	8.0370	2.8129	8.9988	-11.1289	10.2732	2.6147	10.6549	-1.0894	23.8953	11.6266	12.5195
1656.0476	1.1346	1.7263	8.0033	4.7841	-2.1667	2.2956	0.5716	4.9316	-5.4379	8.4045	-0.1172	3.8376	-0.4275	8.7922	2.5924	4.2601
1664.0478	-0.0641	0.2250	4.4876	3.4939	-8.8732	0.6864	-0.6024	3.3855	-1.9600	10.3462	-1.2377	3.2637	-0.7466	9.3365	1.8336	4.2805
1672.0480	-1.4520	-3.2607	3.4182	-2.7073	-17.2837	-7.5547	-1.3731	-9.8210	-4.6850	6.4156	-2.1653	-1.4024	3.6113	-7.8746	15.9546	-2.2090
1680.0482	-1.4796	-5.6454	-2.2147	-8.3077	-16.0203	-11.8850	1.7497	-3.6316	-7.4107	-3.5083	-1.7870	-7.2843	7.3447	-24.5088	22.2441	-8.5686
1688.0485	-0.9690	-3.3482	-6.0875	-5.2120	-6.7629	-5.0179	1.8467	2.8976	-3.7687	-3.3402	-1.1082	-4.8009	3.1931	-12.8191	6.8157	-4.6605
1696.0487	-0.8231	-1.0294	-1.7023	-1.7877	-1.1198	-0.9953	0.2851	-0.1935	-2.7594	4.6303	-0.8411	-1.7304	0.4421	-4.8004	-0.2605	-2.0188
1704.0489	-0.7056	-0.2943	1.4507	0.1715	-1.8801	-0.2896	0.2902	4.3974	-1.4994	6.5846	-0.9654	-0.6221	-0.0359	-0.9950	-1.5976	-0.5689
1712.0492	-0.2972	0.0671	2.3687	1.4802	-3.7843	0.0335	-0.0868	4.1871	0.0242	4.4002	-0.7500	0.8457	-0.2968	3.3157	-0.5614	1.3616
1720.0494	0.7103	-0.7056	-0.0338	0.8695	-6.2058	-0.3403	1.9444	7.5594	-5.7105	1.7929	-0.4900	0.6918	1.2149	1.9967	5.3965	1.8568
1728.0496	-0.1426	-0.1888	0.1490	1.3027	-3.6486	0.5925	1.3037	8.6336	-3.4723	0.8775	-1.0482	0.2355	-0.0512	3.3301	-2.0635	1.6009
1736.0499	-1.3240	1.3173	8.2360	2.4052	1.5508	-0.2374	-0.3960	8.3959	2.5400	1.2945	-1.2737	-0.7637	-0.6733	0.8466	-8.0930	-0.8117
1744.0501	1.3035	0.2470	7.9499	2.0533	-4.4445	-2.3494	3.0332	13.9994	-5.2022	-3.8649	0.1121	-0.1336	3.1657	-1.8088	9.6812	0.3387
1752.0503	2.8324	-1.0107	1.8932	0.8633	-10.3444	-2.4921	2.3731	1.3528	-7.5397	-2.7465	1.2871	2.5405	3.7943	1.2416	21.6016	3.0846
1760.0505	0.4024	-0.7145	-0.8647	0.0706	-6.2858	-0.7885	-1.2241	-6.8321	0.8774	4.6736	0.1991	2.0064	0.1665	3.0870	7.0730	1.9277
1768.0508	-1.7684	-1.1115	-4.0921	-0.9863	-4.8969	-0.0923	-2.3119	-10.0585	-0.5020	2.5441	-1.8225	0.1713	-1.5814	2.9097	-5.3235	0.7347
1776.0510	-4.0543	-2.1969	-2.5724	-2.6033	-8.6493	-2.4761	-4.2396	-21.0785	-5.3389	4.9446	-4.1934	-1.5457	-1.4840	-1.3830	-8.1128	-1.5639
1784.0512	-3.8322	-3.1117	-0.5498	-2.6079	-14.7254	-5.0391	-2.5584	-10.3016	-5.2824	4.7085	-4.5036	-2.5513	0.5237	-3.8488	-2.0744	-2.0244
1792.0515	-0.2665	-2.3978	-1.0087	-1.5544	-13.1287	-4.8053	0.3701	-5.4963	-6.8583	-10.4547	-1.4557	-0.6928	3.0178	-2.0552	10.9309	0.4265
1800.0517	0.2007	0.4781	1.1249	0.6257	0.5820	0.1949	-0.5298	-8.0883	-4.3233	-8.1576	-0.1359	0.8773	0.1022	2.0552	0.2835	1.0490
1808.0519	-0.2882	2.3100	2.9116	3.1354	7.1168	4.2419	-1.1589	0.4032	1.9475	3.2034	-0.0700	1.9928	-3.0605	7.6934	-11.7303	2.1162
1816.0522	0.8450	1.8128	4.2029	1.3910	6.6183	1.2547	-1.2492	-6.9422	2.9055	-2.0190	1.5096	1.6110	-0.6240	1.5417	0.3421	0.3451
1824.0524	1.1633	0.7931	2.6250	-1.3485	7.6302	-0.7071	-0.3516	-7.8751	1.8174	0.1590	2.2211	-0.3962	1.1574	-7.1526	6.8562	-2.8185
1832.0526	0.4482	-1.0721	-1.9600	-3.0873	1.2630	-1.7336	0.2081	-5.9576	-1.2710	6.5508	1.0086	-1.3883	1.5686	-8.9480	8.4697	-3.1503
1840.0528	-1.1523	-3.1427	-5.1602	-5.8021	-5.4856	-5.0742	-0.4755	-13.6677	-5.4744	-0.4013	-0.9070	-3.6352	2.7356	-13.3265	9.2163	-4.8810
1848.0531	-1.9279	-2.9466	-5.8558	-4.9882	-5.3213	-4.1673	-0.0781	-5.3806	-3.2878	-2.0647	-1.7728	-4.2886	1.6912	-10.7236	1.4012	-4.4472
1856.0533	-2.8660	-2.1587	-2.0724	-3.4883	-4.9969	-3.8013	-1.3809	-5.8887	-1.1940	-0.5327	-2.5957	-3.8534	0.5555	-7.9346	-4.1306	-4.0540
1864.0535	-2.9770	-1.6733	1.4649	-3.2138	-3.6955	-4.5592	-2.0130	-10.9257	-2.6255	-3.1957	-2.6222	-3.8694	0.9854	-9.3533	-3.1074	-4.7393
1872.0538	-1.1424	-0.7933	-0.2462	-0.8166	-3.6204	-1.3245	-1.2137	-4.1784	0.4028	2.6864	-1.0809	-0.5616	-0.1617	-0.9542	-0.9009	-0.6678
1880.0540	-2.0609	-1.4890	-4.5227	-1.7117	-4.9239	-0.9089	-1.7650	-3.3383	3.1446	4.3256	-1.7858	-1.1955	-1.2833	0.0957	-6.0476	-0.6953
1888.0542	-3.0488	-1.9902	-4.8156	-3.7015	-2.3646	-2.5564	-1.3361	-3.1479	1.7599	-1.2427	-2.4372	-4.2130	-0.4588	-6.9316	-9.0897	-4.0763
1896.0545	-3.0527	-2.1459	-1.3687	-4.0533	-4.7465	-4.4658	-3.0907	-13.0619	2.9246	3.0714	-2.1171	-3.4106	0.2500	-8.8674	-2.1937	-4.6782
1904.0547	-3.2229	-3.5989	-0.7364	-6.1461	-10.0685	-8.1700	-3.4467	-17.3798	3.1936	4.4685	-2.1454	-4.5779	2.3167	-15.0803	7.0034	-6.7352
1912.0549	-0.4024	-2.7683	1.8522	-5.3641	-5.5955	-7.7389	0.4785	-5.2834	-1.2232	1.3645	0.1787	-4.4702	4.8971	-18.6815	17.1252	-6.9049
1920.0551	-0.3020	-1.3094	3.4060	-3.3019	-0.9549	-4.4076	0.0021	-6.2278	-2.8562	7.0216	0.1863	-2.7024	2.9441	-13.6072	11.0588	-5.1891
1928.0554	-2.6458	-0.7775	0.4915	-1.5386	-0.6050	-0.9789	-1.5757	-3.7643	-1.3034	8.4248	-2.3372	-2.3715	-1.0122	-4.4566	-8.3663	-2.9648
1936.0556	-2.2771	0.1702	1.8869	0.4454	0.0072	0.4033	-1.6622	-2.7030	-1.1487	3.5916	-2.2646	-0.8974	-1.7547	1.0917	-11.0106	-0.7392
1944.0558	-1.9547	-0.8190	1.2295	-1.3581	-2.7750	-2.0816	-1.9566	-8.1580	-0.5463	2.4277	-1.7022	-1.4525	-0.1709	-3.3944	-2.8901	-2.0640
1952.0561	-0.3033	-0.2056	-0.7069	0.0152	-0.4833	0.3493	0.6477	3.7605	-1.9176	1.3762	-0.5823	-0.5048	-0.1233	-0.0402	-2.2165	-0.0543
1960.0563	1.5433	1.8264	0.5531	3.0478	5.5054	4.7685	1.5236	4.4224	-5.8591	2.4046	0.7722	2.7377	-1.3864	7.3869	-3.1974	3.4718
1968.0565	1.3732	1.3589	0.5349	1.6552	5.9360	3.5504	1.3021	2.9043	-4.3536	5.8672	1.0498	1.7224	-0.7891	2.8392	-0.6077	1.5505
1976.0567	2.0481	2.7918	5.7791	4.3675	8.0511	4.4301	2.4306	16.3641	0.1122	5.9320	1.6955	2.3632	-0.9098	5.8328	-2.3720	2.5112
1984.0570	4.0771	5.3978	11.2832	9.5972	9.8268	8.4918	1.8412	15.5591	0.4426	9.3607	3.1511	7.9408	-2.5804	18.9409	-0.7003	8.3928
1992.0572	5.9429	5.6350	10.8091	10.5367	8.9209	9.9299	2.6003	14.6490	-2.1371	16.3569	4.5765	10.5493	-2.2115	21.9184	7.8107	10.7576
2000.0574	4.0633	3.0231	4.7697	6.3079	4.2858	6.7487	2.9064	11.6971	-6.4539	12.8093	2.6161	6.5676	-0.9696	13.3944	6.5697	7.1595
2008.0577	1.8113	0.1889	-1.7504	1.8973	-3.0632	2.7701	1.0652	-0.6109	-6.9880	7.7259	0.6447	3.6279	-0.2670	7.2349	6.4335	4.3713
2016.0579	3.3535	2.1690	6.2813	4.7379	0.9215	3.5944	1.3380	4.1671	-3.5354	12.1967	2.4113	5.6492	0.0570	9.0264	11.1768	5.2464
2024.0581	3.3559	3.1682	9.6303	6.4940	3.3801	4.6475	2.3648	11.6018	-5.3463	10.0378	2.0568	5.5523	-0.1717	10.6530	6.8048	5.6504
2032.0584	2.0630	1.7590	-0.6967	5.0438	0.1800	6.2057	1.9673	11.7574	-4.3826	7.3706	0.6121	4.9479	-2.2175	15.1222	-2.7826	7.0706
2040.0586	1.3730	2.4213	-3.0422	5.0240	5.6117	8.4972	1.0406	13.4860	1.6196	12.1091	0.7667	4.7017	-4.4836	16.6286	-12.0462	6.6320
2048.0588	0.2433	0.2341	-5.8475	1.0879	2.1792	4.1440	2.0879	12.2132	-2.7624	2.8307	-0.4238	0.4335	-1.8604	5.8034	-8.9321	2.3637
2056.0590	0.2738	-0.3172	-4.0607	1.1211	-2.2240	2.3335	2.6019	11.0578	-7.5169	-1.9950	-1.0713	0.2405	-0.3996	4.9076	-4.4589	2.5560
2064.0593	0.4403	1.9689	3.5599	4.2924	2.4303	5.0049	-0.0185	4.0310	-4.0368	13.2419	-0.3672	3.6437	-2.6439	10.3894	-6.3959	4.1868
2072.0595	1.1456	-0.8569	-4.0729	-0.4096	-3.2842	1.3356	1.0278	-1.3458	-6.0338	10.8492	0.4170	1.6791	0.2558	1.4377	7.0858	1.8195
2080.0597	2.9025	-0.9915	-4.7586	-0.8429	-1.9254	0.3135	4.4644	10.5671	-7.8136	-0.6379	1.7995	0.3425	2.7834	-2.4176	13.5474	1.1411
2088.0600	3.0481	2.4106	5.3618	4.0236	6.7456	3.9793	3.7035	17.7217	-3.3330	6.4608	2.2973	2.5831	0.3871	4.1993	4.2056	2.6753
2096.0602	1.7096	1.6706	4.5653	3.1627	2.9076	2.5093	1.4717	11.0037	1.0850	7.7972	1.4053	2.3419	-0.2990	4.5546	2.3344	2.2596
2104.0604	0.9868	2.1901	7.1042	3.6309	4.0788	1.7638	0.5068	11.4966	5.9246	2.7916	1.1632	1.7279	-0.6895	4.7295	-1.8015	1.5603
2112.0607	1.2718	3.5835	10.8938	5.4594	8.1931	3.5180	0.3566	11.7499	4.9219	5.2373	1.4291	2.8318	-1.4885	7.0865	-4.5068	2.2801
2120.0609	-0.6545	0.7308	3.7733	0.9939	1.3581	-0.0833	-0.8418	-0.2925	1.5708	-0.4800	-0.4647	-0.0740	-0.5202	0.6549	-3.7745	-0.3432
2128.0611	-3.2865	-1.6783	-0.9622	-3.0164	-3.5310	-4.4631	-1.5067	0.3286	5.8553	-9.4960	-2.5001	-4.8800	0.3176	-7.3685	-9.0007	-4.5903
2136.0613	-0.1854	1.0211	3.5691	0.9312	4.0140	-0.6698	0.5963	13.6045	10.1211	-6.7170	0.6340	-1.6231	-0.0074	-1.2414	-5.2594	-1.5302
2144.0616	4.4734	4.5964	10.6680	6.8125	10.4598	4.6688	1.5361	15.8572	11.1749	2.8439	4.9343	5.7126	-0.6161	10.6303	6.7379	4.8447
2152.0618	4.2471	2.7471	8.5571	5.4398	1.7621	2.2674	1.8648	13.5504	6.5947	4.5252	3.9698	5.3959	0.8990	8.9202	13.8884	5.0188
2160.0620	3.4629	0.4963	-0.0996	0.5993	1.5701	0.2810	2.6439	5.9633	0.3849	-3.6267	3.2672	1.8593	2.2759	-0.1778	14.6622	1.5783
2168.0623	4.2515	2.5702	-2.0640	1.1370	14.7725	4.7006	1.9586	2.7614	5.2659	-2.4671	5.2381	2.8474	-0.2336	1.8460	6.7310	1.5745
2176.0625	2.3900	2.7009	-1.8879	2.2404	12.9701	5.7212	0.4746	5.1681	8.4232	2.0546	3.4093	2.8276	-2.4734	6.4893	-4.1818	2.3695
2184.0627	-1.4846	-0.1585	-3.7661	-3.3097	6.6376	-0.4379	-3.6408	-20.1402	5.7666	-1.8574	0.2971	-1.4586	-1.5344	-5.2357	-5.5598	-3.4048
2192.0630	-3.1816	-2.6194	-6.7774	-9.0166	5.0927	-5.6192	-4.7075	-30.1641	6.8742	-1.7832	-0.3160	-6.1027	0.5895	-20.3205	-0.9137	-9.9235
2200.0632	-2.2767	-3.3953	-9.7602	-7.6725	-0.1767	-4.7105	-0.0388	-3.7844	3.0101	-2.5441	-0.9202	-6.7899	1.6408	-17.3182	-1.0871	-7.8036
2208.0634	-2.2089	-1.7839	-5.2082	-3.6392	-0.5271	-1.9378	-0.1784	-0.8901	-0.6062	-2.0289	-1.7865	-4.0839	0.0611	-7.6442	-6.8301	-3.9494
2216.0636	-2.8077	-0.3648	2.1476	-1.4318	2.0862	-1.3407	-0.8418	1.0305	-0.7252	2.8468	-2.3730	-3.6518	-0.6353	-6.5028	-11.1102	-4.1556
2224.0639	0.6591	2.2679	10.3996	3.1687	6.7570	1.0394	2.2285	12.8264	-4.4364	-0.0939	0.1971	-0.3171	0.7872	-1.3609	-2.2497	-0.7678
2232.0641	4.0281	5.2953	17.3148	8.3841	9.6471	4.6077	0.9200	4.6761	-1.8132	2.7174	3.4100	6.7863	-0.1375	11.3665	7.7101	5.5001
2240.0643	1.7111	2.5288	8.2803	5.7993	-0.8220	2.9476	-0.5892	3.1915	1.8652	5.0956	1.0415	5.3587	-1.2645	12.9096	2.4773	5.7007
2248.0646	-0.7982	-0.2349	-0.5984	1.3087	-5.3144	0.1555	-0.6051	0.0718	-1.0883	-5.0748	-1.4789	0.8466	-0.8151	6.2561	-4.3570	2.4432
2256.0648	-1.2874	0.9123	1.8967	2.0676	-0.1197	1.4287	-1.7211	-2.6185	1.0011	-3.2532	-1.4288	0.9958	-2.1024	6.8282	-10.0939	1.8776
2264.0650	-1.5229	-0.3970	-3.5221	1.1654	-4.6194	1.5055	-0.7580	7.2386	4.4006	2.7168	-1.7806	0.3773	-2.4141	7.6392	-10.8828	2.3230
2272.0653	-1.1237	-1.9088	-8.7593	-2.3648	-5.0631	-0.3938	-0.5596	-4.1773	-0.5083	-2.7710	-1.2580	-0.9827	-0.6785	0.7556	-3.3652	0.2915
2280.0655	-1.1469	-0.8962	-4.6255	-2.5253	2.4404	0.0698	0.1140	-6.1380	-6.3041	-2.5489	-1.1516	-2.2760	-0.1757	-4.8623	-5.1189	-2.2667
2288.0657	-1.7050	-0.5620	-2.2061	-0.4875	-0.0039	0.7598	0.9328	7.8990	-3.7134	2.2508	-2.1099	-2.2391	-0.9271	-1.0888	-10.4330	-1.1493
2296.0659	-2.2211	-0.8368	-1.9893	-0.2211	-4.6794	-0.0932	-1.7302	-2.1777	0.7595	3.8132	-2.3408	-0.5574	-1.7241	2.8434	-8.8157	0.3127
2304.0662	-0.6194	-1.3992	-2.9481	-1.3192	-5.3066	-0.6154	-0.5301	-4.1039	-2.8673	9.7102	-0.9192	0.0503	-0.0272	-0.8921	2.6214	-0.0084
2312.0664	1.5861	-1.5228	-2.5634	-0.7318	-6.8769	-0.3271	2.2227	2.5323	-8.8046	12.9109	0.4038	1.2445	1.9371	-1.4618	13.7400	1.3032
2320.0666	0.9044	0.6126	1.1149	1.9139	-1.2978	2.0511	-0.1562	-4.6163	-5.5367	5.5625	0.1414	2.9292	-0.5855	5.8133	2.9379	3.1017
2328.0669	0.1659	2.6413	2.9225	3.9640	5.8122	4.6017	-2.4579	-3.5557	6.6796	3.6077	0.6600	3.8435	-3.7200	11.8910	-9.7904	3.8810
2336.0671	-0.6109	1.9188	3.2289	3.1241	3.2286	2.6842	-2.3669	2.3262	10.9172	4.1536	0.1631	2.1895	-3.1899	8.9061	-10.3059	2.2885
2344.0673	-0.9982	0.8687	5.0291	1.5901	-0.0765	-0.6854	-1.3815	0.6931	4.4995	-4.1915	-0.7321	-0.0142	-0.6789	2.3344	-5.3139	0.0555
2352.0675	0.3742	0.6451	5.9323	1.1493	-2.2090	-2.2242	-1.7918	-7.0613	4.8175	-5.9642	0.7277	1.3528	0.8464	1.2661	6.0862	0.5475
2360.0678	1.1879	0.9394	4.9717	0.5468	1.4075	-1.9526	-1.5099	-6.4207	8.3378	-6.3111	2.1245	1.2532	1.0607	-0.6835	8.3389	-0.2051
2368.0680	2.7707	3.0212	5.8282	2.0776	12.8376	1.5281	0.7142	3.7243	8.9614	-10.6269	3.9982	1.3611	0.4898	-0.0625	3.7714	-0.1447
2376.0682	2.8041	3.1806	5.1786	2.5226	12.2636	2.4430	-0.3449	-1.5251	9.3026	-7.3066	4.0565	2.7463	-0.3847	2.9994	3.6507	1.1364
2384.0685	2.2867	1.8183	3.7449	0.4660	9.1832	0.2696	0.2596	-1.7196	6.2774	-6.4014	3.3900	0.8663	1.0001	-2.7217	7.0250	-0.9275
2392.0687	4.6095	2.7903	3.8817	2.3879	11.8951	2.5872	3.1146	11.8069	6.0416	-5.1146	5.2470	2.4151	1.5011	0.4033	11.3147	1.2253
2400.0689	3.9864	1.2852	-3.1800	2.3173	2.7341	3.5082	2.0700	6.8517	3.9551	-1.9972	3.8029	4.2876	0.0906	8.2961	10.0093	4.9181
2408.0692	1.8865	-1.2337	-7.1430	-1.6333	-2.9129	-0.1860	1.7203	-2.0312	-3.6264	-6.6969	1.3836	0.7100	1.5691	-0.0802	9.9223	1.4833
2416.0694	-0.3144	-2.3970	-4.6725	-3.6157	-6.0176	-3.9075	0.9293	-5.0792	-5.6304	-9.8747	-0.7101	-2.6025	2.6955	-7.5036	7.4281	-2.2428
2424.0696	-2.3589	-4.0480	-4.8632	-4.9565	-14.5139	-7.0968	-0.7265	-12.4377	-7.8115	-12.3526	-3.1013	-3.8961	3.1465	-8.9037	6.5909	-3.0598
2432.0698	0.1083	-0.8933	4.9595	-2.0379	-2.7723	-5.0880	0.2265	-10.1230	-7.0734	-11.0418	-0.1285	-1.9920	3.7785	-9.8527	11.7700	-3.2616
2440.0701	-0.4849	1.3254	10.3530	-0.2169	6.6890	-3.0041	-0.9338	-5.4360	1.2641	-6.4207	0.4442	-2.1303	1.6873	-9.1276	1.5761	-4.5338
2448.0703	-2.9959	-0.2155	4.6147	-2.1636	2.5162	-3.8553	-2.5238	-7.5141	4.3126	-7.4808	-1.7979	-4.1559	0.1739	-8.9904	-8.3997	-5.5112
2456.0705	-0.9689	2.4970	7.3775	1.2477	11.9176	1.2035	-1.9044	-2.7755	6.2782	-0.8008	0.4261	-0.8582	-1.6889	-2.1671	-10.5863	-2.6934
2464.0708	-1.2069	0.6369	-1.5126	-0.9070	7.5110	1.3446	-1.0876	1.6105	7.4491	2.8036	0.0703	-1.7122	-1.9716	-2.2854	-10.8386	-2.4232
2472.0710	-2.6916	-5.4001	-16.2186	-8.7292	-10.0992	-5.8428	-0.0051	-4.3448	1.6381	-4.8616	-2.0881	-6.5086	1.8601	-13.9246	1.2061	-5.7628
2480.0712	-2.4307	-4.6167	-12.2760	-7.3736	-9.2832	-5.5139	-0.1147	-6.1424	-1.1803	-4.7653	-2.1153	-5.5951	1.9819	-12.6279	2.1007	-5.1207
2488.0715	-1.7345	-2.9790	-8.3708	-3.5014	-9.1502	-3.0635	0.1285	0.6943	-0.1375	-5.6117	-1.9927	-2.9189	0.7507	-3.3859	-1.3137	-1.3697
2496.0717	-0.2935	-2.3458	-7.1605	-1.6868	-10.0591	-2.1766	1.1425	5.0070	-0.4500	-8.1590	-1.0371	-1.0461	1.1467	0.9822	2.8885	1.1031
2504.0719	-0.6331	-1.2048	-3.9428	-0.7891	-5.0968	-0.6893	0.3004	1.8264	-1.1932	-2.8792	-1.0816	-0.6325	0.0533	1.1458	-1.3446	0.6109
2512.0721	-0.6692	-1.5936	-3.7598	-1.6703	-6.7112	-1.6132	-1.2970	-10.1275	-2.2649	0.4062	-0.9197	0.1689	0.2764	-0.0215	3.5639	0.3992
2520.0724	0.7199	-0.6850	-2.8832	-1.3679	-1.7398	-0.4566	-0.9157	-13.4821	-3.3575	-0.0353	0.6828	1.2144	0.5778	-0.5914	7.5679	0.5792
2528.0726	0.1671	-0.5912	-4.5669	-3.1855	6.1460	-0.0582	0.9058	-4.8944	-3.8698	-2.1844	0.6709	-2.3313	0.7674	-8.2791	0.6514	-3.2953
2536.0728	-0.6829	-1.1447	-2.4580	-4.6900	4.7453	-2.7254	-0.6976	-14.9288	-3.7423	-3.7397	0.2475	-3.3727	1.6348	-13.0998	3.5743	-5.4813
2544.0731	0.3448	0.2874	4.3799	-2.1419	5.0099	-2.4134	-1.7106	-21.3135	-4.8385	-3.0205	1.0637	-0.5686	1.8379	-9.1756	9.0218	-3.4813
2552.0733	1.0775	-0.8441	0.6649	-2.3315	0.9816	-2.6138	2.2976	-0.2385	-7.2351	-4.4043	0.8283	-2.1217	3.3121	-10.1019	10.7094	-3.0865
2560.0735	0.4620	-1.1516	-3.1705	-1.7033	-0.8685	-0.9774	3.0788	7.9891	-7.4036	-4.8553	-0.2693	-2.2700	2.0265	-5.5675	3.1935	-1.4955
2568.0738	0.4941	1.9747	1.2077	2.1772	8.4344	4.0067	0.5527	1.9913	-2.8061	-1.3523	0.3919	1.1466	-1.7691	4.4328	-8.2505	1.3971
2576.0740	-0.7883	-0.8654	-4.1181	-1.4530	-1.0569	-0.3120	-0.1825	-1.8004	-0.4760	-3.0120	-0.7417	-1.1655	-0.2973	-1.0255	-3.2698	-0.6322
2584.0742	-1.9603	-4.3997	-9.1561	-6.1288	-12.0225	-6.2411	0.4352	-6.7533	-5.8962	-10.7551	-2.4052	-4.8058	3.0262	-10.8425	5.6843	-3.8277
2592.0744	0.5717	0.2025	-1.2853	-1.7609	7.2284	0.1260	1.5638	-2.2023	-5.8191	-7.6331	0.7263	-1.9722	1.1715	-6.8616	0.4601	-2.6269
2600.0747	0.5512	1.5054	-3.7199	-0.5492	13.7688	4.2238	0.6794	-1.0636	-0.8751	-0.9079	1.3287	-0.5661	-1.8109	-1.4021	-8.9069	-1.2148
2608.0749	-0.9657	-0.6889	-6.4010	-2.4654	4.1489	0.7451	0.3407	-1.0415	-1.1905	-3.9304	-0.5685	-2.4419	-0.7460	-3.7801	-7.6392	-2.1273
2616.0751	0.9117	1.6784	3.4963	1.0953	8.7571	1.7694	1.1430	6.3126	1.2519	0.6863	1.3593	-0.1834	-0.1518	-1.7420	-2.1044	-1.0311
2624.0754	2.9499	1.6166	0.9908	1.9107	5.3284	3.0400	0.7865	-0.0164	1.4329	6.0137	3.0968	3.5712	-0.1401	4.0831	8.3711	2.6549
2632.0756	4.6100	0.1752	-2.6677	0.6184	-0.9282	1.1645	2.2899	-1.4303	-2.1897	0.9805	4.0897	4.2033	2.2812	2.8913	21.6315	3.7907
2640.0758	2.9016	0.0306	-1.2052	0.2108	-0.4320	0.2226	1.9607	3.1737	-0.1271	0.3989	2.6613	1.9530	1.8288	0.2487	13.8421	1.6776
2648.0760	0.1169	-1.4020	-5.3748	-1.1727	-5.7599	-0.6528	0.0427	-1.3702	0.1687	-0.4277	-0.1700	0.3242	0.2499	1.4721	3.4574	1.1776
2656.0763	1.5332	0.4468	0.3521	0.7972	1.0238	0.5313	1.4106	6.5726	1.7191	-0.8154	1.4635	0.8720	0.7206	0.9432	4.9153	0.9668
2664.0765	1.1002	1.3770	2.1604	0.5750	7.8088	1.2835	0.7415	6.6398	5.8878	2.1000	1.9542	-0.0598	-0.1567	-1.9173	-0.1021	-1.1107
2672.0767	0.2935	-0.1435	-2.9167	-0.5665	0.3716	0.3073	-0.6755	-2.0701	4.8662	-0.3264	0.7980	0.4868	-0.5258	1.1365	0.5577	0.4039
2680.0770	1.6037	0.8364	2.9504	2.2095	-1.7797	0.2973	0.1412	4.0090	4.9099	0.1408	1.5400	2.5489	0.3218	5.0622	6.4877	2.6330
2688.0772	-0.4780	0.0023	5.0691	0.8743	-4.6060	-2.3560	-1.3118	-0.5571	4.6324	0.2125	-0.3278	0.3690	0.5605	0.5409	3.0306	0.0129
2696.0774	-1.9169	-0.4134	7.1663	0.4546	-6.9852	-4.1092	-2.2048	-4.7740	2.0420	-3.6887	-1.9354	-0.9056	0.8184	-1.3030	0.0382	-1.1808
2704.0777	0.9540	1.3909	14.3467	3.5499	-4.4144	-3.0500	-0.3643	0.5320	-0.4166	-2.0487	0.4051	2.0046	2.3618	1.1248	11.1840	1.0291
2712.0779	3.1620	2.3332	14.4270	4.9316	-1.7100	-0.9111	0.7594	1.2463	-2.0776	0.0940	2.3537	4.5002	2.5872	4.3653	17.6691	3.3131
2720.0781	1.1978	2.6071	7.0279	5.1807	3.0582	3.4746	0.7854	8.7448	-1.1033	-0.2177	0.4432	3.2823	-1.2512	10.0520	-3.7376	4.1318
2728.0783	-1.7211	-1.0662	-4.9506	-0.3912	-3.9877	0.7689	0.3594	1.7668	-6.2583	-4.0270	-2.6289	-1.1739	-1.1136	2.9994	-9.8498	0.9093
2736.0786	-0.7120	-2.4907	-2.9478	-2.9602	-8.6327	-4.0263	0.6763	-6.4274	-8.9846	-6.8384	-1.5787	-2.1302	2.6470	-6.2117	7.4266	-1.6088
2744.0788	1.2168	1.1159	8.9721	2.4655	-0.2470	-1.2346	2.0083	9.5403	-3.4401	-3.5597	0.4995	0.3619	2.1822	-0.9492	6.5305	0.2223
2752.0790	1.1426	0.7988	8.4701	2.8640	-3.8484	-1.3121	1.5088	5.9972	-5.3840	-3.6479	0.0104	1.3571	2.0615	1.8863	7.8093	1.6764
2760.0793	0.3303	0.4980	6.0355	2.3370	-5.8319	-1.0087	-1.6695	-6.5272	0.1630	2.1773	-0.1092	2.8486	0.2561	5.2949	6.2637	2.5986
2768.0795	-1.9804	0.5994	2.3734	1.5670	-2.2144	0.6674	-4.1308	-5.8557	10.6751	9.6748	-1.1136	1.6076	-3.1637	6.7777	-9.0951	1.2668
2776.0797	-4.1260	-3.1299	-3.4851	-4.8270	-9.5711	-5.6992	-4.0922	-17.3642	2.6406	-0.2033	-3.3676	-3.8534	0.0751	-7.9332	-3.9252	-4.4436
2784.0800	-4.9536	-3.9283	0.2200	-5.9776	-13.0236	-9.2393	-4.2184	-20.1151	-0.2120	-4.0120	-4.3349	-5.7398	2.0036	-13.9853	0.0070	-6.8746
2792.0802	-5.4703	-2.6247	2.6552	-2.9269	-12.1365	-6.8385	-4.4983	-8.3300	6.4465	0.3032	-4.7999	-4.5669	-0.2597	-6.3782	-9.6910	-4.6974
2800.0804	-3.9388	-3.0873	-2.3340	-3.7072	-11.9409	-6.0001	-2.8054	-8.7003	2.0648	-5.0543	-3.7349	-3.9914	0.6218	-6.0031	-4.3454	-3.4804
2808.0806	-1.8127	-2.5515	-5.4522	-3.4382	-7.9319	-3.4903	-1.2785	-7.4860	0.1164	-2.8523	-1.7254	-2.2889	0.7043	-4.3945	0.7665	-1.9007
2816.0809	-1.1682	-0.1582	0.5127	0.6267	-3.0478	-0.3878	-1.0352	4.5102	6.0332	2.4468	-0.9393	-0.2066	-1.0743	2.6700	-5.2723	0.3413
2824.0811	-0.9559	1.2812	8.4085	2.3597	-0.0978	-1.1723	-1.6090	5.4764	9.3060	0.9804	-0.3425	0.1387	-0.6458	1.9829	-4.2679	-0.3494
2832.0813	-1.2311	-0.3654	3.0189	-0.8861	-2.1818	-2.8870	-2.1382	-4.0332	7.6002	0.5448	-0.3408	-1.0954	0.2058	-3.2503	0.3028	-2.1124
2840.0816	-0.5153	-0.4367	-3.3594	-0.8052	-0.3456	-0.1975	-0.2926	1.8253	4.4550	-4.3264	-0.1465	-0.8439	-0.5416	0.4220	-3.7508	-0.2545
2848.0818	-1.4101	0.0577	-1.7224	0.9835	-1.5807	0.6354	-0.3890	7.8670	5.1756	-6.4155	-1.4051	-0.7157	-1.6665	5.0535	-11.4079	1.0431
2856.0820	-4.1689	-2.6711	-4.8564	-2.7153	-11.0804	-3.8912	-3.1738	-6.0400	4.9709	-5.0728	-3.9231	-3.1195	-1.1423	-0.5902	-10.9053	-1.6905
2864.0823	-1.0080	-1.7421	-4.9733	-3.1430	-4.1900	-2.8892	-1.8101	-11.1461	3.3952	-6.3779	-0.3997	-1.4359	0.5098	-3.6415	2.1359	-1.6291
2872.0825	1.0711	-0.6733	0.2461	-1.9940	-0.7749	-3.0275	-0.0450	-5.5613	2.7898	-4.8396	1.6486	-0.6036	2.3133	-6.1932	11.5475	-1.8729
2880.0827	-2.1104	-3.7229	-2.6640	-4.9734	-12.5079	-7.9615	-0.2424	-3.1802	-0.0349	-9.9123	-2.1213	-4.8726	3.5764	-11.8538	7.4715	-4.6668
2888.0829	0.1544	-1.4749	-3.3048	-1.6853	-5.4264	-2.7109	0.7509	2.5371	2.0146	-8.5350	0.0652	-1.2641	1.6677	-2.4374	5.2589	-0.5100
2896.0832	2.0832	1.9039	3.7142	2.4744	4.7928	2.0025	-0.0007	1.7871	5.3681	1.7803	2.4951	2.8951	-0.3687	4.4596	4.5488	2.1242
2904.0834	0.1104	0.6780	3.9196	0.4680	2.1478	-1.1097	-0.0579	2.2804	3.6176	-5.0335	0.5247	-0.5983	0.6240	-1.8596	0.4456	-1.0969
2912.0836	0.5517	0.6306	-0.5766	1.8252	-0.3290	1.3462	0.6746	9.4441	4.8347	-4.0955	0.4342	1.0262	-0.7701	5.8574	-3.0558	2.2878
2920.0839	-0.5024	0.7909	0.6140	3.0456	-3.0479	2.6078	-1.3342	3.8916	4.4229	7.1579	-0.7840	2.7248	-2.6492	10.7704	-7.0714	3.9052
2928.0841	-0.7718	0.9037	4.4181	0.8581	2.8006	-0.0818	-1.0596	0.2540	3.4363	1.6237	-0.2742	-0.3553	-0.6862	-0.4634	-4.4825	-1.0423
2936.0843	1.0871	1.4492	2.9487	1.2088	5.9624	1.1729	0.2360	5.5702	6.7912	1.9431	1.8438	0.6986	-0.3327	0.2914	0.4317	-0.1733
2944.0846	0.2603	-0.0869	-0.0187	0.5446	-2.4732	0.1741	-0.4975	0.5422	2.8512	5.4621	0.2940	1.1963	-0.3403	2.4584	2.2816	1.1635
2952.0848	-0.4258	-0.5382	2.4212	-1.4055	-0.3974	-2.4042	0.1372	-2.9271	-2.9505	-1.1052	-0.3632	-1.7375	1.5741	-6.5920	3.6044	-2.6261
2960.0850	-0.2852	0.3251	1.3961	-0.5442	4.3771	0.0290	0.7157	3.7839	-0.5061	1.3323	0.0193	-1.6166	0.2111	-4.4373	-2.6409	-2.2220
2968.0852	-0.0613	0.5366	-4.4947	0.1638	5.4178	3.3778	0.4858	6.2208	2.8285	5.0120	0.3066	-0.0012	-2.1223	2.5830	-8.6626	0.4701
2976.0855	0.5329	0.3968	-6.2399	-0.9649	8.2974	3.4273	1.5566	5.6875	-0.1067	2.0144	0.9263	-0.8294	-1.3239	-0.9100	-6.5587	-0.6252
2984.0857	0.7720	-0.7680	-8.9294	-1.1953	2.1302	3.1841	2.7086	6.5080	-7.2715	3.7172	0.0801	-0.3525	-0.5375	0.4741	-2.4337	0.8992
2992.0859	1.1550	-0.3038	-10.8298	0.5289	1.1558	5.7939	2.4843	7.5370	-7.2461	7.4713	0.0669	1.9239	-2.1408	7.9580	-5.2076	4.1001
3000.0862	0.8623	1.0051	-5.5793	1.5616	6.6912	5.9176	2.6214	11.7314	-5.4436	4.7996	0.1746	0.9688	-2.2364	5.9969	-9.7379	2.5416
3008.0864	0.0909	-0.4487	-1.9035	0.3750	-1.3169	1.0715	2.8990	10.2654	-9.6662	-1.6937	-1.1882	-0.9283	0.5901	0.2775	-2.4625	0.6716
3016.0866	-0.8976	-1.3996	-2.5975	-0.6946	-5.8788	-0.8816	1.3378	4.6784	-7.0053	-1.3441	-1.9356	-1.3529	0.6480	-0.5669	-1.5963	0.1051
3024.0868	-0.4146	-0.4520	-3.6802	0.6727	-2.2766	1.9612	1.5280	10.0213	-3.6150	3.7720	-1.2478	-0.1001	-0.9900	3.8135	-6.0457	1.6147
3032.0871	0.2432	-0.4507	-4.7495	1.5205	-3.9915	2.8171	2.4151	13.4092	-5.5413	3.1729	-1.1260	0.8878	-0.9441	6.9821	-4.6784	3.4031
3040.0873	-2.3115	-0.6580	-3.5118	-0.4917	-0.5880	0.7555	0.4628	8.5878	-1.2702	-1.7526	-2.5926	-2.6045	-1.5555	0.5059	-14.6204	-0.9190
3048.0875	-2.7884	-2.2787	-10.2371	-4.4124	-1.5251	-1.4986	-1.0236	-8.3308	-2.0251	-12.1869	-2.4871	-4.0880	-0.7654	-4.6859	-11.3291	-2.8747
3056.0878	-0.6342	-0.3097	-5.9825	-2.0297	5.4793	0.5825	0.9893	4.2998	1.8587	-10.8720	-0.0941	-2.8492	-0.4817	-3.3656	-8.7008	-2.1027
3064.0880	-1.8956	-0.5639	-6.8091	-0.4192	-0.8376	1.9608	-1.1000	1.2616	3.0048	-0.9806	-1.7768	-0.6808	-2.8091	5.0681	-14.1128	0.9868
3072.0882	-3.1621	-3.1813	-14.2458	-3.6248	-8.8542	-0.1100	-1.7066	-5.5924	-0.1113	0.3101	-3.3441	-2.0921	-2.3838	2.4115	-12.3608	0.2482
3080.0885	-2.8356	-3.7068	-11.2273	-6.3191	-5.3618	-4.0304	0.2615	-3.5872	-3.2423	-9.9678	-2.6757	-5.9751	1.1365	-10.8942	-5.3581	-4.9341
3088.0887	-3.1490	-2.8958	-7.9763	-5.3968	-2.5887	-3.6470	0.1884	0.1137	-1.3781	-8.7368	-2.7578	-6.2941	0.7124	-11.0782	-8.9525	-5.5519
3096.0889	-2.3988	-2.8794	-7.2917	-5.0569	-3.7630	-3.6950	0.4355	-0.7567	-2.4747	-6.6540	-2.2066	-5.3279	1.2354	-10.5060	-4.1294	-4.7911
3104.0891	-0.8672	-1.5302	-2.0852	-4.5149	2.4153	-3.9436	0.8936	-3.0953	-2.3407	-9.4060	-0.2325	-4.8674	2.5365	-14.0341	2.3954	-5.9195
3112.0894	0.4188	-0.1434	-1.2394	-2.2145	5.3568	-0.9866	0.6993	-0.4554	1.6831	-3.0717	1.2128	-2.0332	1.1009	-7.5923	2.4209	-3.1834
3120.0896	-1.1677	-2.6564	-5.3165	-4.6987	-4.8533	-4.3931	0.0604	-7.2265	-3.1026	-7.4466	-1.0220	-3.6806	2.2503	-10.0930	4.6145	-3.8657
3128.0898	-2.6556	-3.4559	-2.5841	-6.4814	-6.6640	-7.8684	-0.8106	-15.2826	-6.9563	-14.9806	-2.4693	-6.1715	3.7062	-16.8328	4.8863	-6.9577
3136.0901	-0.9444	-0.0421	2.7627	-0.7912	0.7877	-1.7630	-1.0212	-3.6612	1.5804	-1.2854	-0.4612	-1.3804	0.3593	-4.0668	-1.0803	-2.2338
3144.0903	-1.1833	0.0316	-0.1732	0.3472	-0.6689	0.2818	-1.0106	1.6817	3.6775	1.3858	-0.9445	-0.3637	-1.2951	2.0383	-6.7786	0.0382
3152.0905	-1.9009	-1.3082	-2.9194	-2.0627	-2.6103	-2.1718	-0.1874	-1.4572	-1.9979	-10.6721	-1.9886	-3.0291	0.3571	-3.6436	-6.2296	-2.0897
3160.0908	-1.5697	-1.0057	-3.2470	-0.4885	-4.0899	-0.8549	0.5072	9.0333	2.0322	-6.6262	-1.8291	-2.0688	-0.4522	1.0269	-8.2914	-0.2290
3168.0910	-1.6881	-1.6240	-2.5143	-1.5022	-5.5588	-2.5432	0.8587	12.9001	4.5399	-2.5367	-1.6683	-3.2373	0.5003	-3.2629	-4.8938	-1.9649
3176.0912	0.2108	-0.0737	4.9526	-1.4849	3.2834	-3.2588	1.8858	7.8920	0.2253	-4.2792	0.6345	-3.3509	2.8301	-11.1898	5.0345	-4.6167
3184.0914	0.6113	1.1157	6.9979	0.9530	4.3859	-0.7800	1.2757	7.8938	0.5751	1.0445	0.8221	-0.8990	1.3133	-4.5962	2.5541	-1.9874
3192.0917	-1.4274	-1.7144	3.0257	-2.2767	-6.2122	-5.1481	0.2370	-0.0374	-2.9152	-3.3362	-1.6141	-3.3354	2.6685	-9.2522	4.6743	-3.7633
3200.0919	-1.4341	-2.8857	0.5006	-4.4281	-8.6703	-7.4782	0.2731	-5.7121	-4.4359	-10.7071	-1.5780	-4.5695	4.1624	-13.5127	9.6453	-5.0902
3208.0921	-0.6723	-1.4469	-3.2927	-0.9419	-7.1168	-1.8004	-0.2428	2.5481	3.2199	-1.7244	-0.8106	-0.5947	0.2938	0.8212	0.9033	0.4077
3216.0924	0.4521	-0.3223	-0.0297	0.3003	-3.0694	-0.3681	0.4108	1.6538	-0.6476	1.4262	0.1165	0.6552	0.5162	1.0965	3.8205	0.9279
3224.0926	0.5848	-0.0643	2.8615	-1.0598	1.6421	-1.7364	0.5874	-6.0003	-5.8640	-3.2863	0.4838	-0.8243	2.0157	-6.2444	7.1173	-1.9798
3232.0928	-3.1097	-1.7801	-3.9534	-2.2127	-5.4059	-1.6945	-1.9974	-4.8603	0.5272	1.5706	-2.9676	-2.4692	-1.2321	-1.7135	-9.6471	-1.8002
3240.0931	-4.5163	-3.7792	-7.9440	-5.0940	-10.5443	-4.6884	-2.0611	-6.4769	-0.3602	-3.2680	-4.3864	-5.2295	-0.1838	-7.0275	-9.8031	-4.0817
3248.0933	-2.6213	-2.7482	-4.0832	-5.7461	-2.6993	-5.9009	-0.3751	-4.6482	0.5548	-11.9049	-1.8444	-6.3408	2.2153	-14.6195	-1.7415	-6.7703
3256.0935	-3.3921	-0.3461	3.6125	-2.1383	2.9213	-3.5354	-1.5222	3.8139	7.9244	-5.0520	-2.0582	-5.3590	-0.2007	-9.4908	-12.7508	-6.1529
3264.0937	-0.8065	1.0287	8.1541	-0.0019	5.4894	-2.4547	0.0086	4.1321	3.3740	-6.2601	-0.0280	-2.7877	1.2038	-7.5771	-2.6175	-4.1273
3272.0940	3.9429	2.9333	9.9555	2.9242	9.8154	0.2641	2.7789	8.9264	2.2423	-10.3275	4.2204	1.6698	2.7764	-1.9867	12.8398	0.1771
3280.0942	1.2232	2.3587	6.5753	4.6950	1.3305	1.8740	-0.2887	9.3640	8.6754	-3.4022	1.2766	3.1946	-1.1377	10.0815	-1.7102	3.8334
3288.0944	-0.9576	-1.6187	-3.7565	-0.3334	-10.7775	-2.0847	-1.1541	-2.8019	1.9798	-7.8285	-1.4869	0.3870	0.0229	4.9115	0.3838	2.1930
3296.0947	1.5012	0.0412	0.4235	0.3372	-1.1556	-0.9509	1.4453	1.9841	-1.6034	-10.4541	1.0889	0.4819	1.7702	0.1399	7.2538	0.9556
3304.0949	2.6756	5.0220	11.0849	7.6525	10.7762	5.9897	-0.5323	6.9645	7.8857	1.4354	2.9378	6.0806	-2.7154	14.9395	-3.8087	5.7180
3312.0951	2.9308	3.5442	5.4694	5.9082	5.8638	5.0503	-0.6121	2.6947	7.5220	0.6021	3.0460	6.2405	-2.1755	14.8113	1.2341	6.3316
3320.0953	1.7393	0.7754	1.8635	0.6440	3.0481	-0.1897	1.4883	6.5607	3.3214	-5.6682	1.9702	0.3152	1.2787	-1.0117	5.7511	0.0454
3328.0956	1.4375	1.8999	6.9203	1.4706	6.0510	-0.2369	-1.0113	-1.2249	9.2306	0.4464	2.5954	1.4287	0.3388	-0.7489	5.5253	-0.5452
3336.0958	1.8570	1.5727	4.9999	1.6273	2.9037	-0.1157	-1.6337	-5.2833	9.9884	0.4114	2.8704	2.8698	0.1526	2.5433	8.6132	1.2153
3344.0960	0.1827	-0.8765	-1.2315	-1.0996	-3.8490	-2.5810	-0.0347	1.8064	5.7697	-6.9789	0.5189	-0.7919	1.2465	-1.8083	4.7782	-0.5778
3352.0963	0.3851	-1.3004	-2.4013	-2.4934	-3.8381	-3.7047	-0.9609	-4.7008	8.6085	-6.6461	1.2930	-0.8790	1.6811	-4.4515	9.0714	-1.5579
3360.0965	0.2376	-1.1363	-2.3221	-3.1068	-0.6710	-3.6143	-0.7260	-3.8569	8.9064	-6.2827	1.4658	-1.8585	1.6989	-7.2980	7.4278	-2.9988
3368.0967	-1.8216	-2.2679	-4.3769	-3.4443	-6.0183	-4.1633	-0.6723	-1.3899	3.7659	-8.4109	-1.4054	-3.4630	1.1116	-6.1371	-0.9015	-2.9716
3376.0970	-2.1279	-2.0002	-1.8473	-2.8098	-7.4536	-4.6805	-2.1060	-8.1098	3.9837	-8.6855	-1.6841	-2.5371	0.8903	-4.4682	-0.1694	-2.3963
3384.0972	-0.8392	-0.3492	0.5969	-1.8034	1.1548	-2.9222	-1.0061	-2.4819	6.7431	-10.3616	0.1509	-2.3720	0.8135	-5.4475	-0.8937	-2.9774
3392.0974	0.7662	-0.4170	-2.7969	-1.6800	1.5236	-1.5701	0.6361	2.4257	6.1820	-9.7100	1.4847	-1.3108	1.1909	-3.7393	3.7440	-1.4370
3400.0976	-2.0044	-2.7025	-7.4839	-4.8570	-4.5913	-4.7113	-0.5062	1.3378	8.5213	-11.9854	-0.9945	-4.8745	1.1354	-8.6222	-2.5767	-4.3288
3408.0979	-5.4567	-3.8792	-11.2551	-7.0211	-6.0598	-5.9797	-2.6937	-3.3046	10.8995	-16.9852	-3.9321	-8.1290	-0.6084	-10.6145	-17.4259	-6.8409
3416.0981	-2.4691	-1.8221	-6.2511	-3.5649	-2.9249	-2.6627	-2.3727	-10.6178	4.0973	-9.8899	-1.6796	-2.9186	-0.5602	-3.7558	-6.8768	-2.5716
3424.0983	-0.2372	0.0046	3.2548	-1.2017	1.8422	-2.1932	-0.6918	-6.2151	0.1877	-2.5404	0.2874	-1.2599	1.2114	-6.0803	3.4500	-2.6506
3432.0986	-0.2537	0.5314	3.4498	-0.5218	3.9611	-1.2788	-0.4318	-1.1653	2.9506	-3.0428	0.4517	-1.3363	0.5670	-4.7011	-0.2699	-2.4581
3440.0988	3.0294	2.3554	1.4210	3.2264	7.9747	4.7483	2.0660	7.3421	-0.9355	2.8117	2.7639	3.4536	-0.6799	6.4457	2.8772	3.4442
3448.0990	5.6938	4.1359	3.6808	5.7070	14.4267	8.2513	4.6594	18.0553	-2.6011	9.3466	5.1178	5.7227	-0.5849	9.2657	7.3116	5.4308
3456.0993	4.7814	4.2526	6.3699	5.3985	14.1833	6.9332	2.4631	9.7165	0.8289	10.3476	4.8130	5.6512	-0.9318	8.0978	6.6911	4.3629
3464.0995	3.9926	3.2688	8.3741	4.9746	7.6725	4.7296	1.6590	3.1574	-4.1635	12.6695	3.4452	5.6207	0.0149	6.8338	10.8501	4.2105
3472.0997	4.5508	2.1773	7.6716	4.4568	2.9721	3.3875	4.1572	9.5952	-12.0996	10.6120	2.9027	4.7504	2.1150	4.2318	16.9250	4.2064
3480.0999	4.0276	1.9513	3.6942	4.3524	3.6560	4.7174	5.1476	15.4467	-13.6036	6.0196	2.0653	3.8315	1.2822	6.1038	9.6091	4.6864
3488.1002	3.2893	1.9393	2.1340	4.8604	1.8734	5.7360	3.3335	12.9502	-8.4517	12.3767	1.6658	5.0093	-0.5799	10.6873	5.3914	6.0282
3496.1004	4.1093	2.5230	7.7240	6.3018	-1.1243	4.7128	1.4874	4.3715	-5.8883	18.1443	2.6275	7.7349	-0.1374	13.0857	14.5021	7.4724
3504.1006	4.8677	3.1493	10.6739	7.0732	0.9814	4.8632	2.7288	5.0015	-11.7623	13.8096	2.8806	7.8375	0.9002	12.0263	17.0028	7.4987
3512.1009	3.9253	0.9641	3.6084	3.4920	-2.9796	2.8667	2.6557	-1.3855	-14.8966	10.4817	1.9141	5.6462	1.7005	6.8947	18.2645	5.6357
3520.1011	2.2919	0.1091	1.3959	1.0500	-2.4186	1.0199	1.2085	-8.0586	-12.4522	5.7759	1.0100	3.2227	1.5426	1.9885	13.7353	2.7885
3528.1013	0.3374	2.4460	5.7835	4.1064	5.6988	4.3419	0.1584	2.9985	-4.9071	6.4664	-0.2759	2.5810	-2.0669	7.5282	-7.5221	2.7555
3536.1016	-3.7126	-0.8982	-1.0381	0.6697	-8.4708	0.5386	-4.4607	-9.8768	2.1689	13.9511	-3.8081	0.9301	-3.7517	7.7090	-13.5658	1.6932
3544.1018	-5.1301	-5.4714	-7.9173	-7.7077	-17.5819	-7.9060	-5.3536	-30.6122	-3.5398	6.9277	-4.7653	-4.2784	0.8037	-11.3743	2.0300	-5.1991
3552.1020	-3.8371	-2.9636	-2.8094	-7.2687	-1.3822	-5.7884	-3.6300	-28.2649	-6.1971	1.9268	-2.7318	-5.5738	1.2531	-17.9233	-0.7004	-8.3078
3560.1022	-6.5676	-3.6810	-6.7156	-7.1487	-5.9850	-4.7380	-6.2817	-31.3328	-2.5975	6.8896	-5.3904	-5.5979	-1.8951	-11.6690	-14.4118	-7.0447
3568.1025	-5.9808	-6.3347	-12.6868	-8.6875	-18.1973	-7.4708	-3.6251	-24.0989	-8.9157	0.0044	-6.2620	-6.3783	0.7497	-12.1444	-4.9095	-5.6269
3576.1027	-2.1974	-2.4582	-4.1554	-2.5395	-8.8756	-2.3126	-0.7020	-10.7228	-11.3892	-0.7356	-3.2363	-1.7945	0.5730	-2.8187	-1.3005	-0.8895
3584.1029	-2.2360	-0.4065	-1.7242	0.2522	-2.6102	2.0676	-2.1953	-12.0880	-8.8432	10.5394	-2.9302	0.8292	-2.5617	4.3718	-9.7970	1.2538
3592.1032	1.5622	-0.9338	-6.5561	-0.8110	-0.2196	3.0095	3.4054	2.2346	-16.1428	9.5738	0.0220	0.8107	0.6717	-0.3886	5.3173	1.5835
3600.1034	5.0087	0.4430	-4.7247	1.9504	2.5842	5.2846	7.3433	15.6840	-20.6343	4.6464	2.4610	3.1457	2.2984	3.5019	14.3013	4.7620
3608.1036	3.6929	2.1514	0.1763	4.6710	4.6866	7.1230	3.8718	11.0283	-12.0451	11.4033	1.9173	5.2100	-0.8442	10.8993	4.4131	6.3130
3616.1038	4.9814	2.7838	0.8746	4.9036	7.2146	7.5670	3.2763	9.2330	-5.7447	15.8973	3.9486	6.6977	-0.8900	11.2361	10.0211	6.6509
3624.1041	4.5596	-0.2099	-4.6133	1.0572	-2.8184	2.8904	3.3961	1.7815	-9.2578	9.2928	3.1541	4.7575	1.7934	4.9213	20.3011	5.0670
3632.1043	3.0502	0.0673	-0.5180	1.5216	-3.3796	1.7140	1.8933	0.9413	-6.1560	9.8323	1.9872	3.8994	1.2298	4.3287	15.1225	3.8716
3640.1045	3.5982	3.0680	4.2837	5.5333	6.2789	6.1917	2.0119	13.0989	1.5124	13.4549	3.1017	5.6543	-1.4897	11.5604	4.1065	5.6860
3648.1048	1.5046	-0.4078	-5.5100	1.0468	-3.5050	2.6051	1.8112	9.1905	-0.7225	6.6373	0.7286	2.2334	-0.5690	6.6205	2.9898	3.7239
3656.1050	0.7000	-1.1390	-3.6637	-0.5291	-5.6988	-0.0053	0.3669	-1.0988	-2.1515	7.0581	0.1814	1.3207	0.4007	1.7192	6.8598	1.6787
3664.1052	1.8350	0.9103	0.4746	1.2419	2.9129	2.6657	0.3738	-2.4193	-2.3650	11.1257	1.6908	2.8604	-0.4011	2.8367	6.0744	1.9920
3672.1055	1.0716	-1.7531	-9.0861	-2.9736	-0.5216	1.0360	2.3756	0.0200	-8.4689	7.4189	0.5291	-0.6773	0.9472	-4.4512	6.2929	-0.5188
3680.1057	0.7950	-1.2703	-7.3618	-2.0645	0.7146	1.8026	2.7195	4.4374	-9.0005	9.4994	0.1212	-0.7919	0.4819	-3.5851	2.7693	-0.4550
3688.1059	0.0512	0.4681	-2.8871	0.3241	4.5584	3.6786	0.4749	2.5034	-2.6489	13.3555	0.0128	0.7090	-1.9026	1.8073	-5.5022	0.5751
3696.1061	-1.4398	-0.7967	-5.9943	-1.8860	2.4477	1.8244	-0.1750	2.5479	0.7248	12.1455	-1.0015	-1.6649	-1.9267	-2.1743	-9.0882	-1.6852
3704.1064	0.0406	-0.6570	-3.6506	0.2018	-1.9008	2.2736	1.8248	12.1589	-2.7231	16.4027	-0.5736	0.1683	-0.8658	1.4864	-2.0047	0.9231
3712.1066	3.9385	1.9634	3.4813	5.4655	0.4862	6.2132	3.5456	17.6745	-5.9148	26.3987	2.3884	6.1764	-0.6341	11.0758	10.0707	6.5120
3720.1068	6.3949	5.4493	10.4780	8.5469	14.9560	10.1990	4.4646	18.7729	-6.1354	26.6980	5.3474	8.4875	-1.1833	12.6509	10.5403	7.1617
3728.1071	5.5993	4.5742	7.7864	7.4901	12.7229	9.5734	4.7469	16.3720	-11.1923	21.1874	4.0781	7.3219	-0.9236	11.6597	8.1155	6.8108
3736.1073	4.9197	2.7783	2.3381	6.9818	2.8201	9.5357	4.0869	13.9532	-13.4976	29.5273	2.6176	8.5310	-1.6147	16.3168	9.5332	9.2711
3744.1075	5.9093	4.0624	3.0821	8.6778	6.8789	12.0051	4.0716	16.5595	-10.0801	32.9202	3.8660	10.3667	-2.7771	20.5833	8.3033	10.9447
3752.1078	4.5213	1.7131	-1.5008	4.8803	0.8685	7.3213	3.6048	10.5656	-9.6077	18.3491	2.6798	6.9856	-0.8739	13.6651	10.3808	8.0624
3760.1080	2.2468	-0.2622	-5.6220	0.8292	-1.6370	3.5721	2.1800	3.0578	-7.4243	10.6131	1.1381	3.0686	-0.2268	5.5328	6.9037	3.9153
3768.1082	1.6558	-0.4364	-9.4165	-0.0404	0.3366	4.2277	1.8817	2.2783	-5.6101	5.7748	0.8693	2.1865	-1.1289	5.8335	1.0686	3.5359
3776.1084	0.3231	-3.1595	-14.1059	-3.0950	-10.6835	-0.5799	0.9008	-4.6526	-5.0437	-5.1976	-0.6526	0.2154	0.5915	2.6068	5.6556	2.5128
3784.1087	-0.7500	-1.7479	-5.0750	-3.0487	-4.5119	-3.1897	-1.3896	-8.9009	4.1985	-9.8098	-0.1807	-1.5540	0.8658	-3.4916	2.9092	-1.4709
3792.1089	-2.4457	-0.4247	-2.1292	-2.7345	2.7880	-2.7554	-3.3001	-8.3434	13.1551	-13.3399	-0.5639	-3.2202	-1.0676	-4.4703	-10.0306	-3.8024
3800.1091	-3.4836	-2.6417	-8.3183	-5.3541	-4.0380	-5.1129	-2.9617	-8.9569	11.3261	-19.3909	-1.9466	-5.2757	-0.1689	-7.1499	-9.6308	-4.6691
3808.1094	0.6514	0.7789	2.4041	-0.9511	5.6646	-2.5053	-0.3246	-0.3652	10.0224	-17.8053	2.0029	-1.6881	1.4108	-5.0911	2.2945	-2.6288
3816.1096	3.1457	3.6891	10.5903	4.9388	7.4333	0.9758	-0.2692	7.5128	15.3404	-10.8205	4.1913	3.7766	0.2460	7.0967	6.3572	2.8272
3824.1098	1.9138	1.8212	8.0898	4.7759	-5.9379	-1.2447	-2.3013	2.1148	17.3011	-8.3603	2.3995	4.9931	-0.0323	12.4252	8.9227	5.2700
3832.1101	1.8959	2.8472	11.7843	5.2932	-1.2235	-0.9110	-2.7094	-3.0566	14.5304	-11.5194	2.5222	4.9306	-0.0141	10.9808	7.4203	4.4145
3840.1103	1.2673	2.9604	5.5335	4.9639	3.8484	2.4280	-1.2641	4.1479	11.4627	-13.3883	1.6859	3.6582	-1.8595	12.7509	-4.9640	4.5715
3848.1105	0.7958	-0.2029	-9.3757	1.2105	-3.1770	2.6952	0.5228	8.7326	8.0159	-11.2967	0.5990	1.9271	-1.9584	11.8931	-5.7649	4.9557
3856.1107	-0.1395	-0.1492	-7.6993	-0.7284	1.4212	1.4061	-1.0802	-1.5343	8.7519	-9.8387	0.6116	0.2613	-1.8549	4.9442	-6.7557	1.4277
3864.1110	-2.1403	1.7130	2.5029	-0.2509	10.7298	0.5953	-3.2301	-7.2834	10.4015	-8.5891	-0.2768	-1.9389	-2.5908	-1.5278	-16.2843	-3.0775
3872.1112	-2.7714	0.1391	1.1740	-1.2116	2.6297	-1.6073	-3.2596	-9.2251	6.7497	-8.1360	-1.5746	-2.3647	-1.5424	-2.3187	-12.1990	-2.8750
3880.1114	-3.0785	-1.1999	-1.7685	-2.8201	-1.7888	-3.4385	-2.9327	-11.4011	4.1352	-12.8480	-2.2011	-3.4134	-0.4522	-4.6087	-9.2313	-3.4022
3888.1117	-2.6950	1.3787	5.6271	0.1248	7.5823	-0.8889	-2.2955	-2.0325	6.5010	-9.7833	-1.4508	-3.0244	-1.5272	-3.3276	-16.0239	-3.7307
3896.1119	-4.3912	1.0966	5.4885	2.0331	-0.2090	0.0549	-4.9843	-4.6165	10.1018	-0.2809	-3.4687	-0.8326	-4.1446	6.2233	-22.8548	-0.4563
3904.1121	-6.7940	-1.9055	-1.3169	-1.5850	-10.0915	-3.4976	-6.1669	-10.6569	9.0450	-3.4201	-6.0354	-3.5778	-3.6881	2.4755	-24.6435	-2.1987
3912.1124	-5.8791	-1.2160	0.2739	-1.6961	-3.4910	-2.9143	-3.3805	1.6437	7.5409	-4.2687	-5.0379	-5.3593	-2.5780	-2.8933	-24.6405	-4.3342
3920.1126	-6.2645	-1.1345	-1.2785	-1.2004	-4.1113	-1.7205	-4.2677	0.9050	9.9362	-0.4762	-5.3187	-4.5008	-3.9440	0.7327	-28.2582	-3.1580
3928.1128	-6.2257	-2.2890	-2.2161	-4.6865	-3.1643	-5.2267	-4.1006	-7.1366	8.0841	-7.6200	-4.7454	-7.1422	-1.4679	-9.8156	-20.7692	-7.1464
3936.1130	-6.1590	-2.7188	-0.5884	-6.7848	-0.6005	-7.6539	-3.2656	-8.7253	5.6956	-11.3776	-4.3438	-9.5754	0.6006	-19.0194	-16.0788	-10.7780
3944.1133	-6.1487	-3.8806	-3.9955	-7.2495	-6.3570	-8.2027	-2.5865	-5.8295	4.1372	-10.9783	-4.9089	-9.4823	1.0074	-17.5366	-13.7514	-9.6320
3952.1135	-0.8578	-1.3309	1.1682	-2.6747	-0.4856	-4.2087	2.6826	13.4982	-0.8252	-7.9971	-0.7812	-5.2524	2.9860	-12.2686	0.9937	-5.2320
3960.1137	-0.0695	0.8314	3.7537	1.9189	1.3693	0.9205	1.6123	12.4009	-1.6803	0.7912	-0.5693	-0.4065	-0.0644	1.2428	-4.3582	0.2711
3968.1140	-2.9162	-1.2500	-1.1070	-0.2935	-7.4860	-0.9480	-2.0181	-4.8034	-2.8224	2.8142	-3.4407	-0.8909	-1.4691	2.6232	-9.3523	0.2409
3976.1142	0.5317	-0.2184	3.0328	1.6188	-5.6650	-0.1098	1.1991	5.0884	-6.0744	7.1457	-0.6160	1.3502	0.8748	2.3996	5.4421	1.8698
3984.1144	2.8484	1.7362	5.8624	5.9132	-3.8976	4.0032	2.5262	12.4366	-7.7159	12.1498	0.8776	5.6600	-0.0953	12.6911	7.8658	6.9177
3992.1146	0.9240	0.6921	4.4694	3.8922	-5.0103	2.3371	1.7810	9.1443	-9.2741	10.9455	-0.8627	3.0557	-0.1383	7.9237	2.5082	4.2634
4000.1149	-1.9196	-1.0018	0.5367	0.3163	-6.0729	0.2142	-0.1235	5.0970	-4.8321	16.4559	-2.7067	-0.5585	-0.9975	0.7909	-5.3710	0.0066
4008.1151	-1.6004	-1.0449	-0.9619	-0.3188	-5.2732	0.0805	-0.8470	-0.5947	-3.0207	13.9054	-2.0304	-0.1609	-1.0282	0.7064	-3.4707	0.0493
4016.1153	0.7965	0.5096	4.3532	1.1931	0.6550	-0.0255	1.9546	8.6160	-4.1444	3.0496	0.2273	-0.0758	1.2347	-1.6898	3.5686	-0.2087
4024.1156	-0.6916	-0.3569	1.4642	-0.0198	-1.8589	-1.0165	0.6849	6.7871	-0.2975	0.9806	-0.8944	-1.3228	0.4450	-1.8743	-1.7694	-0.9924
4032.1158	1.1178	0.6849	4.7652	0.8682	1.5414	-0.4095	1.0081	0.3662	-4.1437	0.2378	0.7956	0.5494	1.4414	-2.0452	6.4735	-0.2132
4040.1160	4.2549	3.4283	11.2336	5.3889	7.6249	3.1685	3.4084	11.7684	-5.1707	2.1190	3.3821	4.1533	1.6354	4.4649	11.7519	3.3447
4048.1163	1.3190	1.0553	3.4843	3.8384	-3.8585	1.8187	0.5811	7.9128	0.9327	3.7212	0.4723	3.5104	-0.5239	9.6959	2.7975	4.5919
4056.1165	0.3977	1.3537	9.0151	3.9460	-3.5481	-0.0468	-0.2366	5.2672	0.4186	2.5525	-0.2746	2.4184	0.0963	6.2007	2.1373	2.6679
4064.1167	0.9246	3.2697	16.5779	6.3309	1.5301	0.6885	-0.3979	8.7591	3.2829	3.8875	0.5830	3.2998	-0.0978	7.1122	1.3143	2.6125
4072.1169	0.5434	0.6735	7.6682	2.1913	-4.5031	-1.8712	-1.1850	-2.0747	3.2096	0.6999	0.4331	2.0373	0.9138	2.7736	7.4940	1.4342
4080.1172	1.3426	0.2640	2.6722	0.2205	0.4253	-0.6826	0.7887	-0.0231	-1.2355	1.4960	1.2710	0.7068	1.4562	-2.1161	8.5310	-0.1226
4088.1174	-0.1082	0.6865	2.7668	-0.0556	4.2764	0.1171	-0.5233	-1.1008	2.1688	4.0862	0.4966	-0.3992	-0.2077	-2.7902	-0.8694	-1.5956
4096.1176	1.0165	1.7867	9.4800	-0.1099	9.7036	-1.4472	-0.5463	-6.7921	1.6215	0.9157	2.1643	-0.5741	1.6529	-8.9120	7.0653	-3.8566
4104.1179	4.5918	4.4753	12.3932	3.7516	18.6971	3.8868	2.4505	6.4117	0.6212	9.1703	5.3842	3.1232	1.1764	-2.8571	11.5024	-0.3929
4112.1181	2.1300	2.2421	2.1642	2.4706	9.3918	4.8100	1.0592	5.8056	1.0093	14.2172	2.4071	2.8022	-1.4447	3.5642	0.5963	1.6956
4120.1183	-1.3475	-1.0064	-3.6447	-2.2531	1.3907	0.2147	0.3354	-1.9068	-5.9040	5.4469	-1.4173	-2.2930	-0.3371	-5.2048	-5.1252	-2.4548
4128.1186	-0.8349	-1.3474	-3.7145	-2.9071	1.0072	-0.4868	1.1063	-2.0473	-8.4336	5.4818	-1.0639	-2.6101	0.7237	-7.8497	-0.6293	-3.0520
4136.1188	-0.0058	-0.1390	1.7225	-0.8839	1.4535	-0.1225	-0.1580	-7.3485	-6.6596	9.0317	-0.1232	-0.1031	0.5604	-4.4759	3.8951	-1.4861
4144.1190	0.8392	1.4760	4.7306	1.6390	5.7674	2.4650	0.5278	-1.2476	-6.2772	11.0148	0.5780	1.4488	-0.3769	-0.0487	0.9992	0.2250
4152.1192	1.4969	0.2719	-1.6711	1.2325	0.4329	3.2978	1.6183	4.7504	-5.6385	15.6539	0.7480	2.3632	-0.5616	3.4869	3.8686	2.4217
4160.1195	1.9343	0.0413	-2.3244	0.8262	-0.4570	2.8910	1.4441	1.1515	-6.0234	15.2485	1.1955	2.8252	-0.1236	3.1412	7.6697	2.6401
4168.1197	3.5387	1.8493	-1.1727	2.1208	8.9935	5.9186	2.8162	4.6484	-6.9313	13.8302	3.0180	3.7109	-0.5535	3.9036	6.4676	3.0374
4176.1199	3.9847	2.4426	1.7730	2.8127	10.9315	5.9222	3.5197	7.3193	-8.2565	12.9586	3.3672	3.6672	0.0142	2.8571	7.7243	2.7069
4184.1202	2.9528	2.9219	5.0966	4.5058	8.3729	5.9773	1.8517	6.7614	-4.9027	15.5415	2.3488	4.6075	-1.2339	7.3855	3.0925	3.9002
4192.1204	1.2853	1.0817	-1.0646	2.8584	1.2510	5.4558	0.3659	2.8761	-3.6776	21.9343	0.6022	4.2216	-2.4578	9.1368	-0.5377	4.3525
4200.1206	-0.7490	-0.3320	1.1627	-0.1961	-0.4636	1.1576	-0.0367	-2.6028	-8.2393	18.6565	-1.2598	0.1361	-0.5633	-2.0803	-0.5534	-0.7174
4208.1209	-0.1038	0.9037	6.5477	0.9086	3.9929	0.9969	0.5212	0.3433	-7.5715	15.7303	-0.3966	0.0159	0.1503	-3.9605	0.7197	-1.6068
4216.1211	1.6832	0.1794	4.1255	0.5769	0.5287	0.7034	2.3129	2.0739	-11.6066	15.7437	0.7134	1.1164	1.8249	-3.9300	11.3050	-0.1560
4224.1213	3.0083	0.9624	6.1780	1.1366	4.0060	1.0526	3.4529	1.6144	-15.0563	10.4010	1.8475	1.6018	2.8879	-4.9629	15.6542	-0.0193
4232.1215	3.6251	2.5020	4.2684	4.0124	7.6423	5.8822	3.1404	7.5439	-10.1194	16.9552	2.5378	4.5321	-0.2047	5.4501	7.6503	3.8257
4240.1218	0.9946	1.0158	3.0585	3.4622	0.7306	5.0742	2.8508	12.8086	-13.4223	25.9052	-0.7386	2.6608	-1.1125	5.2488	-0.7814	3.0722
4248.1220	0.3309	1.5158	8.0933	3.3068	3.2218	3.2174	2.3963	11.5580	-12.4977	20.5551	-0.9930	1.0814	-0.3110	0.7506	-1.9290	0.6466
4256.1222	3.3962	2.5603	4.9400	3.6780	8.3974	5.0007	2.7873	8.5982	-6.0083	14.0737	2.7679	3.8092	-0.0696	4.0087	6.9409	2.8712
4264.1225	4.3303	2.2312	5.0376	3.4751	5.8167	3.6117	3.1673	6.9209	-6.1043	8.3539	3.5323	4.3088	1.3095	3.6724	14.1018	3.4307
4272.1227	3.1288	2.4719	10.7364	4.0164	3.1396	0.8175	1.0312	1.4307	-1.7248	1.5555	2.7142	3.8738	1.6336	3.3105	13.2169	2.5654
4280.1229	1.0456	1.1797	7.8375	0.7424	3.4984	-1.9308	0.1044	-2.7037	0.2820	-6.4159	1.3660	0.0009	1.9629	-4.2148	7.3442	-1.5067
4288.1231	0.6827	0.4066	2.1915	-1.5249	5.3198	-2.3650	0.1188	-3.5493	3.6489	-12.8771	1.6168	-1.7684	1.8515	-7.1835	4.5915	-3.0548
4296.1234	1.9249	0.3488	-1.9334	-0.5960	1.3926	-1.3063	-1.0733	-6.3742	11.4762	-13.6544	3.0679	1.4100	0.8498	1.1335	8.8552	0.8405
4304.1236	0.2651	-1.2835	-3.4224	-2.6147	-2.8924	-4.0462	-0.0406	-0.7885	8.1662	-18.0392	1.0339	-2.0708	2.0683	-4.7190	5.8455	-1.8250
4312.1238	-0.8633	-1.1648	-2.1773	-2.4153	-1.8838	-4.3241	0.4792	5.9163	8.0778	-21.9377	-0.1600	-3.8896	1.8232	-5.8836	-1.4269	-3.0238
4320.1241	0.3736	0.0844	-2.6031	-0.3937	0.2710	-1.7502	-0.2583	1.4924	9.8338	-24.7145	1.0611	-0.8298	0.5408	1.7868	-1.3628	0.3577
4328.1243	-0.8862	-0.1598	-3.0173	-2.4036	4.7432	-2.5318	-0.2980	-3.3353	5.3339	-29.5090	0.0836	-3.6536	0.8041	-4.9960	-6.7028	-3.0440
4336.1245	-2.4736	-0.5753	-4.0084	-3.6152	5.3490	-2.9181	-1.7737	-6.1347	8.4820	-24.5587	-0.8807	-5.0115	-0.2849	-7.2534	-12.6773	-4.8934
4344.1248	-0.1957	-0.1915	-3.5775	-2.9363	5.3137	-2.3442	-1.0939	-8.9711	7.3075	-22.3732	1.1979	-2.5301	0.7723	-5.6923	-1.3986	-3.0113
4352.1250	0.8787	0.5382	-0.1721	-3.5614	11.3057	-2.8837	-0.2416	-14.2012	2.0946	-26.2662	2.4179	-3.1170	2.4340	-11.8170	4.3642	-5.0736
4360.1252	-1.7711	0.8871	1.6726	-3.4712	13.3052	-2.7027	-2.3900	-14.9057	6.3487	-23.1799	0.4212	-4.7751	0.2440	-11.8549	-9.4655	-6.8638
4368.1254	-3.2458	1.1591	2.8869	-1.6099	10.3722	-1.9520	-3.0991	-7.0330	10.3790	-21.7307	-1.2426	-4.6785	-1.5300	-6.0804	-19.3449	-5.4435
4376.1257	-3.9033	-0.0377	0.0084	-1.9487	2.7722	-2.8316	-4.3725	-11.2071	11.5783	-19.3144	-2.1839	-3.7899	-1.9562	-2.5634	-18.0413	-3.8111
4384.1259	-3.9888	-2.2728	-4.3737	-4.4802	-5.6938	-5.6329	-4.7255	-17.3018	10.3394	-16.6042	-2.4898	-4.1411	-0.4815	-5.5976	-8.8028	-4.1762
4392.1261	-4.7187	-3.4187	-5.3253	-6.1231	-8.5788	-7.9204	-4.0780	-16.1242	7.8740	-21.3031	-3.4194	-6.2923	0.8261	-10.2986	-7.8924	-6.0390
4400.1264	-7.6380	-5.2576	-8.7939	-8.5821	-14.0931	-10.3765	-5.8588	-22.6167	7.0376	-24.7762	-6.2833	-9.0501	0.3064	-13.1553	-15.6895	-8.1247
4408.1266	-4.3823	-4.1109	-3.3822	-6.7613	-11.9080	-10.4013	-2.9597	-12.8441	6.0317	-23.9361	-3.3914	-7.3067	2.9040	-14.4143	-1.1554	-7.1638
4416.1268	0.6320	0.7521	9.1654	0.0982	1.5342	-5.1008	0.5480	7.2446	9.5081	-17.2838	1.5530	-2.2999	3.2538	-7.5204	7.3517	-3.3946
4424.1271	-1.7902	0.2572	6.9545	-0.9342	1.5198	-4.8763	-1.4509	3.3251	11.7565	-13.5439	-0.3952	-3.7872	1.2213	-7.6470	-3.9801	-4.7515
4432.1273	-3.0637	-3.4509	-2.2014	-6.7584	-6.5517	-9.6950	-1.0155	-4.1355	7.0493	-20.9271	-1.7869	-7.8341	3.7508	-18.1275	2.0513	-8.4238
4440.1275	-1.0224	-2.6625	-5.3686	-5.8907	-1.6984	-6.6904	1.4904	2.3356	3.4914	-24.3799	-0.1896	-6.6716	3.8065	-15.4620	3.5308	-6.5259
4448.1277	-0.4234	-0.0598	-2.4249	-1.6924	5.3476	-1.4191	1.8117	9.8251	3.8916	-20.6883	0.1574	-3.9865	0.9896	-5.6897	-6.7968	-3.1039
4456.1280	-1.3124	-1.2014	-1.4692	-1.6310	-4.2434	-3.8289	0.0161	5.0670	6.1542	-17.5606	-0.9822	-3.1354	1.2125	-3.2604	-2.9584	-1.9702
4464.1282	-1.4775	-3.4636	-6.9493	-3.8676	-13.8076	-6.3264	-0.6930	-2.3838	5.3495	-17.5113	-1.4675	-2.9858	2.2722	-3.8214	5.0241	-1.3411
4472.1284	0.6018	-1.8902	-7.5859	-2.0185	-6.8874	-2.8287	1.4192	5.3743	4.4130	-20.0290	0.4271	-1.3966	1.8569	-0.0479	4.8315	0.6696
4480.1287	-0.2142	-2.2555	-11.4016	-2.2663	-7.8123	-2.0793	1.0058	7.1163	6.9731	-22.2817	-0.3076	-1.7713	0.6113	2.6928	-1.6486	1.2976
4488.1289	-1.5507	-4.5041	-17.0403	-5.9024	-12.6194	-4.9115	0.4613	0.1637	5.0848	-25.4721	-1.5387	-4.2926	1.5431	-3.2800	-0.4625	-1.1116
4496.1291	-0.0249	-1.8486	-9.7699	-3.4109	-2.3325	-2.5904	1.0210	2.4593	5.6533	-23.8596	0.4119	-2.9239	1.3286	-3.0842	-0.2115	-1.2018
4504.1294	-0.4093	-0.2525	-6.3997	-1.2933	1.5015	-0.6257	-0.9264	0.9066	12.1461	-19.7683	0.6737	-1.3062	-0.8695	2.0805	-6.8422	-0.0557
4512.1296	0.4441	-2.1993	0.6409	-2.7968	-9.4829	-6.2328	0.1681	-6.1405	-0.7200	-8.8174	0.2943	-1.4711	4.0419	-7.8862	16.6188	-2.0306
4520.1298	-1.3523	-2.0922	0.0665	-3.6384	-5.8968	-5.8877	-0.8575	-8.4885	-0.4012	-10.0362	-1.0418	-3.3881	2.7280	-9.9492	6.2103	-4.0521
4528.1300	-0.4241	0.4518	6.9941	0.1835	0.1656	-3.0560	-0.8156	0.5052	5.2198	-4.1349	0.1952	-1.1910	1.2945	-4.3860	2.5630	-2.3136
4536.1303	2.9391	0.8995	8.5823	3.0592	-4.3862	-1.8271	2.2023	12.0679	2.2598	-0.4992	2.2967	2.4968	3.0245	1.8025	16.9772	2.2585
4544.1305	2.9669	0.4423	5.9392	2.4533	-5.8400	-2.0093	1.9868	7.4133	0.5363	-5.7161	2.1520	2.6511	3.1192	2.7033	17.6196	2.8706
4552.1307	2.5474	1.5898	7.1672	2.3066	2.1967	-0.7820	1.1934	4.6004	3.1145	-6.9194	2.5877	1.8564	2.0251	0.7051	11.0881	1.1203
4560.1310	4.1706	2.2215	7.8058	3.6131	3.0835	0.6022	2.3220	8.1605	2.2365	-4.3725	3.9001	3.6601	2.3371	3.3592	16.1659	2.9491
4568.1312	3.3167	2.6075	11.9879	5.3408	-0.0087	0.0283	1.5500	10.8198	3.7961	-4.8797	2.7948	4.0473	1.8986	6.6337	12.8407	3.8324
4576.1314	1.5490	1.6061	10.7537	4.1315	-4.6388	-1.6861	-0.9318	0.4650	5.1866	-5.3723	1.2608	3.5351	1.2377	6.6731	10.0052	3.2926
4584.1317	1.5670	0.6463	6.3851	3.6219	-9.8021	-1.3446	-1.9588	-8.3221	2.6618	-3.0061	0.8668	5.1454	0.7279	10.4725	12.7664	5.4275
4592.1319	1.8988	1.5741	9.8184	5.9043	-8.2960	0.2273	0.2084	7.0225	0.6951	0.2718	0.5651	5.1448	0.6126	12.5482	9.1428	6.2317
4600.1321	2.3457	0.3338	6.0041	3.7516	-10.1767	-1.2855	1.1286	7.9713	0.9862	-0.7178	1.1284	3.9669	1.9526	8.1169	14.7950	4.9579
4608.1323	3.2050	0.6702	6.8743	2.6802	-6.6321	-2.1706	0.2564	-3.1249	1.4268	-5.2289	2.6042	4.2628	2.8479	4.6348	20.9579	3.8090
4616.1326	3.8664	3.2192	13.5549	5.1419	3.4364	0.2526	0.5455	1.0447	2.9362	-4.4139	3.7325	4.9067	1.9772	5.3603	16.1224	3.4350
4624.1328	2.5214	1.6245	4.7290	1.8606	2.8213	0.1534	-0.8728	-5.3790	6.8515	-2.0969	3.1666	3.3241	0.6859	3.0527	11.1781	1.9111
4632.1330	0.1474	0.1405	0.1130	-1.9754	4.4405	-1.7443	-1.5859	-10.1324	6.1558	-6.1309	1.4540	-0.9393	0.5788	-5.4365	3.1374	-2.6103
4640.1333	-1.0908	0.8611	3.7227	-1.2094	7.2444	-1.6124	-1.9705	-5.4858	8.2099	-5.3063	0.5055	-2.1947	-0.2468	-6.2783	-4.8443	-3.9962
4648.1335	-0.8152	1.0996	4.0071	-0.3854	5.1862	-1.2955	-3.7167	-9.1077	14.9416	0.1379	1.2326	-0.1477	-1.2054	-2.0133	-2.6757	-2.3217
4656.1337	1.1004	0.0497	2.9873	-1.9876	2.6670	-3.5624	-1.2315	-6.8349	10.2856	-3.5551	2.6812	-0.6988	2.0676	-7.9558	11.7271	-3.1896
4664.1339	0.9034	-1.3891	0.4468	-3.9052	-1.3478	-6.0059	-0.2906	-3.4444	10.4398	-7.3442	2.4016	-2.5542	3.6180	-12.3861	15.5108	-4.6791
4672.1342	-0.6498	0.8178	5.6658	-1.3671	5.6213	-3.4202	-2.9337	-3.5933	18.5271	-2.1701	1.8322	-1.8561	0.2623	-7.4445	0.8144	-4.5961
4680.1344	-2.0051	-0.0542	3.6856	-2.4319	3.5322	-3.8764	-3.1085	-6.4337	13.3993	-2.8822	0.0836	-3.2124	0.0453	-8.8741	-3.6550	-5.4131
4688.1346	-6.0001	-3.8646	-4.0685	-7.8064	-7.0661	-9.5913	-4.7781	-14.3475	12.5665	-14.8602	-3.8248	-8.6830	0.8895	-16.9299	-10.3519	-9.6153
4696.1349	-6.0704	-1.3613	0.8875	-5.0617	2.2065	-6.4720	-5.1712	-10.4723	15.4584	-15.5767	-3.4332	-7.9411	-1.1197	-13.1621	-20.6191	-9.1799
4704.1351	-2.7359	-2.2207	-9.2894	-4.2011	-1.6904	-1.5114	-1.0053	-4.4124	1.0232	-6.2270	-2.2104	-4.0151	-0.8856	-5.0714	-10.6162	-3.1420
4712.1353	-2.3549	-3.4849	-14.7401	-4.9489	-5.1682	-0.4900	1.7462	0.2685	-11.1315	-6.1738	-3.2760	-4.4737	-0.0837	-4.9754	-9.3727	-1.9970
4720.1356	-2.2477	1.3158	-0.4368	1.4475	8.7824	4.7959	1.1305	7.1953	-10.4399	1.2547	-2.9519	-1.9276	-3.0791	2.3090	-23.1020	-0.5393
4728.1358	-3.8860	-2.1343	-10.6373	-1.8972	-4.7370	2.6989	-0.6886	-4.3114	-12.7263	7.1943	-5.0879	-2.0859	-3.3692	3.3238	-20.2453	0.4269
4736.1360	-3.4692	-4.4943	-13.9451	-5.7014	-11.4925	-2.3793	-0.4147	-12.4876	-14.1425	-2.2194	-4.6215	-3.9589	0.0373	-5.0933	-6.3851	-1.9214
4744.1362	-0.1090	0.2936	-0.5722	1.1774	-0.1168	2.3470	0.2487	-2.2209	-7.8444	4.7486	-0.9564	1.3092	-1.0356	4.0824	-3.2678	1.9262
4752.1365	0.8287	-0.8752	-6.9740	0.1026	-3.2882	3.1788	1.5302	1.7831	-8.4227	11.1400	-0.3285	1.9090	-0.8661	4.9412	1.4471	3.1461
4760.1367	3.7395	0.4291	-3.4948	-0.0776	5.5297	3.2398	3.9525	1.4332	-12.5620	4.5735	2.7743	2.0549	1.7604	-1.4517	13.0643	1.6422
4768.1369	3.6341	1.9559	1.3164	2.7310	6.1952	4.6501	1.8144	-2.6923	-8.1107	7.3015	2.8881	4.6762	0.0419	5.6357	9.9196	4.0026
4776.1372	0.9085	-1.9774	-6.6340	-2.4701	-6.0231	-0.8575	0.4077	-11.4405	-8.6896	2.2883	0.1669	0.8230	1.4331	-1.7292	11.2040	0.8885
4784.1374	3.2204	0.1298	-1.4905	-0.0193	0.9527	1.3786	1.6524	-7.9991	-9.1945	3.9748	2.5028	3.0422	1.7874	0.0526	16.2859	2.1669
4792.1376	2.4018	-0.1200	-3.6725	2.0131	-5.5484	3.2589	0.8146	-2.9328	-6.7619	11.4816	1.0807	5.0643	-0.4396	9.8103	10.1207	5.9229
4800.1379	-0.7358	-4.4065	-7.8200	-4.8101	-15.7851	-5.1704	0.9343	-12.1918	-15.4173	-2.7926	-2.3331	-2.0115	3.5870	-7.3624	13.9762	-1.0674
4808.1381	-1.4728	-0.6515	3.3298	-0.7690	-2.7758	-1.6564	-0.6316	-12.2244	-13.5805	-0.0839	-2.3924	-1.0622	0.9378	-4.0251	0.0429	-1.4729
4816.1383	-1.8270	2.4890	6.5401	5.2776	2.9157	5.4628	-1.8805	1.3592	-4.2639	14.3400	-2.5846	2.9675	-4.5244	12.5434	-18.3050	3.7521
4824.1385	-1.6913	0.2707	2.2814	1.1968	-0.7043	1.7478	-0.9912	-4.3677	-8.3125	10.1732	-2.4220	0.4344	-1.7144	2.6979	-8.2654	0.6030
4832.1388	-2.8596	-0.5549	-1.2506	-1.7131	1.9462	0.7392	-2.0707	-11.7086	-6.9819	9.6327	-2.7603	-1.8282	-1.9364	-3.3834	-11.4335	-2.5186
4840.1390	-2.5093	-0.5460	-2.0434	-2.5586	5.4694	0.3869	-0.3562	-1.3713	-3.7988	7.0405	-2.0043	-3.7662	-1.1920	-7.7660	-12.1551	-4.4998
4848.1392	-2.0864	-1.7064	-1.9973	-4.3081	1.6351	-2.7232	0.2289	-3.6464	-5.3621	3.0586	-1.6754	-4.8442	1.1598	-13.2340	-2.9064	-6.0092
4856.1395	-2.8897	-1.8093	-4.2255	-3.5651	-1.1576	-1.3586	-1.5323	-6.2533	-1.5444	9.2467	-2.3789	-3.3709	-0.9085	-7.2075	-7.8499	-3.9935
4864.1397	-1.2408	-0.7530	-2.1961	-2.3722	3.0456	-0.0203	0.1137	-1.2168	-3.2003	8.7636	-0.8940	-2.4620	-0.2658	-6.9802	-4.1019	-3.3546
4872.1399	0.5659	-0.1713	-2.4453	-1.1709	3.5433	1.1102	1.2591	-2.4175	-7.2228	2.3272	0.3063	-0.5055	0.4445	-3.4332	1.5734	-0.8975
4880.1402	3.8365	2.5816	-1.3853	4.0631	8.9187	6.8944	3.7383	12.1853	-5.5790	0.0392	2.8643	4.1897	-0.9705	9.9526	1.3087	5.3742
4888.1404	4.1127	3.3499	0.5256	6.2490	8.0449	8.4657	3.5544	17.4518	-2.7229	5.9370	2.9755	5.9901	-2.0740	15.5686	-0.4073	7.5734
4896.1406	1.0043	-0.3561	-5.4415	2.1452	-7.5215	3.4305	-0.6585	-1.8935	-0.8589	11.7188	0.0415	4.7903	-2.0878	13.0804	2.4097	6.3500
4904.1408	1.3523	-1.6577	-6.8847	-1.0247	-7.6652	0.3865	0.4592	-7.1627	-6.2213	5.5756	0.4186	2.3777	0.6602	3.2652	10.8736	3.0515
4912.1411	-2.4726	-3.9484	-8.6614	-5.7359	-9.2660	-4.1509	-0.1175	-10.8180	-10.5627	-0.1762	-3.0515	-4.2026	1.6927	-10.1693	1.6334	-3.7862
4920.1413	-6.4687	-5.4815	-9.1743	-7.0386	-16.2935	-6.8676	-2.7058	-11.6873	-6.4380	0.0201	-6.7968	-7.1891	0.2612	-11.1102	-11.4255	-5.8902
4928.1415	-5.6815	-2.7838	-5.4707	-3.1075	-8.0308	-2.2380	-1.9701	-2.2370	-4.8828	0.5568	-6.0793	-5.1776	-1.9733	-3.3335	-20.8549	-3.3226
4936.1418	-5.8283	-4.3471	-9.9029	-5.7313	-11.5040	-3.7880	-2.5950	-12.8675	-8.3120	1.4279	-6.2414	-5.6530	-1.1166	-6.9865	-15.0902	-4.2270
4944.1420	-2.5470	-4.6769	-7.6813	-6.1395	-14.5613	-6.1319	-1.1602	-16.2071	-9.5832	1.4646	-3.1646	-3.6160	2.4666	-10.4682	7.6882	-3.5504
4952.1422	-1.4795	-1.4756	-4.4741	-1.1775	-5.2922	-0.2190	-0.1638	-1.4415	-4.8282	2.2467	-2.1009	-0.9530	-0.5682	0.5853	-4.4425	0.1783
4960.1424	-3.6798	-1.6663	-6.3368	-1.3646	-5.7820	0.2049	-2.0238	-2.7545	-0.8519	1.7112	-3.9141	-1.9857	-2.7260	2.9978	-16.6169	-0.1644
4968.1427	-1.9357	-1.2856	-2.9554	-2.3207	-1.9675	-1.5758	-1.1410	-5.3905	-0.7096	-0.7753	-1.6805	-2.2967	-0.2965	-3.9531	-5.0432	-2.2762
4976.1429	-0.5579	-1.2991	-6.8025	-2.1571	-1.7084	-0.0625	-0.2249	-3.8833	-0.6178	-1.3518	-0.4800	-0.9063	-0.3753	-0.9771	-1.6834	-0.3658
4984.1431	1.3165	-1.5990	-5.2723	-1.2324	-7.6322	-1.0614	0.3490	-7.7485	-4.6003	-1.6593	0.5711	1.6855	1.4418	1.5935	11.9936	2.2589
4992.1434	-0.0051	-1.0814	-2.2745	-2.0682	-1.6171	-1.7395	0.3144	-6.0341	-4.4575	-4.4202	-0.1543	-1.1755	1.4033	-4.6418	4.5935	-1.3948
5000.1436	-4.4099	-3.5104	-12.1388	-6.2203	-4.1888	-3.3546	-1.3062	-2.8873	2.6497	-8.8203	-3.6470	-6.6607	-0.8362	-8.8888	-15.4394	-5.3438
5008.1438	-3.2404	-4.1421	-11.8999	-5.4654	-11.3815	-4.6088	-0.7683	-1.3249	2.5468	-9.3456	-3.1224	-4.9167	0.4784	-5.8312	-5.7907	-2.9946
5016.1441	-2.1911	-2.3779	-8.0870	-3.2746	-5.7811	-2.0899	-0.6708	-1.2040	1.7463	-5.4313	-2.0458	-2.9814	-0.3186	-2.7107	-6.2697	-1.6960
5024.1443	-2.6900	-1.3572	-7.1206	-2.9465	-0.6855	-0.5288	-2.8030	-9.9581	4.8342	-1.7508	-1.7662	-2.1510	-2.1164	-1.2932	-11.3220	-1.9084
5032.1445	-2.6738	-1.4252	-4.9341	-2.9813	-2.2858	-1.6185	-3.4982	-17.0546	2.0012	-3.0268	-1.9179	-1.7052	-1.4349	-2.0792	-7.5070	-1.9483
5040.1447	-2.0722	-1.7661	-5.0177	-3.4523	-2.1205	-2.6277	-1.0153	-5.8695	0.7364	-7.9829	-1.6064	-3.3919	0.2117	-5.8519	-5.0920	-3.1199
5048.1450	1.5871	1.1574	2.5489	0.8376	4.3987	0.0122	0.4501	5.0527	7.9985	-3.6248	2.3609	0.6750	0.5825	-0.2988	4.4412	-0.0787
5056.1452	1.2005	0.8922	3.9963	0.5705	1.4363	-1.2483	-1.6503	-4.7631	10.2128	-0.2668	2.2889	1.6146	0.4773	0.0597	7.8414	0.0291
5064.1454	-1.6107	-2.9532	-2.4818	-5.1087	-7.7730	-7.1759	-1.2373	-8.3609	4.0639	-9.5165	-0.8372	-4.2324	2.9900	-12.1509	7.7864	-5.0475
5072.1457	-0.7890	-1.5918	-4.9347	-2.6178	-3.6017	-2.6121	-0.3955	0.1913	5.9214	-7.0618	-0.2227	-2.1376	0.6496	-3.5622	0.2861	-1.7167
5080.1459	-0.7348	0.7579	-5.2192	1.7699	1.1949	4.0326	-1.8361	2.8707	9.6856	3.6206	-0.2245	2.0667	-4.0621	11.2118	-13.1839	3.4766
5088.1461	-0.0847	0.9412	0.7450	3.4585	-2.3901	2.9600	-0.0073	9.3197	2.2566	4.4793	-0.7163	2.4428	-2.1919	10.7465	-7.1089	4.1208
5096.1464	1.9374	-0.2363	-2.4309	3.4552	-10.1285	2.3783	1.6154	9.2218	-3.0626	5.0215	0.1994	4.6165	-0.3212	13.3662	6.7093	7.1137
5104.1466	2.7741	-0.5537	-4.6922	2.5169	-10.1644	2.0306	1.4803	3.5470	-3.0090	2.3496	1.1946	5.1638	0.2766	12.5905	12.0383	7.3247
5112.1468	2.4889	1.8337	2.6594	4.3864	0.3413	3.6822	1.2797	7.0122	-0.9667	2.3315	1.5997	4.5655	-0.7158	11.1142	3.8667	5.5316
5120.1470	1.9990	1.1058	-3.7418	3.4693	-0.7549	5.3782	0.4395	5.5128	1.9017	10.0840	1.3684	5.0875	-2.5122	13.9659	-0.0839	6.4783
5128.1473	3.6579	0.4936	-1.5624	2.3937	-2.5616	2.4651	2.5924	8.1960	-1.5577	4.9170	2.7049	4.2683	0.9347	7.3206	13.6186	5.0261
5136.1475	4.4307	1.3861	2.8858	3.2137	0.1646	1.7618	3.1163	10.6974	-0.0848	0.4443	3.6739	4.2328	1.9383	5.6454	16.7111	4.3958
5144.1477	4.5004	0.6115	-5.1827	2.8829	-2.8206	4.2736	2.2350	8.1169	2.5090	8.4139	3.7229	6.1764	-0.1738	12.2175	14.4894	7.2695
5152.1480	5.1869	2.7470	1.5002	6.2670	3.3515	6.9597	4.4125	19.2406	-3.8040	7.7293	3.6295	6.7517	-0.3987	14.8294	9.4054	8.2540
5160.1482	0.5384	1.3419	-2.1310	4.2071	-0.0962	5.4061	1.2035	13.8859	-0.0387	3.7144	-0.4651	3.1206	-2.9778	14.1233	-10.2685	5.6994
5168.1484	-2.2220	-1.4636	-9.8706	-0.3940	-6.8337	1.8903	-1.7101	0.7333	4.1753	2.0244	-2.4258	0.2693	-3.3723	9.0144	-13.6466	2.8190
5176.1487	1.3554	2.7736	4.9564	5.0666	5.8125	4.9160	1.5547	12.5317	-1.5105	1.6776	0.6377	3.0083	-1.8091	10.1136	-6.6438	4.0643
5184.1489	0.4088	2.9707	6.5664	6.4241	3.4801	5.5267	0.7680	17.5543	2.0250	8.8119	-0.3322	3.5000	-3.1533	13.8306	-11.8679	4.9793
5192.1491	-0.6048	1.3401	3.2884	3.4670	0.0342	2.5244	-0.2351	12.3965	5.4242	6.2753	-0.7585	1.4203	-2.3177	8.2899	-9.7791	2.5049
5200.1493	2.2040	3.8624	8.6687	4.8857	12.1217	4.3063	1.2338	8.8593	1.8329	-2.5020	2.3372	2.7654	-1.0281	6.0835	-3.2139	2.2525
5208.1496	1.2478	2.7351	5.5053	3.5111	8.6656	3.6554	0.4718	4.6460	0.6778	0.6978	1.3215	2.1824	-1.3383	5.2693	-4.2548	1.8520
5216.1498	-0.3119	0.6818	6.4686	1.3649	-0.2432	-0.8058	-0.1611	-0.2949	-3.1872	0.7642	-0.6403	0.0977	0.5629	-0.6571	0.5472	-0.3663
5224.1500	-1.1217	0.0293	8.5509	0.7553	-4.8562	-3.4229	-1.6386	-9.5198	-4.6201	-3.8875	-1.5528	-0.1683	1.4169	-2.0187	3.5191	-0.8917
5232.1503	-2.0569	0.2572	6.5871	1.0928	-3.0796	-2.0188	-1.8448	-2.6459	0.3300	-2.1835	-2.1290	-0.8488	-0.2922	0.2277	-5.7465	-0.8895
5240.1505	-1.3188	1.0881	5.6574	0.7694	5.0630	-0.1929	-0.2119	5.1320	1.6322	-0.7700	-0.8864	-1.9219	-0.4999	-2.9845	-8.6087	-2.4574
5248.1507	-1.5903	0.1094	3.3376	-1.5473	4.9258	-1.7048	-0.2875	0.7379	0.7679	-0.6437	-0.8405	-3.4188	0.3705	-8.5414	-5.7401	-4.6195
5256.1509	-1.1303	0.8661	6.1926	-0.2558	5.8928	-1.3202	-0.2204	2.1655	1.3264	-1.3430	-0.4444	-2.5774	0.3867	-6.8021	-5.0241	-3.8716
5264.1512	-1.4398	-0.7295	2.0877	-2.6388	1.0934	-3.6329	-0.9187	-6.6923	0.1298	-6.4685	-0.7524	-3.3199	1.4291	-9.5368	-0.1007	-4.5469
5272.1514	-2.2356	-3.2767	-4.9737	-6.1338	-4.7230	-6.2809	0.3899	-1.9031	-0.4867	-8.5082	-1.6803	-6.3659	2.8579	-15.6633	1.9338	-6.7485
5280.1516	-0.1555	-0.2778	2.0928	-1.6766	3.6803	-2.1362	2.2571	9.0516	-2.0212	-4.8376	0.0262	-3.6472	2.1258	-9.9115	0.7321	-4.2026
5288.1519	-1.9403	-1.1588	3.7692	-2.7746	-1.0494	-4.6405	-0.1438	-5.1892	-5.6053	-6.8853	-1.8568	-4.2976	2.3125	-11.7640	0.2376	-5.2780
5296.1521	-2.4671	-2.2935	0.6964	-3.6287	-5.1389	-5.8579	0.9410	6.2413	-1.3213	-7.7086	-2.4063	-5.9363	2.6718	-12.7461	-1.3084	-5.8276
5304.1523	0.5729	-0.7162	-4.4006	-1.2359	0.5478	0.0749	2.1643	9.9271	0.5481	-1.8720	0.5225	-1.4404	0.7288	-2.6153	0.7297	-0.7568
5312.1526	-0.9363	-3.6679	-12.7847	-6.6544	-4.1907	-3.2502	1.0458	-8.0503	-6.3874	-6.9936	-0.9211	-4.3342	2.0441	-11.3428	4.0776	-3.9803
5320.1528	0.5537	-0.8651	-1.1196	-3.3906	5.6751	-2.9651	4.2228	16.7646	-0.3266	-9.9142	1.0065	-5.5744	3.4429	-14.9523	3.2538	-6.0074
5328.1530	2.6216	3.3008	8.6125	2.9674	14.7813	2.3106	3.5946	23.5383	6.9348	-1.5920	3.4165	-0.4292	0.8635	-3.1123	0.0339	-1.5930
5336.1532	1.2702	1.4479	7.0881	0.6919	6.6623	-0.9338	1.1483	4.4099	1.6500	-3.4540	1.7836	-0.6595	1.7173	-5.4627	5.1304	-2.1972
5344.1535	2.9668	1.9637	11.9647	1.8266	5.7476	-2.0811	2.3421	5.8482	-0.8618	-5.9075	3.0554	0.4805	3.7889	-6.3813	15.6145	-1.5713
5352.1537	2.1290	-0.5337	1.4599	-1.1397	-1.5736	-2.4658	1.6291	-3.9402	-5.2121	-5.0498	1.7658	0.2441	3.3812	-5.5996	16.3453	-0.6846
5360.1539	1.2232	-1.6663	-2.7772	-2.0220	-5.4252	-2.7451	2.0463	-0.0016	-5.8431	-6.1498	0.5284	-0.8400	3.0680	-4.9698	12.5244	-0.5410
5368.1542	2.1889	1.6965	10.8000	3.1359	0.8754	-0.9962	1.7261	8.5009	-0.5305	-0.7211	1.7609	1.6737	2.3446	-0.1346	11.1003	0.8117
5376.1544	0.3142	0.0619	9.3952	-0.3576	-1.1575	-4.2957	0.3242	-3.1902	-3.7407	-2.3146	0.2559	-1.2851	3.3089	-8.7630	11.1465	-3.1045
5384.1546	1.0290	1.9035	10.4079	2.0084	6.3085	-0.6785	1.7632	7.7644	-2.5265	-3.7277	0.9606	-0.6292	1.8424	-4.4197	3.1712	-1.7852
5392.1549	1.3797	4.6037	11.3493	7.6759	9.8139	6.4018	0.5705	13.5603	1.5131	6.0170	0.9507	4.4703	-3.0010	13.5304	-10.2958	4.8312
5400.1551	0.0869	1.4997	2.9600	3.7951	0.4358	3.4611	0.2158	7.9208	-0.7935	6.0320	-0.6030	2.4701	-2.0659	9.4221	-7.0564	3.5949
5408.1553	1.5971	1.6871	7.2349	3.7727	2.1616	1.4894	3.6422	20.3197	-4.3778	-0.8859	0.4925	0.7192	1.1352	2.6242	1.1448	1.6306
5416.1555	-0.5536	-1.9947	-12.5291	-2.8603	-3.5528	1.4554	-0.8636	-8.3694	-0.8819	4.4023	-0.5356	0.2239	-1.5855	2.1878	-2.2868	1.1647
5424.1558	-3.2673	-4.2841	-12.7354	-6.9520	-8.1799	-3.7197	-1.5565	-18.6333	-8.8872	-3.5300	-3.3961	-4.5253	0.5346	-9.5125	-3.0809	-4.0076
5432.1560	-5.9512	-4.5530	-10.0177	-8.8728	-5.9201	-6.3073	-3.8360	-24.8994	-5.0923	-6.0928	-5.0343	-7.8717	0.1318	-16.4818	-11.5336	-8.4861
5440.1562	-3.0235	-2.3840	-3.9927	-3.9190	-5.1037	-3.5722	-1.6158	-7.7479	-1.1830	-1.5825	-2.7101	-3.9065	0.2435	-7.4884	-5.2724	-3.9153
5448.1565	-1.2195	-1.4996	0.5959	-1.7780	-6.7655	-3.6252	-1.3742	-9.1039	-1.9469	-2.3960	-1.3309	-1.1727	1.2875	-3.8695	4.1546	-1.4803
5456.1567	-2.7004	-3.1495	-3.6979	-6.2868	-5.3593	-6.2856	-2.3215	-19.9913	-3.4094	-4.8922	-2.0125	-4.7226	2.1381	-14.3763	3.7029	-6.2161
5464.1569	-4.3482	-4.2565	-7.7432	-7.8795	-6.9213	-6.7897	-2.2432	-16.9287	-3.6225	-6.2256	-3.6537	-7.0424	1.5597	-16.3615	-3.7781	-7.6700
5472.1572	-4.6122	-4.8300	-10.3319	-7.1554	-12.5856	-6.6188	-2.5526	-13.8681	-1.0583	-7.0560	-4.2898	-6.0637	0.8531	-10.7888	-5.2244	-5.3135
5480.1574	-2.0672	-2.6300	-6.0638	-4.2457	-5.8523	-3.9206	-0.8753	-5.5952	0.8404	-6.3471	-1.7214	-3.6500	0.9621	-7.2079	-1.1530	-3.3278
5488.1576	1.4198	0.3941	-1.2011	-0.4505	3.7608	0.3268	0.6812	0.6344	3.0980	-3.0818	1.9071	0.3076	0.6071	-1.4649	4.5715	-0.2423
5496.1578	2.1740	-1.4174	-6.4539	-1.7365	-5.4862	-1.0630	0.1099	-6.0303	3.2433	0.4516	2.2838	2.0198	1.4198	0.7127	15.2744	1.8631
5504.1581	-0.4079	-3.1467	-7.5195	-3.6518	-11.5621	-4.0694	-0.4934	-6.5906	0.7517	-3.2012	-0.5717	-1.0991	1.8245	-3.3833	9.5904	-0.4806
5512.1583	-0.5880	-1.7112	-4.8371	-2.9302	-3.0652	-2.5714	0.3385	-0.7999	0.9593	-6.9514	-0.3692	-2.4262	1.2368	-5.3320	1.8391	-2.0996
5520.1585	1.3581	0.1009	-2.4965	-0.5312	1.9945	0.1878	0.6038	-1.2777	1.7387	-6.4590	1.6016	0.5036	0.6447	-0.1585	4.6307	0.4517
5528.1588	0.8201	1.4398	0.4596	1.6963	4.4578	2.1199	-0.5414	-1.1188	3.8815	-5.3852	1.1507	1.7431	-1.2097	5.2734	-2.8993	1.9137
5536.1590	1.7580	0.7682	-1.8319	1.1056	2.7993	2.0110	1.2397	6.8238	3.7307	-0.9857	1.8601	1.5361	-0.2552	3.6353	2.2630	1.9279
5544.1592	2.9821	-0.4448	-3.1447	0.7720	-4.3713	0.4232	2.8059	8.7649	-0.9906	-1.4939	2.1489	2.2921	1.8389	3.4839	13.4373	3.3090
5552.1595	1.5706	-0.0498	-4.7077	1.2584	-3.7658	2.0638	-0.1841	-1.4874	2.3950	0.9174	1.2062	3.4820	-0.8960	8.9384	4.5156	4.5556
5560.1597	1.5704	0.5830	-5.5815	1.1654	0.5844	3.8442	-1.6447	-6.0435	7.0872	9.9610	2.0462	4.4111	-2.5254	9.7554	2.1237	4.3892
5568.1599	1.2947	-0.8976	-3.7704	-0.7577	-4.9736	-0.5215	-0.7520	-7.9905	1.7108	2.5786	1.2879	2.2103	0.5361	2.3126	10.4419	2.0138
5576.1601	-0.3525	-2.9513	-7.1962	-4.0345	-9.8425	-4.1019	-1.1352	-14.5668	-1.8929	-6.1261	-0.4480	-0.8970	1.9300	-4.2769	10.4628	-0.7766
5584.1604	0.6433	-1.0377	-4.3325	-2.3399	-1.0423	-1.0181	-0.5181	-11.2158	-1.7123	-1.4387	0.8674	0.1396	0.9116	-3.1022	7.4590	-0.5505
5592.1606	2.3978	-0.1063	-0.8162	-0.6258	0.1909	-0.4781	0.9437	-5.3567	-2.2538	-1.3319	2.3128	1.5826	1.9266	-1.7813	13.8770	0.7165
5600.1608	1.4198	-3.1659	-6.5560	-4.2732	-10.9838	-5.0514	0.2929	-12.7609	-3.1784	-5.7845	1.1139	-0.2090	3.8711	-6.5229	21.5734	-0.5744
5608.1611	0.6251	-1.8241	-1.3007	-3.3763	-5.3565	-4.4506	-0.8424	-19.1713	-5.9307	-7.3175	0.5557	-0.4882	3.1806	-7.6045	15.9139	-1.7895
5616.1613	1.6619	2.5652	8.3324	2.9952	7.2610	1.6342	0.0544	-3.1211	-2.0553	-2.7606	1.6721	2.3072	0.2249	2.2315	3.1079	1.1206
5624.1615	1.3287	3.1728	8.5654	5.7328	5.3556	3.5393	1.1275	16.7533	5.1234	-0.0303	1.0833	2.8011	-1.4373	9.7029	-5.6541	3.5235
5632.1617	-0.4198	0.6638	2.9757	1.8862	-0.6330	0.2720	0.4085	9.4439	2.7288	-2.8633	-0.6244	-0.0689	-0.4842	3.2900	-5.1658	0.8452
5640.1620	-1.1730	-2.1351	-5.0594	-2.7822	-6.3781	-2.4750	-0.3925	-5.1312	-2.3652	-2.3748	-1.3660	-1.7820	0.8007	-3.5758	1.4712	-1.2735
5648.1622	-0.8479	-1.9921	-2.0436	-1.9826	-8.7526	-3.4426	-0.4634	-8.1186	-5.2726	-6.0708	-1.4800	-1.0380	1.6861	-2.7182	5.4863	-0.5020
5656.1624	-1.7459	-0.8622	0.1920	-0.8222	-4.2485	-2.0710	-1.1373	-6.5820	-3.4558	-7.9243	-2.0740	-1.4044	0.2033	-0.9315	-3.8659	-0.7844
5664.1627	-3.6729	-1.1501	-8.1173	-1.7820	-0.9981	0.9086	-2.2757	-1.3409	4.9021	-3.3993	-3.1275	-2.6615	-3.4724	2.6509	-21.0381	-0.9296
5672.1629	-3.8414	-1.0795	-7.3517	-1.8723	-1.3399	0.4230	-3.4030	-7.2559	6.0295	-4.3286	-3.0708	-2.2382	-3.5998	2.9439	-20.2048	-0.9134
5680.1631	-3.3233	-2.0999	-4.9744	-3.5364	-4.9486	-2.7776	-3.1444	-14.1022	0.9969	-2.7276	-2.7733	-2.8300	-0.9530	-3.9295	-8.0088	-2.7653
5688.1634	-1.9478	-1.8551	-2.9099	-2.2354	-6.2866	-2.5798	-1.0271	-3.6830	-0.5139	-0.2395	-1.9887	-2.0868	0.2234	-3.1971	-2.2417	-1.6713
5696.1636	-0.7139	0.5130	1.8696	1.5934	-1.2932	1.0926	-1.1088	-2.6247	-1.3937	2.3744	-1.0452	1.2180	-1.2978	4.8235	-4.6665	1.6339
5704.1638	-2.6367	-1.2070	-7.3310	-1.8533	-1.3880	1.2291	-2.0065	-6.2869	0.1232	4.4698	-2.3945	-1.3227	-2.7517	1.6143	-13.3313	-0.4838
5712.1640	-2.6776	-2.8462	-10.6980	-4.6792	-3.6284	-2.0240	0.1242	3.1934	1.9744	-4.0892	-2.2786	-4.8373	-0.3664	-6.4644	-9.5767	-3.5510
5720.1643	0.5020	0.6224	1.4007	-0.2828	4.9448	-0.1275	0.7100	3.0189	2.0397	-3.6743	0.9885	-0.9610	0.5582	-3.4011	0.2118	-1.5822
5728.1645	1.4940	2.0067	3.9751	1.0375	9.2768	1.6789	-0.6429	-4.8655	3.8513	1.2977	2.4310	1.5133	-0.3667	-0.4889	2.5101	-0.3405
5736.1647	-0.6401	-0.8791	-1.3921	-1.5407	-2.4438	-2.1850	-0.7588	-2.2601	3.9381	-4.3399	-0.1966	-1.2760	0.5567	-2.7712	0.9747	-1.3729
5744.1650	-2.6703	-1.9227	-4.4334	-1.9696	-7.4282	-2.4138	-1.6956	-1.6530	3.7182	-3.6749	-2.5289	-2.2635	-0.7558	-0.3493	-7.5449	-1.0611
5752.1652	-2.6472	-1.2512	-4.8014	-2.4845	-1.8344	-1.3521	-2.6448	-9.9462	3.3172	-4.8556	-1.9679	-2.1675	-1.4607	-1.5146	-9.7422	-1.8650
5760.1654	-3.8170	-3.2382	-8.4820	-4.9303	-7.7313	-4.0520	-2.1361	-9.3554	0.5232	-8.5383	-3.4725	-4.6363	-0.2427	-6.0950	-9.0760	-3.6059
5768.1657	-4.6041	-4.7839	-11.8569	-5.6634	-14.7539	-4.9030	-1.3650	-3.8206	-1.9145	-4.9810	-4.9561	-5.4191	-0.0026	-5.6684	-9.4334	-3.1539
5776.1659	-4.2352	-3.7069	-5.6582	-4.8706	-11.0728	-5.3446	-1.5272	-10.0509	-6.9817	-7.3882	-4.6807	-5.1829	0.9127	-8.2510	-6.6059	-4.0923
5784.1661	-6.1852	-3.3476	-4.6079	-4.0688	-10.3912	-4.5887	-2.5166	-8.5636	-6.8509	-8.6502	-6.6626	-6.1619	-0.8237	-5.9237	-18.7730	-4.3224
5792.1663	-4.6816	-2.2399	-6.9572	-0.9281	-10.2204	-0.6173	-1.5322	5.1168	0.0177	-3.4201	-5.3635	-3.0013	-2.8249	5.0434	-21.5032	0.3448
5800.1666	-1.5450	-1.1127	-2.1270	0.2677	-7.1396	-0.7010	0.3253	5.7994	-2.5622	-3.9285	-2.4266	-0.9482	-0.3872	3.2698	-6.2955	1.1073
5808.1668	-1.7780	-0.8154	1.3762	-0.3764	-4.8644	-2.3115	-0.4640	-1.0559	-3.1840	-7.9200	-2.2632	-1.7849	0.4792	-1.0877	-4.3332	-0.8807
5816.1670	-0.3418	1.2259	2.2842	2.4785	-0.0751	1.3095	-1.9475	-3.3944	4.7906	-4.8315	-0.2154	2.1082	-1.8286	8.2192	-5.7790	2.7271
5824.1673	0.5957	0.4497	-3.5228	1.2557	-0.1718	2.5023	-0.5968	-2.6654	1.3118	-1.7953	0.4227	2.3605	-1.6030	7.7743	-2.4168	3.3346
5832.1675	-0.2223	-1.2263	-4.7190	-1.4683	-2.7544	-0.8652	1.5054	2.9516	-4.3904	-8.8979	-0.7971	-1.6294	0.9263	-1.6584	-0.5439	-0.3012
5840.1677	-0.1887	0.7097	3.4622	1.5662	0.4543	-0.1797	0.8004	9.1533	1.7383	-5.8558	-0.3702	-0.5244	0.1179	1.4576	-3.7945	0.2048
5848.1680	-0.1839	-0.0257	0.8930	0.2107	-0.6837	-0.8494	0.5098	8.5742	5.0547	-1.8074	0.0521	-0.9170	0.2465	-0.6044	-1.3215	-0.5845
5856.1682	0.1816	-1.1002	0.0521	-2.5445	-0.8786	-4.1233	1.4904	3.8189	1.2729	-12.6714	0.4921	-3.2576	3.0013	-9.2815	6.3556	-3.5364
5864.1684	0.3629	2.0482	3.0474	2.0111	9.3180	3.1124	0.9334	7.9642	0.8916	0.0894	0.6309	0.0882	-1.3353	1.6554	-8.2354	-0.0457
5872.1686	1.2860	3.4592	-2.0179	4.6858	14.0260	9.8722	1.0021	14.0923	3.6878	14.5671	1.4910	3.7113	-5.2546	13.2650	-16.9210	4.5231
5880.1689	2.2558	1.7791	-2.9983	1.7390	8.6410	4.5302	1.4975	5.4957	2.1587	-3.1130	2.4463	2.1832	-1.3038	5.7038	-1.9217	2.6241
5888.1691	2.6653	1.1699	-2.2672	0.5516	7.1423	2.5998	1.9185	0.9227	-1.7871	-6.2393	2.6706	1.5743	0.4642	1.3512	5.0367	1.4681
5896.1693	2.4449	1.4542	-0.5843	1.8851	5.8833	3.6068	2.0059	6.9117	-0.8397	2.8573	2.2429	2.3163	-0.3395	3.9931	2.9838	2.3897
5904.1696	0.2455	0.4525	1.3442	0.7596	1.1091	0.3516	0.5158	5.1904	1.7200	-0.1441	0.2798	0.0381	-0.0371	0.6527	-0.8498	0.1585
5912.1698	1.6593	2.1072	3.9426	1.6445	9.9838	2.4457	1.3022	7.4436	2.9416	2.7714	2.2338	0.7105	-0.2183	-0.6549	0.0404	-0.3981
5920.1700	2.5873	5.1631	12.9981	5.5933	18.3418	5.1074	0.8394	11.7427	7.4647	5.8624	3.6229	2.9231	-1.5147	3.8953	-3.5674	0.7999
5928.1702	-1.8862	1.6707	8.0089	2.1838	2.8088	-0.1773	-3.1405	-1.6676	9.3877	1.9059	-0.8986	0.1124	-2.0600	2.6859	-10.3287	-0.7497
5936.1705	-2.6408	-1.9156	-2.3077	-2.7017	-6.9337	-3.8797	-2.7862	-8.8626	5.1149	-3.6199	-2.0287	-2.3468	-0.1000	-3.4261	-3.4000	-2.3284
5944.1707	-2.2173	-0.5721	1.5394	-1.3320	-1.3335	-2.6576	-1.8573	-2.5798	5.1747	-3.7114	-1.4922	-2.5040	-0.2372	-3.8881	-6.2064	-2.8323
5952.1709	-2.9043	-0.1026	4.3059	-0.5535	-1.3843	-2.7159	-3.2545	-6.9725	6.0200	-2.8395	-2.0496	-2.0224	-0.9318	-2.3374	-8.8375	-2.6558
5960.1712	-1.1680	0.7043	6.4587	0.3660	1.5423	-2.4129	-1.2640	-3.7253	1.8176	-10.8796	-0.7627	-1.5187	0.5990	-2.8934	-3.3457	-2.0739
5968.1714	-1.3558	1.1625	7.2608	1.0920	4.1887	-0.8119	-0.2212	4.9035	0.9590	-3.2546	-1.0601	-1.9425	-0.1054	-3.0014	-7.8106	-2.4211
5976.1716	-1.2959	0.0551	4.4966	-0.9186	1.5589	-1.8317	-1.5202	-6.2700	0.3611	4.3041	-0.7080	-1.4836	0.2411	-5.7345	-1.0696	-3.0616
5984.1719	0.1950	0.6060	4.4890	-0.6768	3.9665	-2.2654	-0.3296	-6.7958	-0.5577	-12.3801	0.6651	-1.2902	1.6533	-5.6218	3.1935	-2.4328
5992.1721	-0.7775	0.3811	4.3231	-0.8397	3.5132	-2.7536	-0.1094	-0.5035	1.7907	-14.1107	-0.2058	-2.7735	1.3520	-6.3853	-2.1963	-3.3561
6000.1723	-2.7903	-0.4601	9.8802	-2.7815	1.5999	-6.7342	-1.5286	-7.7670	-0.8132	-9.9966	-1.8862	-5.5959	2.7270	-15.9369	-1.1114	-7.8717
6008.1725	-2.7170	0.6763	13.9278	0.4283	0.8100	-5.0692	-0.7601	2.2402	-1.4383	-9.1520	-2.5148	-4.2599	1.8990	-9.5194	-5.6904	-5.4038
6016.1728	-1.3341	0.9739	9.0784	2.8624	-2.8320	-0.8108	-1.1294	5.4765	2.3510	5.1849	-1.5470	0.3954	-0.6009	2.9528	-4.6846	0.3621
6024.1730	-2.6945	-1.1016	3.3870	-2.5506	-2.2971	-4.4361	-2.2827	-10.1518	0.1325	-3.1351	-2.0781	-3.4204	0.8750	-8.7298	-2.7273	-4.6264
6032.1732	-2.2849	-1.9304	-3.0406	-4.4944	-0.3786	-4.2937	-0.1807	-4.1090	-1.1412	-11.8298	-1.7086	-5.4005	1.5750	-11.8545	-3.9225	-5.6537
6040.1735	1.8622	1.0122	-0.6655	0.4094	6.6141	2.7532	1.1123	0.7204	-1.3365	7.7604	2.0662	1.4904	-0.2194	-0.1856	3.9481	0.4953
6048.1737	2.6374	2.6977	5.5416	2.1203	12.4978	3.7746	1.3604	1.4701	-2.2521	9.9053	3.0038	2.2608	-0.1128	-0.7763	4.6959	0.1492
6056.1739	1.7486	0.8088	1.2756	1.3382	2.3372	1.1419	1.9410	9.2726	0.7073	0.0997	1.5578	0.9740	0.6810	1.2199	4.2753	1.1014
6064.1742	1.2965	0.1140	-3.4164	0.6960	-1.1116	1.7892	-0.1760	-3.0611	0.9234	1.5365	1.1355	2.5594	-0.6585	5.6008	3.7203	2.9738
6072.1744	0.2938	0.1247	-5.2048	-0.0379	2.1988	2.7567	-0.3120	-1.3259	1.5070	4.3109	0.4789	1.1922	-1.7654	3.9898	-3.6912	1.5688
6080.1746	-0.1740	-0.8200	-4.5297	0.1277	-3.7374	0.9758	1.2452	13.4234	3.6505	6.0807	-0.4305	-0.2120	-0.7844	3.0116	-3.1869	1.2162
6088.1748	-0.4211	-0.4600	-0.8045	-0.6227	-1.1678	-0.1819	-0.4475	0.2461	1.7333	7.5467	-0.1990	-0.2239	-0.3260	-1.1276	0.0672	-0.6043
6096.1751	0.0922	0.0973	-0.3102	-0.7109	3.1185	0.5076	0.0733	1.4533	2.0210	7.7452	0.6047	-0.4712	-0.2470	-2.9408	0.1106	-1.3950
6104.1753	-0.5235	-0.7483	-3.2155	-1.2978	0.3648	-0.5215	1.3808	14.5565	6.6690	2.2458	-0.0172	-2.4691	-0.0003	-3.4905	-3.9555	-1.9773
6112.1755	-0.3704	-0.5999	-5.5874	-2.5590	4.1203	0.0959	-0.2842	4.8432	10.8261	5.3885	1.0901	-1.9810	-0.8617	-4.6651	-3.3703	-2.7209
6120.1758	2.3286	0.9488	-1.1497	-0.4638	8.0919	1.9799	0.8658	3.8466	7.0984	11.1408	3.4715	1.0926	0.0117	-2.8716	7.0515	-0.7940
6128.1760	1.6557	0.8535	2.4095	-0.4322	6.7319	-0.1946	1.3928	4.9425	3.4847	0.6639	2.4022	-0.5586	1.3703	-5.6773	6.3105	-2.0676
6136.1762	0.3927	-0.3049	-0.8383	-2.1634	2.3439	-1.7158	-1.3712	-7.0141	7.7972	1.8793	1.7110	-0.5527	0.5972	-5.4679	5.9497	-2.3754
6144.1765	1.8975	0.7366	2.3644	0.3636	2.2264	-0.0484	-0.4943	-3.3171	5.6458	5.8819	2.6088	2.0213	0.6665	-0.5697	10.3673	0.3493
6152.1767	0.6767	2.7990	5.1780	3.4776	8.8446	3.4595	-0.4132	6.7696	7.3096	1.0453	1.3362	1.8421	-2.1304	6.0105	-7.7211	1.5089
6160.1769	-0.8184	2.3345	0.3284	3.4440	6.7894	5.3049	-2.1524	5.6353	11.4297	8.4825	0.0687	2.3606	-4.8717	11.3276	-17.1982	2.8572
6168.1771	1.9383	0.5366	-0.2403	1.0271	1.6036	1.7228	1.6877	6.3222	-0.5072	5.8627	1.6909	1.6838	0.4035	1.6950	6.1172	1.5653
6176.1774	2.8062	-0.1029	-1.0030	0.1489	-0.5857	0.2807	2.5244	5.6832	-2.0201	2.7845	2.3728	1.5619	2.0051	-0.7436	13.6315	1.3347
6184.1776	-0.3287	-1.5299	-6.1327	-1.0884	-6.7020	0.0658	-0.8867	-1.3578	3.2872	9.2792	-0.3476	0.9161	-0.8672	2.9521	1.7801	1.4907
6192.1778	-0.1221	-2.0962	-6.2907	-3.6409	-2.5502	-1.7401	1.1229	-0.3728	-2.7506	3.8367	-0.0751	-2.2492	1.4181	-7.5532	5.1978	-2.5125
6200.1781	2.2618	1.6178	1.4036	0.6537	9.7293	2.6487	1.3938	5.2803	3.1056	8.5084	2.9915	1.1328	-0.0234	-1.9434	4.4432	-0.4814
6208.1783	1.7880	4.0192	8.5974	5.3920	10.9068	5.3579	-1.2164	5.8750	10.6581	13.9941	2.7419	4.6339	-3.0503	9.6095	-4.0297	3.1569
6216.1785	0.6892	0.9981	1.0358	2.3962	0.3739	2.3472	-0.0567	8.3171	6.2321	8.6081	0.8010	2.2182	-1.5265	6.5734	-1.7660	2.5406
6224.1788	0.1747	-2.6751	-11.9002	-1.6225	-10.7885	0.5434	1.1540	7.4491	1.0347	8.1485	-0.5656	0.6749	-0.4648	4.6225	2.9133	2.8736
6232.1790	-0.2742	-3.1971	-10.2026	-3.4327	-10.3303	-2.4118	1.2191	2.0719	-1.8237	-2.0133	-0.8609	-1.5875	1.4175	-2.4177	5.7273	-0.0141
6240.1792	-1.1505	-1.3349	-3.6551	-1.3420	-5.1167	-1.8916	-0.3235	1.9736	3.2438	-6.7400	-1.1167	-1.5672	0.1281	-0.3171	-2.7602	-0.4500
6248.1794	-1.7129	-0.5418	-1.6988	0.7529	-6.1252	-0.2249	-1.9132	0.7683	5.9128	-0.6561	-1.7086	0.3732	-1.8110	6.3024	-7.7899	1.7490
6256.1797	-2.9826	-3.7401	-5.6603	-4.7689	-12.9357	-6.6837	-1.6852	-4.0164	5.2434	-7.5462	-2.6035	-4.3583	1.5770	-7.5647	0.6048	-3.6197
6264.1799	-6.2466	-6.2691	-12.6476	-9.3966	-16.3913	-10.1864	-3.0109	-7.2308	8.7141	-14.8315	-5.1147	-9.4214	1.4430	-15.4391	-8.7943	-8.1483
6272.1801	-5.2728	-2.8518	-4.3535	-5.3039	-3.7997	-5.6603	-1.4387	-0.4621	2.3556	-14.9762	-4.5119	-8.1472	0.2511	-12.1524	-16.9445	-7.2544
6280.1804	-2.0241	-0.3262	4.5011	-0.9874	1.5083	-3.0572	1.9680	11.1024	-5.0619	-12.7386	-2.3455	-5.2075	1.7793	-9.0079	-8.1546	-4.6203
6288.1806	-1.2279	-0.5511	2.5634	0.2671	-3.7683	-1.7164	1.3482	5.3699	-8.0167	-8.1694	-2.2903	-2.0497	1.1649	-1.7935	-3.6548	-0.7850
6296.1808	1.8372	2.9374	9.0568	4.2236	8.8027	4.0013	2.2496	4.0730	-12.4181	3.7292	0.7326	2.4084	0.0350	3.1677	0.0519	1.8989
6304.1810	4.3358	3.8580	5.8601	6.8267	9.9683	8.4997	4.3133	19.1382	-8.0569	16.5791	2.9282	5.9040	-1.3074	11.7837	2.8572	6.2618
6312.1813	4.7040	1.4549	-1.4332	5.3126	-2.0832	6.1391	4.6297	17.3479	-8.3774	8.8342	2.5195	6.4579	0.0231	14.7356	11.0213	8.6686
6320.1815	5.2453	3.1714	10.0675	5.6179	5.9259	4.0214	4.5287	7.5118	-15.0450	2.5567	3.3582	5.4414	2.4132	5.7207	17.1401	4.9906
6328.1817	4.1715	3.5877	10.3854	5.8760	7.4816	5.2730	2.1848	1.2763	-11.1136	12.1762	2.9186	6.2195	0.3157	7.8479	11.4844	5.0040
6336.1820	4.7739	1.9171	0.2016	4.6473	0.3393	6.2631	1.4263	-5.0718	-9.5261	14.7062	3.2523	8.4104	-0.6135	14.0890	15.5924	8.4463
6344.1822	5.8609	1.6265	-2.5355	3.3724	3.4785	6.5048	3.6920	0.4296	-12.2944	12.8736	4.2747	7.2418	0.6065	9.6811	19.0471	7.2182
6352.1824	3.6295	0.9202	-4.2927	1.8898	3.6378	5.4921	3.0785	2.7983	-10.2190	9.9602	2.4288	4.2791	-0.1852	6.5170	8.7903	4.7171
6360.1827	1.3804	1.0721	-1.3793	2.7379	1.2275	4.8893	0.7409	-1.6811	-8.7683	8.9839	0.2376	3.8829	-1.6933	9.2614	-0.5372	4.6730
6368.1829	1.5805	0.5630	0.2368	1.7709	-0.6044	2.7873	0.5949	-4.9862	-9.0079	9.0784	0.5600	3.4046	-0.2817	5.2783	5.9043	3.3914
6376.1831	2.3352	0.4391	1.2182	0.2877	1.2869	0.8736	0.4859	-11.9005	-8.9948	3.4953	1.7750	2.7789	1.3873	-0.1559	13.2374	1.5540
6384.1833	0.0359	2.0185	2.2028	2.9118	5.8075	5.0231	-1.5806	-8.3367	-4.6635	11.1759	-0.1989	3.3857	-3.1099	8.1652	-7.5346	2.9724
6392.1836	-1.6918	1.2447	-1.7650	1.3836	6.3250	5.0455	-1.9314	-2.6713	0.2854	14.1567	-1.3457	1.0347	-4.4076	6.1302	-16.9583	1.0546
6400.1838	0.4429	0.4236	1.8244	-1.6061	7.1344	-0.8034	0.7040	-2.9088	-1.9900	-2.8983	1.0490	-1.8674	1.3059	-8.2975	2.5085	-3.4526
6408.1840	1.3761	-0.7964	1.5853	-1.7272	-1.7061	-3.0415	1.2255	-4.7178	-5.0203	-4.1830	1.1619	-0.6627	3.2583	-7.3555	14.1371	-1.7522
6416.1843	1.0953	-3.3579	-7.6707	-5.4995	-8.3661	-4.6171	0.1056	-19.3371	-8.2182	-2.3451	0.8241	-0.8350	3.7876	-9.8410	20.9372	-1.9230
6424.1845	1.8004	-2.0221	-7.8516	-5.3935	2.2781	-2.3699	2.3433	-11.3092	-10.2774	-9.0628	1.7774	-2.4084	3.6969	-12.9030	14.9151	-3.5367
6432.1847	1.4464	-0.1185	-4.0274	-0.2338	3.2710	1.9488	4.0014	15.4093	-5.0968	-0.2774	0.7893	-0.9826	0.8594	-1.7432	0.6369	0.0550
6440.1850	-0.2963	-1.2042	-2.8339	-1.7005	-1.8998	-0.7966	1.3189	3.3327	-4.2924	3.1349	-0.6386	-1.6432	0.8923	-4.3555	1.4230	-1.4424
6448.1852	-0.0940	-1.1256	-2.7297	-3.2295	2.0284	-1.4352	0.7147	-7.8603	-7.5569	-0.5401	-0.0523	-2.2204	1.5941	-9.0956	4.3311	-3.2648
6456.1854	2.7036	0.2263	-0.5679	0.2550	2.4595	1.4834	3.2568	7.8736	-5.7285	7.1411	2.1142	1.1240	1.7039	-2.0729	10.9723	0.6962
6464.1856	4.1574	0.2163	1.9415	1.1430	-0.9942	0.3782	4.2529	9.4839	-7.5002	5.1939	3.0312	2.4344	3.4247	-1.3438	20.7482	2.0368
6472.1859	4.5799	1.4620	4.8414	3.5734	0.0006	1.7834	3.9607	9.9688	-7.2000	0.7569	3.1759	4.2111	2.6603	4.5729	18.3533	4.3731
6480.1861	4.7111	4.9546	13.8770	8.3517	9.0014	5.5024	2.3811	15.7125	2.0086	6.3081	4.1085	6.7722	-0.2771	12.5226	8.1330	6.1912
6488.1863	4.1369	5.1200	13.7302	8.3370	10.0100	5.6263	1.6216	16.9169	6.6957	7.1070	4.0190	6.4156	-1.0965	12.9569	4.2545	5.7570
6496.1866	3.9987	3.3447	8.4602	8.3453	-0.5544	5.2107	2.6100	24.5018	5.5932	9.9533	2.8470	7.0536	-0.9769	17.7800	6.3448	8.4807
6504.1868	2.8293	3.3256	11.7341	7.6797	-0.0844	3.4309	1.4587	17.2262	3.3549	5.9487	1.8431	5.7263	-0.5391	14.0573	4.5762	6.4636
6512.1870	2.1924	2.5068	10.3939	4.1559	2.6137	0.3519	0.1818	2.9543	3.1881	-4.3798	2.1115	3.1817	0.8889	4.9056	7.4633	2.4725
6520.1873	1.6592	2.2871	9.5494	5.5611	-1.8831	1.7178	-0.2854	12.6737	9.5102	10.9002	1.5529	4.4768	-0.8845	10.4836	4.0451	4.4108
6528.1875	-0.5992	1.4918	7.5464	4.9081	-4.9901	2.0109	-2.3612	8.6672	10.6035	21.0019	-0.5457	3.9397	-2.9011	11.8088	-4.3890	4.0153
6536.1877	-2.0524	-1.5591	-1.5954	-2.0773	-7.3306	-2.9692	-4.0276	-19.6120	2.2201	0.5854	-1.5940	-0.0654	-0.5077	-0.5533	0.6250	-0.6791
6544.1879	-3.5947	-1.9695	-2.5601	-3.3746	-5.0041	-3.3546	-3.2550	-17.9119	-3.4604	-4.9598	-3.3484	-3.0440	-0.4617	-5.0968	-7.6253	-3.1780
6552.1882	-1.6481	0.1025	3.0480	1.4471	-2.4531	0.5426	-0.0294	4.6241	-4.8528	4.9763	-2.4023	-0.4915	-0.9607	2.2307	-8.1338	0.3361
6560.1884	3.0785	2.3537	11.4951	5.6904	-2.3826	1.1179	1.0138	3.4395	-3.7137	2.1016	1.8499	5.3985	1.3409	9.0228	13.3946	5.2377
6568.1886	3.0081	2.9964	13.7409	6.0067	-0.4656	0.9882	-0.5150	-3.9780	-1.4387	0.8099	2.2491	6.0957	0.9477	9.5008	13.4657	5.1275
6576.1889	3.6727	2.4586	7.2977	4.1327	3.6738	2.5804	1.2936	1.5831	-2.0330	4.4060	3.1526	4.9148	0.8510	6.1613	12.8284	3.9959
6584.1891	4.3752	4.0287	8.4369	5.5744	10.5248	5.2494	1.2591	3.7281	1.0921	6.1025	4.3207	6.0198	-0.4851	8.8808	8.8679	4.7059
6592.1893	-0.5744	2.3700	5.3876	4.7298	1.6851	3.8608	-2.7306	0.5311	7.3468	9.7073	-0.3517	3.8688	-3.8261	12.8836	-10.4908	4.1161
6600.1895	-2.9864	-2.6090	-0.4100	-1.7500	-14.4712	-4.9787	-2.6903	-5.2712	3.3135	1.9009	-3.1362	-1.6302	0.3513	-1.0540	-0.4251	-0.9606
6608.1898	-1.8320	-2.4229	4.8358	-3.8060	-9.0887	-8.4103	-1.3455	-10.3066	-1.2596	-7.3991	-1.5764	-3.9964	4.0020	-13.5642	10.7125	-5.4747
6616.1900	-1.5372	0.0175	6.9745	-0.5792	-0.8080	-3.5919	-1.8564	-4.3255	3.9018	-0.7573	-0.8311	-1.8636	0.8775	-5.9097	0.0229	-3.3108
6624.1902	-0.8055	0.4215	6.9606	0.3403	-0.3711	-2.6893	-1.2370	-0.7679	4.5236	-1.2780	-0.2556	-0.9806	0.7898	-3.4839	0.8994	-2.0755
6632.1905	-1.6919	0.3417	5.8763	-0.2997	0.8833	-2.5086	-2.1728	-5.6377	4.0545	-2.3447	-0.9234	-1.5895	0.0423	-4.0046	-3.5779	-2.7770
6640.1907	-2.8267	-0.0038	4.4110	-0.1240	-1.6232	-1.8297	-3.4471	-6.0768	6.5077	5.1250	-1.9729	-1.2417	-1.5208	-1.0814	-8.6724	-2.1130
6648.1909	-0.9659	0.2209	11.6432	0.2649	-3.2666	-5.1360	-1.8021	-5.4967	2.5188	-1.6892	-0.5488	-1.1586	2.2270	-6.4789	6.6643	-3.0528
6656.1912	-1.2316	-0.0173	9.3138	0.7157	-5.9130	-4.4509	-2.3200	-6.0316	3.4898	-2.4440	-1.0202	-0.3230	1.3382	-2.2055	4.2526	-1.3432
6664.1914	-3.6244	-0.9501	0.4726	-0.0833	-7.9257	-1.8650	-4.3726	-6.9576	8.3305	4.2552	-3.0884	-0.5728	-2.5055	4.0425	-11.4765	-0.0795
6672.1916	-2.5080	0.0631	6.2560	0.1810	-3.0472	-3.3635	-3.2448	-4.1372	8.9727	-2.9404	-1.6215	-1.4607	-0.5287	-1.3064	-5.9951	-2.1083
6680.1918	-0.6815	0.9884	11.6170	1.8771	-2.5421	-4.1383	-1.8104	5.4342	13.1081	-3.3802	0.2519	-0.4815	1.0739	-1.5187	2.4726	-1.6104
6688.1921	-0.0789	0.3912	9.9207	0.9478	-4.1398	-4.7486	-1.6972	3.4424	13.4731	-0.4677	0.9330	-0.1851	1.7404	-3.0152	8.1653	-1.7047
6696.1923	0.0118	1.0608	11.2467	1.3093	-1.2671	-3.9219	-2.5425	-3.7625	11.5142	-0.5728	1.1377	0.5880	1.2673	-2.3929	7.5360	-1.5334
6704.1925	-1.3094	2.1922	13.9819	3.3433	1.3295	-1.9199	-3.2042	1.4637	13.0101	2.2827	-0.1828	0.6135	-0.8683	1.8497	-4.4106	-0.9445
6712.1928	-1.1722	2.6350	16.8340	3.4529	3.7423	-2.5167	-2.6423	3.2593	12.1034	-0.5685	0.0287	-0.1788	-0.1202	-0.9373	-3.8589	-2.1653
6720.1930	-0.5702	2.6822	15.3097	3.9503	2.0643	-1.7037	-3.5272	-2.1381	13.1881	1.0856	0.5963	1.7977	-0.6889	3.1542	-1.0956	-0.1237
6728.1932	-0.9014	0.8690	9.3796	2.0986	-3.7057	-2.6690	-2.7274	-1.7298	9.5904	0.4204	-0.2912	0.8966	-0.0502	2.1039	0.9026	0.0191
6736.1935	-0.4060	-0.2206	7.4577	0.1619	-4.7302	-4.3706	-0.6895	0.1309	3.3337	-4.1778	-0.2446	-0.9451	2.1464	-4.1541	6.7155	-1.7504
6744.1937	-0.7036	1.3388	6.1220	2.0978	0.3201	-0.1640	-3.0552	-6.9951	7.2888	0.6342	-0.0421	1.7498	-1.4097	4.5995	-3.0678	0.9674
6752.1939	-0.1351	1.7288	2.3636	2.1117	3.9872	1.9927	-2.6408	-7.1647	7.1618	-2.0246	0.6100	2.2899	-2.3306	6.9404	-6.0435	1.9482
6760.1941	1.6859	0.9950	2.0016	2.1538	1.0024	1.3143	1.7217	7.6240	-1.0223	-3.4362	1.1488	1.6273	0.5286	3.8816	3.4466	2.2605
6768.1944	2.4719	1.4160	4.6782	3.3663	-0.1194	1.7082	1.8289	5.2554	-4.5595	-0.2380	1.4659	3.2772	0.9167	5.8348	8.1652	3.6568
6776.1946	3.1918	2.3655	4.2441	2.6539	7.1993	2.2873	0.8931	-2.3043	-0.1684	-6.2399	3.2310	3.3900	0.6330	3.9823	8.4068	2.5801
6784.1948	3.1940	2.2657	-1.6473	2.1802	9.7349	4.4165	1.3800	3.9504	4.4016	-4.9278	3.6134	3.1211	-0.8723	6.1801	2.3392	3.0930
6792.1951	1.7678	-0.3589	-6.8758	-1.2063	1.6700	1.3579	0.7782	-4.1527	-0.2890	-4.2520	1.8548	1.1749	0.2285	1.1659	5.5863	1.4035
6800.1953	0.0656	-2.0955	-6.5805	-4.7389	-0.5622	-2.8772	0.7198	-9.8943	-5.4205	-8.0195	0.2577	-2.8384	2.3409	-10.2024	7.2753	-3.4464
6808.1955	1.0951	-0.5932	-4.2677	-2.3676	3.7290	0.1123	1.6040	-5.6237	-7.8280	-4.2344	0.9372	-1.0050	1.4610	-5.8501	5.4885	-1.5053
6816.1958	2.6745	-0.2994	-7.9332	-0.9212	2.2853	2.7307	2.0020	-5.6580	-8.1192	-2.6333	2.0314	2.0925	0.6075	1.9271	8.5764	2.5248
6824.1960	1.1685	-1.0520	-17.2223	-2.2170	4.4280	5.3520	2.6524	5.0410	-3.9792	-0.7321	0.8428	0.0619	-1.9697	3.8055	-6.4394	2.2040
6832.1962	1.0916	-0.9811	-19.1255	-2.3957	6.3394	6.6786	2.9215	2.4965	-8.4243	-0.9409	0.5093	0.0926	-2.4847	4.3297	-9.1546	2.4700
6840.1964	0.6003	-2.2365	-15.7953	-3.0423	-2.5801	2.9414	1.7858	-7.6064	-13.3219	-1.3104	-0.5921	0.3219	-0.5524	2.1363	0.1737	2.2889
6848.1967	-0.7237	-2.8312	-15.6035	-4.1782	-2.7255	1.5718	2.1223	-1.6240	-11.8750	-0.8262	-1.6773	-2.2577	-0.3472	-2.3787	-4.4731	-0.2433
6856.1969	-0.2491	-3.1974	-16.6690	-6.0985	-0.5800	-0.0606	2.3186	-8.9554	-14.0670	-10.2290	-0.9229	-3.4377	1.1810	-7.7686	0.2992	-2.1042
6864.1971	-3.1694	-5.1941	-21.0304	-7.8720	-8.9551	-1.8293	-0.0222	-12.1203	-10.3380	-4.9860	-3.6930	-4.9803	-0.2776	-7.0929	-7.4075	-2.7888
6872.1974	-4.7683	-3.9338	-17.4471	-6.2442	-4.1856	0.1770	-0.7883	-5.0083	-6.7608	3.0366	-4.8672	-5.6679	-2.6074	-5.3992	-20.5471	-3.6023
6880.1976	-3.6729	-1.9350	-8.2994	-4.6666	2.2803	-1.0861	-0.7018	-8.3364	-6.9159	-10.5922	-3.4437	-5.5783	-0.9572	-8.1222	-16.5753	-4.7680
6888.1978	-3.0553	-2.3870	-11.4660	-3.5766	-2.8332	-0.2977	0.1992	2.0644	-2.5963	-8.6715	-3.2220	-4.2960	-1.3946	-2.2277	-15.7315	-1.9681
6896.1980	0.7697	-0.0189	-11.1388	-0.2746	5.4811	5.8185	2.3923	7.0837	-5.7635	3.8867	0.2054	0.5799	-2.3381	5.0423	-8.9631	2.3615
6904.1983	0.6671	0.8728	-6.6396	-1.2161	12.5859	5.0977	1.3591	-4.8722	-9.0007	2.3320	0.7534	-0.3115	-1.6969	-1.5680	-7.6021	-0.6608
6912.1985	-1.2947	-1.3299	-7.5810	-3.2638	3.1362	0.7551	1.1049	-1.8705	-7.9710	-0.6596	-1.4304	-3.1657	-0.3404	-6.0473	-7.4106	-2.7429
6920.1987	1.1419	-0.4704	-3.5065	0.1578	-1.6126	1.4778	2.3393	2.4616	-10.1450	-1.0722	-0.0853	0.7604	0.7428	1.7327	3.4899	1.9125
6928.1990	0.2068	-2.0150	-6.9110	-2.0742	-6.1493	-0.5719	1.3994	-3.9881	-10.3006	-1.4856	-0.9086	-0.3744	1.2003	-1.2049	5.2185	0.7491
6936.1992	-0.9824	-4.8434	-12.5951	-7.2304	-9.9388	-4.9662	2.5648	-7.8336	-16.5312	-9.2916	-2.1689	-5.0692	3.9405	-13.7156	9.2700	-4.0122
6944.1994	0.1514	-1.2702	-5.9735	-2.4996	1.6044	0.4956	3.1339	-0.8694	-16.7612	-6.4168	-1.0548	-2.3958	1.5547	-6.0232	0.1452	-1.4982
6952.1997	-0.0827	0.8465	-5.7329	0.2665	9.3055	5.5772	1.9480	6.9811	-6.7958	6.1713	-0.3965	-0.4447	-2.4857	2.0222	-13.0316	0.4051
6960.1999	-0.2315	-1.8039	-7.7324	-4.7643	3.8810	-0.8804	2.3681	-3.3449	-10.9375	-4.7660	-0.3774	-4.0517	1.7883	-11.7900	0.9623	-4.3144
6968.2001	-1.1614	-1.6209	-1.7005	-4.5248	2.1661	-2.9446	0.4665	-11.3562	-10.9088	-1.9067	-1.0903	-4.0793	2.1856	-13.9738	2.7908	-5.5667
6976.2003	-0.5766	0.2814	-0.3375	-1.0969	5.9539	1.4161	-0.3218	-3.1506	-2.1577	10.6584	-0.0762	-0.9421	-0.9140	-4.3117	-3.9069	-2.2673
6984.2006	0.4650	-0.5007	-5.0195	-2.5502	5.4937	0.2531	1.8023	-0.5205	-4.8430	-7.0313	0.5992	-2.2446	0.9484	-6.4244	-0.0918	-2.3635
6992.2008	-1.5703	-2.0404	-7.7368	-3.2948	-2.7695	-1.1416	0.3457	-3.4762	-5.2757	-5.6947	-1.8328	-2.8866	0.1747	-4.2569	-4.7298	-1.8676
7000.2010	-1.5903	-0.7251	-3.2691	0.6218	-5.7976	1.4495	-1.5344	-3.7274	-2.4215	7.3156	-2.2045	1.1476	-2.1959	6.6896	-7.3104	2.4075
7008.2013	1.3880	1.5609	1.6185	3.7659	-0.1115	3.8831	-0.4174	-1.7115	-2.0775	5.5599	0.6577	4.6084	-1.7744	11.5065	0.2809	5.2695
7016.2015	2.8664	0.2641	-0.7666	1.9651	-2.8502	2.1895	2.1344	5.0003	-4.6058	8.4204	1.8168	3.6932	0.7945	5.6039	11.9268	4.1269
7024.2017	1.9674	-0.9751	-2.2340	0.1256	-4.4496	0.0464	4.4365	10.9309	-12.7447	-2.2134	0.1771	0.1212	2.6926	-0.9104	9.9484	1.5967
7032.2020	0.7097	0.3955	-2.7005	1.8039	1.4399	4.2429	3.0445	10.8588	-11.4945	6.3304	-0.7866	0.9983	-0.8935	4.8771	-4.7765	2.6788
7040.2022	0.6152	-0.5602	-6.5252	0.8548	-1.8682	5.0864	1.8461	9.3346	-6.8779	26.6543	-0.4493	2.2691	-2.1208	5.7975	-1.8209	3.1837
7048.2024	1.7517	-0.9517	-4.6349	-0.5950	-2.4919	1.0574	2.8886	5.4144	-8.1184	5.0602	0.7156	0.7366	1.3369	-0.3965	8.4256	1.4173
7056.2026	1.7822	-0.0443	-3.0515	0.3495	-0.9943	1.2708	0.8486	-2.8973	-3.2576	-1.3109	1.2807	2.1588	0.4395	3.4030	7.0326	2.5511
7064.2029	-0.3418	-1.7802	-7.7478	-2.3304	-4.7483	-0.4290	-0.6599	-2.6913	3.4386	5.6288	-0.0659	-0.1830	-0.4609	-0.1711	1.8177	0.1458
7072.2031	-0.5530	0.1400	-3.5940	-1.8292	6.5120	-0.3108	-0.1151	6.0559	11.4666	-8.5318	0.9369	-2.7251	-0.6585	-4.0163	-7.4634	-2.8805
7080.2033	-0.2674	1.8109	-2.3533	1.1791	9.2249	3.2351	-1.4105	6.7494	16.2357	-3.5552	1.3838	0.2599	-3.3305	5.4247	-13.8133	0.4627
7088.2036	-1.3745	-2.1962	-8.9602	-2.5072	-7.4856	-1.5438	-1.4922	-0.7547	8.8011	-1.2494	-0.8484	-1.0279	-0.9407	1.4334	-2.8736	0.1682
7096.2038	-1.1347	-2.6819	-4.6356	-4.2005	-7.8234	-5.4059	-1.1067	-6.2727	5.2189	-8.1521	-0.5098	-2.8901	2.0240	-7.5538	6.2856	-3.0434
7104.2040	-2.0683	-2.5391	-8.7951	-3.6750	-6.3190	-2.7080	-1.2495	0.7108	8.9050	-3.3435	-1.2877	-2.9617	-0.4494	-3.0002	-4.7935	-2.0214
7112.2043	-2.3655	-3.3412	-16.0049	-3.5679	-9.2206	-0.8209	0.2018	12.4863	10.0890	-4.5074	-2.0994	-3.2294	-1.7162	2.1102	-11.7862	0.0180
7120.2045	-0.2858	-0.6867	-6.0953	-1.0403	0.1578	1.0628	0.5737	8.2550	5.5860	3.2066	0.1063	-0.8842	-1.0712	0.6390	-4.7084	-0.1015
7128.2047	0.6686	-0.5840	-4.3619	-2.1052	2.8267	0.5156	0.3231	-1.2877	1.9255	8.3944	1.3101	-0.4278	0.0817	-4.2713	3.8106	-1.4809
7136.2049	1.7092	-0.0615	-3.6853	-1.6706	3.8193	-0.4608	0.5064	0.1740	7.6689	-4.9769	2.7320	-0.1424	0.9251	-3.2219	6.9486	-0.9393
7144.2052	1.3903	1.5675	2.1090	0.3016	9.0241	0.6383	0.5229	2.5765	6.2922	-7.5092	2.4018	-0.2018	0.3348	-2.3142	0.8792	-1.2338
7152.2054	-0.4870	0.1856	-0.5914	-1.5605	5.2279	-0.2594	-0.8801	-6.1430	1.7476	-1.9852	0.3543	-1.3674	-0.2354	-4.5348	-2.5737	-2.4533
7160.2056	-1.1977	0.5420	4.5015	-0.3341	1.3655	-1.6225	-3.7229	-14.7752	6.2953	1.6339	-0.0420	0.2571	-0.7770	-1.5333	-0.9433	-1.6104
7168.2059	-0.6354	0.9024	9.4619	1.5178	-0.7168	-1.8004	-1.6434	-3.1828	1.9008	5.4222	-0.3797	0.4241	0.3932	-1.3605	2.0220	-1.0267
7176.2061	0.9903	1.8638	7.6716	3.9007	1.0353	1.8949	0.2482	6.8673	0.6676	8.7168	0.5985	2.7682	-0.5853	5.8212	1.2066	2.5030
7184.2063	-0.1404	2.6389	8.0567	4.4848	3.4628	3.2319	-2.7115	-2.5912	5.7520	11.7790	0.2258	3.8301	-2.9929	9.6673	-6.2455	3.0199
7192.2066	-2.2209	-0.2437	6.1349	-0.6467	-1.0136	-2.5751	-1.5338	-1.8193	0.5551	7.4351	-1.8141	-2.2511	0.1693	-6.0965	-3.6590	-3.5436
7200.2068	-1.2120	0.9832	9.0829	1.3663	1.7734	-1.4552	-0.3751	7.0700	2.9188	4.3727	-0.8768	-1.4616	0.1961	-3.3802	-4.0751	-2.4102
7208.2070	0.2908	2.6727	9.5019	4.6367	3.3861	2.2595	-1.3974	4.0686	5.9445	6.6407	0.5123	2.9988	-1.8370	7.8692	-4.2766	2.4680
7216.2072	0.7412	0.5341	4.5849	1.1606	-0.8121	-0.4669	-0.1256	0.2767	0.7276	5.4562	0.7067	1.2497	0.6427	0.1996	5.8559	0.4339
7224.2075	-1.4101	-0.5486	2.2304	-1.1990	-1.1197	-2.1370	-0.9747	-3.1285	0.1308	1.7057	-1.1036	-1.8196	0.4091	-4.8744	-1.4350	-2.5573
7232.2077	-2.1461	-2.4291	-0.7621	-3.6298	-6.7905	-5.1084	-0.3234	-6.3222	-5.6732	-5.7462	-2.3830	-3.9699	2.2471	-9.8369	1.9864	-4.0979
7240.2079	0.1207	-0.6846	6.5070	-1.2714	-2.7833	-4.5530	0.9854	-3.3712	-7.3707	-5.3029	-0.3124	-2.0118	3.6758	-9.6355	10.9132	-3.2047
7248.2082	-1.3793	1.6442	7.3317	1.6375	5.7255	1.2394	-1.7334	-3.4107	-0.4278	8.7350	-0.9580	-0.0110	-1.6388	-0.3299	-8.4344	-1.3689
7256.2084	-3.2271	-1.9550	-6.9563	-3.0643	-2.8648	0.0352	-2.0027	-6.5112	-1.3426	11.4947	-2.9336	-2.4544	-2.1956	-2.7411	-11.5886	-2.2689
7264.2086	-2.4896	-1.6444	-5.6365	-3.0239	-1.0153	-1.0674	-0.5356	0.3070	0.5001	0.7323	-2.1057	-3.5536	-0.8205	-5.0348	-9.6913	-3.0959
7272.2088	-2.6941	1.0199	-0.0701	0.5617	7.6683	2.4832	-0.2516	11.1700	4.0163	0.5597	-2.0731	-2.9432	-3.0698	0.2703	-22.5266	-2.1739
7280.2091	-2.0873	-0.1658	-1.8023	-0.3094	1.8171	1.1383	0.1234	5.9325	-1.4823	1.3015	-2.1526	-2.2395	-1.6501	-0.3738	-13.7141	-1.3216
7288.2093	-0.5095	-0.4293	2.7124	-1.7308	1.3799	-2.7871	0.6831	-3.0325	-5.2660	-8.1193	-0.5282	-2.7128	2.0914	-8.4271	2.2989	-3.4398
7296.2095	-0.3188	0.1305	2.8945	-1.9934	6.3334	-2.1027	1.0356	0.9078	-1.7146	-6.4954	0.2777	-3.4588	1.7905	-10.6924	0.1480	-4.7838
