Time	Fz	Fpz	C3	C4	T5	T4	O1	O2	F7	F8	F3	F4	T3	T6	P3	P4
0.0000	17.8160	-2.7350	-1.9538	-0.1985	5.9871	5.0865	0.9500	-117.2913	5.0835	16.2397	6.3203	3.2780	66.2492	-2.3137	42.6568	-4.0210
8.0000	32.7737	-2.4592	-2.4205	4.4353	3.9511	6.0152	3.0018	-80.7165	8.9997	12.3310	1.9132	0.0184	83.4333	8.1102	35.1188	0.0517
16.0000	12.1522	1.6933	4.4907	4.8254	7.0296	11.3199	4.5061	-73.8387	5.8096	10.7535	1.6897	-3.0071	117.6950	20.6349	34.3566	-2.0598
24.0000	4.8572	1.4847	5.0675	10.5395	7.3164	9.3264	-0.4945	-83.9270	3.3550	10.6000	3.1870	-1.7717	101.6708	11.5416	30.8480	-2.5373
32.0000	21.3054	0.9751	10.2238	18.5298	9.6153	8.1315	15.6413	-90.3361	6.1272	11.6029	3.0237	-1.4791	117.8089	-6.5731	39.1048	-0.3101
40.0000	6.5517	-2.2600	-3.0139	9.3531	3.4969	6.3003	11.4243	-87.4730	10.7907	13.5541	2.0851	-1.2393	118.8485	7.5632	40.5381	-3.8908
48.0000	17.6638	-2.5355	-3.8067	8.6290	3.6469	7.2758	25.2084	-87.4038	8.3709	10.5297	0.9269	-2.5950	115.6623	22.5321	32.4492	0.6929
56.0000	16.2112	-2.4837	6.0246	1.5291	7.4636	3.0933	35.2814	-126.2361	-1.7402	10.4032	4.9433	0.3063	148.9024	-9.8580	28.5235	-3.3102
64.0000	7.5644	-8.2681	-5.4166	-7.7052	-1.4189	-7.4575	30.6270	-111.1355	-5.6430	7.3833	5.1759	2.1817	121.9044	-29.2414	22.2234	-14.8419
72.0000	17.9149	-3.6270	2.7219	3.7732	3.9334	1.0642	46.5687	-58.0350	-7.7280	1.6468	2.4174	-2.8273	111.7792	0.8687	30.0262	-4.2358
80.0000	-9.8345	3.1143	9.0069	5.5325	11.1644	10.5352	24.3955	-86.1939	0.7111	10.0346	4.7812	-0.2236	87.6749	15.1572	30.0079	4.9504
88.0000	-22.9732	3.7615	3.6182	-5.4892	5.6365	8.3850	-0.2431	-108.6648	15.0951	16.5026	3.6363	2.7034	24.5058	0.1149	10.6155	-7.2409
96.0000	-11.1325	8.3831	18.9395	-5.0877	11.1064	12.7530	18.3360	-71.3942	6.2621	10.2160	3.0739	-1.1856	17.6531	-2.4919	18.4364	-12.0160
104.0000	1.7004	3.2285	11.1299	0.1637	12.5261	9.2445	36.5163	-52.4976	-0.8198	8.2064	5.4623	1.8701	14.1642	6.9718	38.3078	7.9099
112.0000	18.6517	-5.5148	-8.1833	-5.9715	5.4468	0.0873	35.6469	-71.0167	2.1290	9.7161	5.3741	6.7137	19.7498	9.7203	29.0357	21.0665
120.0000	20.1043	-5.0557	-4.2322	-9.1351	2.7402	-2.8579	28.9010	-85.2411	-5.1339	5.6497	5.2348	4.6673	11.5278	-4.9679	11.4485	3.5082
128.0000	21.9033	-2.4166	2.9665	-2.6413	3.8489	-0.8749	37.4652	-61.3069	-4.7381	2.8802	3.5841	1.5953	-3.4064	-10.4322	14.2351	-3.3356
136.0000	5.6294	1.3974	5.5803	-4.1395	8.6197	5.3411	32.1050	-38.0308	-0.5243	5.0987	3.6519	2.7572	1.4032	9.4682	18.8775	12.8851
144.0000	-2.3796	-2.4568	-5.6628	-3.0786	1.1162	-1.2060	25.9390	-42.4150	1.2853	3.6296	2.6718	3.5423	-39.0119	5.4692	2.3634	6.5294
152.0000	4.1803	-3.6603	-7.1207	2.2254	-4.0675	-4.8401	27.7360	-53.8577	5.9240	2.2186	-0.1301	1.2268	-47.1611	-8.5086	-13.3456	-7.0146
160.0000	-15.8618	1.2956	1.4324	-1.1098	3.0449	0.1301	1.0294	-50.9024	-1.0077	3.8002	3.8518	4.0169	-52.9378	-4.3140	-10.4583	1.9025
168.0000	-11.7303	-3.0516	-5.4475	-5.6265	-0.7799	-7.1192	-3.2866	-14.3852	-8.6627	-0.5275	4.8607	6.2967	-78.1404	-14.3034	-6.2986	3.8953
176.0000	-6.8166	-0.6335	-1.1966	-6.1753	0.3788	-2.7400	6.1141	3.1780	-6.0309	-1.9154	2.2922	2.8950	-55.9861	-2.7859	-4.8813	2.9546
184.0000	-11.1448	3.0076	1.2264	-1.8631	5.6257	5.8635	3.6706	-8.0113	-0.6091	2.6286	2.7987	2.5275	-62.4478	22.0243	5.0072	11.8283
192.0000	3.6716	0.6057	0.1545	1.1979	2.3781	2.1218	16.8414	7.5696	4.2321	1.8864	0.4756	1.2724	-52.8814	4.7268	11.3823	5.4874
200.0000	-6.6504	5.1923	11.5531	2.4495	6.7154	5.9228	17.0382	17.9787	3.6508	1.6114	0.5087	-0.1334	-33.1641	-2.8362	13.5242	3.0463
208.0000	-11.3992	3.6484	5.8585	3.2005	7.2355	5.8244	10.9222	10.2018	5.4283	4.8530	2.1823	2.6224	-39.9269	4.1860	20.9827	12.1103
216.0000	-7.7763	2.4021	1.4356	-0.4178	3.9035	4.6542	0.9453	-3.2508	11.4904	7.3818	0.7901	2.7114	-25.0654	2.1127	14.7533	8.0638
224.0000	-5.5789	4.7120	0.5381	-1.7720	4.8006	9.7837	-22.0842	-34.8344	14.6240	11.0172	1.0718	2.5673	-45.5651	19.8712	5.7439	6.7033
232.0000	12.0200	2.7705	-3.0483	-2.4121	3.2974	8.2832	-44.3123	-54.2270	10.2222	11.5880	2.5621	3.5070	-64.4327	18.7760	5.1932	2.2346
240.0000	2.5147	6.9748	9.0427	-1.8894	8.2355	9.3728	-61.2203	-59.0583	2.5213	10.9094	5.6615	4.9309	-86.3342	-0.0134	1.5375	-1.8909
248.0000	-12.6895	8.4438	4.5311	-3.3287	10.7893	13.3139	-64.2002	-50.8242	15.6456	18.1339	6.2101	9.1298	-129.3705	13.3519	11.2165	14.7543
256.0000	-22.7118	12.5123	5.8757	-4.9112	12.5460	19.1229	-83.1489	-27.0740	27.1585	22.3146	4.4636	9.7431	-146.3101	25.1384	11.5489	22.2800
264.0000	-28.0838	17.4349	21.6849	2.8722	20.5951	21.2395	-80.3226	-31.8637	8.4913	15.3191	8.3310	9.5751	-182.8509	20.7488	-0.4916	25.0541
272.0000	-10.8085	8.8141	10.0527	1.8269	15.8629	12.0944	-49.6454	-38.3727	-1.9406	11.1132	10.0069	10.5200	-178.0598	15.7992	11.4742	24.1938
280.0000	-11.0332	9.0928	11.1186	3.3425	12.1063	11.4188	-60.9138	-13.1228	1.6641	10.4024	7.4728	7.1883	-156.7499	3.4209	17.7003	8.7337
288.0000	-9.3007	9.6139	15.1827	10.4598	15.6987	11.2750	-48.8133	-3.2760	-2.3291	8.0862	8.3910	8.0694	-159.3082	2.2531	18.8434	19.7077
296.0000	3.6574	-0.7257	-2.1881	-0.9459	9.9389	1.8102	-14.2487	-11.7995	-10.0688	5.6627	9.5807	10.3790	-108.3826	8.7545	29.9305	27.9431
304.0000	3.7427	-2.0801	-1.7297	-4.9584	4.2296	-1.7323	-2.5986	-15.7688	-14.8598	0.6370	7.3210	5.4338	-80.3612	-1.8150	20.3960	4.3501
312.0000	9.5818	-2.7224	-1.3325	-4.0904	0.4665	-4.4644	21.7972	-13.0389	-6.1421	-0.9011	3.0374	3.1363	-66.2531	-12.8864	5.6745	-1.2418
320.0000	12.2679	-4.8535	-4.3921	-8.6953	0.2253	-6.8143	28.0722	7.5215	-10.4127	-3.4513	3.1203	4.2524	-37.7746	-8.2223	7.3279	9.2099
328.0000	14.7372	-6.7670	-6.5426	-5.2633	0.4230	-8.4640	24.0669	23.8606	-27.8392	-10.9670	4.9964	3.0081	-27.6281	6.9503	7.2096	13.4880
336.0000	20.1112	-9.6217	-15.9658	-6.0627	-6.0364	-10.7982	23.9234	10.6683	-18.9182	-10.1736	1.2411	1.4336	-0.4697	14.3698	-8.6871	10.7101
344.0000	22.3404	-5.1680	-4.7629	0.9978	-2.8073	-7.1340	16.4673	-3.0241	-13.5500	-7.7865	0.4641	-0.0834	3.2998	-0.7650	-11.8441	3.2500
352.0000	26.7378	-4.6699	-0.6889	9.2402	-1.3962	-6.3354	19.8063	13.3115	-13.6886	-8.0760	0.4076	-1.6037	10.6541	-9.5890	4.4019	-0.4766
360.0000	28.0793	-3.1169	-2.5511	9.9458	-4.2267	-2.6172	19.9834	36.0522	-0.0910	-6.7468	-4.8607	-5.1816	39.0068	3.4837	0.4769	-1.6215
368.0000	30.3367	2.2659	12.3085	16.6442	3.7815	3.1479	22.2240	32.1763	-8.1323	-9.4322	-3.5000	-6.7579	52.8651	6.6370	-2.4414	3.3759
376.0000	27.5995	-5.7230	-2.3431	8.5356	-4.2339	-8.0275	11.5932	21.7561	-15.8088	-11.0599	-1.6222	-3.7103	72.9704	-7.0296	-5.8718	-1.2273
384.0000	31.1835	-8.8205	-11.5255	3.0527	-14.5739	-13.8603	2.5246	16.2113	-6.5936	-11.4998	-6.1548	-5.6940	74.1876	-17.7210	-29.0604	-18.2492
392.0000	31.4183	-2.2587	4.7534	9.9924	-6.6219	-5.8841	17.3701	12.4439	-7.3253	-11.8838	-6.1596	-8.6247	78.4051	-15.6102	-25.3926	-18.9287
400.0000	12.2051	-4.3011	-2.5676	5.8936	-6.7898	-7.1278	16.6957	35.0400	-8.6417	-10.9062	-4.4220	-5.8215	85.1368	-5.7045	-12.3642	-7.2230
408.0000	10.9155	-6.3915	-6.2497	0.3538	-6.9902	-9.2086	27.4310	50.4830	-13.5278	-13.1071	-3.6325	-4.5438	92.0113	0.4428	-8.5406	0.5857
416.0000	10.8540	-8.1273	-9.8931	-8.7516	-9.5651	-10.3947	24.9144	38.8641	-16.8986	-13.0712	-3.1744	-5.2193	111.8436	2.4394	-6.4915	-8.1056
424.0000	-0.5622	-9.0421	-16.4331	-6.5269	-16.6988	-14.0337	5.5221	42.0777	-10.0814	-13.5017	-6.0011	-6.2298	92.9195	-3.6556	-27.0944	-18.4633
432.0000	-3.6638	-3.5532	-0.1142	6.1307	-7.5309	-9.4127	26.3845	39.9103	-10.0967	-13.6878	-4.9743	-6.1131	88.5841	-13.7146	-25.7675	-8.5774
440.0000	-3.3705	-6.7681	-7.7474	-0.5964	-6.6220	-10.5678	16.9376	30.7557	-9.3706	-8.0123	-1.6455	-1.2939	95.0400	-11.8542	-4.6127	1.6453
448.0000	4.4778	-10.3076	-18.1241	-5.0206	-12.4632	-15.2605	-6.5470	35.1777	-7.1506	-7.8198	-2.5605	0.5485	79.2934	-12.3863	-15.1124	1.9518
456.0000	0.3519	-1.3094	3.2001	-0.6863	-7.1081	-6.8967	4.2102	38.7327	-9.0337	-11.6563	-4.8001	-6.2550	78.3135	-16.8314	-25.1435	-16.3327
464.0000	-4.4746	0.9726	5.4465	1.9363	-6.0041	-2.1855	5.3195	47.6592	-9.0023	-11.5409	-4.9516	-9.0224	54.8159	-5.6793	-13.4274	-24.4138
472.0000	-3.3075	-4.0707	-5.6612	5.5367	-5.6305	-6.7698	8.6569	34.7295	-9.3429	-8.8722	-1.9042	-2.8645	37.5177	-0.8582	-7.9596	-2.0895
480.0000	-15.5267	-0.7940	0.8230	6.2573	-4.1511	-4.9139	6.7208	25.2759	-9.8084	-9.3656	-1.8924	-3.8849	29.0089	-5.2857	-18.7427	-8.0614
488.0000	-22.1102	8.6324	18.7712	9.3218	3.7686	6.1878	2.0990	47.6558	-8.5363	-9.8305	-2.8650	-7.5503	12.0039	3.6039	-16.7964	-10.8403
496.0000	-31.3774	8.0529	16.8595	7.0072	7.7135	6.1775	8.5639	35.7175	1.0148	-1.8890	-0.4791	-1.3058	12.1194	-3.5031	-3.2476	7.8727
504.0000	-26.2120	-3.0793	-5.5029	8.1201	-5.3993	-8.6730	4.8799	42.3102	-0.9860	-4.8651	-1.0211	0.7504	-2.9542	-19.2806	-6.6275	0.6106
512.0000	-21.2067	-1.7906	-2.6749	14.9747	-2.2764	-6.8831	-8.9106	68.3476	-15.3547	-12.0500	0.0692	-0.3187	-5.7701	0.3947	-13.4784	12.1516
520.0000	-50.2894	5.3463	4.8748	4.8665	3.1042	1.9198	-16.5107	31.7917	-2.7844	-3.2059	0.7143	1.5493	-16.2415	8.8008	-22.7065	14.0162
528.0000	-59.2055	6.6099	9.3376	-1.5143	0.3356	1.0824	11.5502	27.9280	6.5972	-1.1239	-1.3375	-0.7696	-41.1619	-15.3557	-18.0461	-9.3186
536.0000	-65.6161	9.9456	18.6766	-3.0379	9.3661	5.4838	19.0868	53.4362	0.8813	-0.4638	2.2096	2.1361	-47.9428	-13.2219	3.4269	7.1275
544.0000	-75.9976	5.6863	0.9070	-8.9849	2.5313	1.4627	-12.3475	48.6778	4.9217	2.2544	2.5064	5.7786	-82.1743	1.3510	-7.5909	12.4058
552.0000	-68.8938	3.8253	1.0983	-0.4430	-0.4445	-3.6272	-5.9118	75.3613	-7.8880	-7.8040	1.6252	2.9662	-98.1689	-2.2686	-20.5318	7.7063
560.0000	-83.7738	7.7454	10.4186	-4.6905	7.3106	0.6956	8.0513	80.6667	-10.0360	-6.0310	4.4301	5.4098	-104.3245	-1.7703	-9.7485	18.8425
568.0000	-88.4093	2.7510	-6.6421	-20.6675	-1.5645	-2.8588	14.9617	54.8669	8.2300	2.5659	2.3772	7.4496	-122.6087	-2.5574	-5.6099	8.2326
576.0000	-84.0703	5.1932	1.8410	-13.7635	2.3810	-1.2499	15.3168	68.3627	0.4830	-1.7011	2.9033	6.2184	-118.5149	-3.3608	-8.4675	12.1058
584.0000	-90.7379	5.2527	-2.5270	-13.4247	1.4504	-1.0739	-10.3005	65.5439	-6.7483	-4.3747	3.9126	6.7780	-134.7817	14.8988	-24.8131	17.3105
592.0000	-78.2793	-1.5241	-20.0377	-22.0243	-9.5478	-7.1667	-9.9404	40.6602	0.9588	-2.4112	1.1255	5.9259	-134.8160	17.4348	-32.1700	2.9905
600.0000	-58.8930	3.4170	-2.0035	-11.6197	-0.5727	-2.3033	-3.5238	60.3477	1.8050	-1.8903	1.3507	5.3944	-115.4212	-1.3948	-15.7462	9.7361
608.0000	-34.4654	0.3484	-8.0403	-9.7802	-1.9859	-3.1127	-11.9734	90.9842	-1.8766	-4.8817	0.2146	4.7547	-92.5801	13.2450	-7.4704	19.6809
616.0000	-13.3122	-6.3340	-21.6603	-15.6715	-8.8614	-8.4269	-11.4914	77.8996	-5.5839	-7.1425	-1.0455	3.9367	-54.4952	24.6912	-12.3661	18.0724
624.0000	4.5411	-2.0193	-5.1804	-3.5282	-6.0271	-7.3199	-16.7021	77.4764	-5.3363	-9.5561	-2.9513	0.5601	-39.0243	-4.5619	-21.5740	6.3089
632.0000	14.2494	1.5491	3.2428	3.9719	-4.9467	-2.8163	-20.2067	109.5060	-4.0052	-12.8392	-6.3929	-4.7445	-9.6512	-1.4935	-19.9854	0.2137
640.0000	4.2244	0.2797	-3.9857	-2.6125	-6.2847	-2.6531	-32.8571	100.7805	-1.9234	-10.0565	-5.8083	-2.8165	7.9611	11.6236	-21.9412	6.9059
648.0000	13.2564	-6.4141	-13.3075	-9.0175	-15.7089	-14.8834	-42.6152	96.2154	-10.7167	-15.7040	-6.2428	-2.3270	22.9579	-11.7481	-41.4731	-6.0345
656.0000	18.7041	-2.7300	-1.1220	-6.3583	-13.1622	-11.5092	-23.8485	120.4966	-16.9270	-22.2075	-8.5407	-7.9583	56.6444	-11.1648	-43.8721	-13.8549
664.0000	11.2957	3.3330	5.6015	2.6193	-10.3423	-2.7464	-17.2109	113.6248	6.0050	-14.7148	-12.6310	-10.1286	44.9249	-6.2250	-44.7412	-13.9245
672.0000	12.8366	-2.5641	-4.5531	5.6569	-17.4989	-12.1313	-19.0946	114.9440	5.3962	-16.9095	-13.4176	-9.0050	56.2410	-22.6529	-53.0565	-16.9756
680.0000	10.0370	-1.4629	7.2223	8.6185	-6.0299	-11.6155	2.1428	101.8479	-17.1429	-20.6485	-5.8579	-5.1626	62.9371	-26.1929	-37.7992	0.8842
688.0000	24.5431	-5.0851	-2.9845	0.9685	-10.6353	-12.1416	15.5554	75.8753	-4.8468	-14.4871	-7.4143	-4.9819	50.2738	-22.4769	-26.9666	-6.9176
696.0000	34.3991	-8.2387	-17.5577	-2.5260	-22.1188	-12.6349	11.7448	131.9692	6.4120	-17.8665	-15.3433	-11.4483	65.6192	2.0444	-29.6979	-18.4719
704.0000	35.0047	1.5711	6.8655	23.8482	-3.8102	-0.2466	26.3236	156.7778	-1.8092	-20.4873	-12.0358	-11.4407	35.0729	16.5070	-15.3186	10.7863
712.0000	42.9870	-4.0271	-0.2152	24.9073	-3.1555	-5.3916	27.7010	78.6189	-2.5022	-11.8324	-5.9772	-5.2557	23.5172	-4.5922	3.0195	9.6836
720.0000	43.4898	-9.8375	-20.8409	7.8556	-14.5437	-8.0987	10.3534	35.1012	12.6500	-2.6762	-7.7973	-4.9776	22.7863	2.2091	6.8447	-11.0010
728.0000	54.8237	-4.4546	-12.9962	10.9577	-10.8299	1.1194	25.1867	27.0000	27.7021	1.7743	-11.2621	-8.0320	3.5950	14.5263	7.8065	-12.3984
736.0000	49.9341	-6.7971	-12.1256	1.9815	-11.7478	-3.8737	22.3084	-7.7756	11.4471	-0.7671	-6.9794	-7.1636	17.1894	-1.3558	6.4222	-26.6383
744.0000	46.1080	-4.9941	-4.2191	6.6104	-7.9294	-4.3175	4.6190	-35.6999	-5.9043	-4.5651	-2.5026	-6.6649	0.8056	-8.8072	-2.8963	-31.7442
752.0000	51.8397	-0.0896	8.5071	18.9252	2.1664	1.5017	8.6185	-65.5780	-0.5737	0.2882	-0.7635	-3.8081	3.6091	-12.9972	-4.4778	-12.5350
760.0000	26.6946	-0.0525	3.5920	2.1008	3.5117	2.1481	-10.4764	-106.1242	3.4721	9.4023	3.4680	2.3839	-1.5102	-13.2786	-0.7493	-8.3376
768.0000	28.4766	2.2203	2.3660	-2.2660	1.1942	6.6301	-19.3571	-112.9492	14.7573	13.3533	0.8732	0.2048	-32.7882	-4.7628	-2.9534	-20.2747
776.0000	7.1953	1.6963	0.2894	8.7309	5.2685	8.2109	12.3477	-91.7382	15.5167	14.7760	3.3914	1.9315	-71.2141	4.0070	26.4620	-7.8495
784.0000	-14.6617	5.0205	5.3924	-2.5440	8.5546	13.1540	-14.8879	-113.9312	1.1225	14.5279	7.4154	0.8297	-36.8849	17.6369	29.1428	-17.6459
792.0000	-23.6759	3.5745	-1.6454	1.6150	1.2524	9.0765	-41.9719	-134.0702	9.1415	16.6634	5.5138	0.4948	-53.4034	5.1427	9.8680	-31.7622
800.0000	-3.7389	5.5107	7.3049	7.5079	7.9409	12.8136	-10.2336	-109.6500	17.9487	18.2467	3.4115	0.7877	-8.7053	2.6383	24.0780	-11.3959
808.0000	-16.4250	6.1542	9.2458	-3.9294	12.9473	15.7040	-12.1099	-127.1532	5.0378	19.6137	9.0027	2.9339	-6.0848	12.8719	43.0844	-10.4677
816.0000	-1.8121	-3.0035	-7.0979	-4.6136	-1.7312	1.8447	-21.3750	-135.2197	5.9729	16.4978	6.1236	1.6916	1.7184	-14.4641	29.0057	-33.6789
824.0000	0.7107	-0.2597	0.1224	-3.0407	-1.9979	3.4879	-9.9672	-81.2802	5.4307	8.8291	0.8953	-3.5170	65.2782	-7.7242	15.1269	-30.2402
832.0000	-4.7696	5.2595	10.5956	1.4790	6.1523	12.6427	7.1854	-85.5814	9.4130	11.4651	1.0273	-4.7445	78.0622	8.1110	24.3619	-20.4342
840.0000	10.5396	-3.6253	-5.4576	2.8186	-3.8032	2.2489	21.1316	-83.7874	25.1100	15.2463	-2.8688	-3.3445	135.0841	-14.9480	30.7023	-20.9393
848.0000	-7.7354	-3.9208	-7.9257	-4.4959	-5.1886	0.3370	23.5342	-42.1062	18.0096	9.0651	-3.7863	-3.6137	164.9344	-1.9774	19.2047	-11.2344
856.0000	-18.3703	1.8357	9.1817	-2.0241	4.2309	5.4317	41.8927	-59.6877	3.2300	5.3685	0.2633	-4.4818	142.8171	-2.8949	19.0611	-12.5844
864.0000	-18.7895	-0.5791	8.5389	-4.4660	3.4190	0.9851	47.1197	-44.1037	-0.5689	4.3749	1.4646	-3.0538	157.8948	-19.8953	30.4281	-13.4441
872.0000	-27.8468	0.2935	2.2752	-8.3154	2.5201	4.5326	43.4776	-15.2728	8.2813	6.3925	-0.4701	-2.6236	134.4427	3.6912	32.5597	-3.5119
880.0000	-29.5207	2.6712	4.1289	-3.5638	3.0810	8.4240	46.3371	-48.6825	22.0850	12.6882	-1.9399	-3.2112	117.6711	2.1816	29.5601	-8.8756
888.0000	-28.0519	-4.0970	-11.0222	-9.8799	-2.1976	0.9412	29.2093	-44.9472	3.4664	5.7960	0.7492	-1.1328	120.5454	20.8238	18.8637	-1.3112
896.0000	-42.0123	6.3925	13.3564	-2.5583	6.0009	2.9303	6.8568	53.5808	-5.1349	-2.7047	2.1271	0.7664	-37.1027	-11.4555	8.8343	0.8093
904.0000	-38.2222	4.3356	7.1710	-0.7286	7.5694	4.6348	7.0429	18.3891	-5.5348	1.4579	4.6510	2.6603	-37.5230	4.3291	19.7813	7.9226
912.0000	-24.4936	-2.5943	-8.0268	3.3074	-2.2933	-3.7748	-12.1669	-7.4787	-5.5127	0.2696	3.1909	2.4227	-27.7593	-0.0747	3.1393	-0.9145
920.0000	-19.3025	-0.4120	-0.3456	-0.9764	-0.2188	-3.6448	-2.8062	16.8588	-8.8645	-3.5804	2.3617	1.8966	-31.8976	-6.9731	-3.3955	0.7872
928.0000	-15.8316	-1.4899	-1.1226	-4.0662	3.2041	-2.3437	16.2040	9.8739	-13.4082	-3.2680	4.3999	3.2492	-20.1565	4.9488	8.6580	11.3033
936.0000	-25.7305	-4.0285	-10.5114	-7.1090	-0.9282	-5.1277	9.9130	17.0538	-9.4862	-2.7969	3.2252	4.4438	-6.7624	12.6778	0.9911	17.1088
944.0000	-30.6632	0.2690	-1.3858	-12.9136	0.8420	-2.5328	11.7261	20.6741	-6.9138	-3.2701	1.8938	3.2981	-13.5782	5.3671	-11.1250	11.4110
952.0000	-15.8429	-4.5499	-6.0432	-9.8141	-3.1373	-9.3856	18.3851	-1.4626	-11.0512	-4.4004	2.8500	3.7356	-20.2843	-14.0155	-9.4453	1.3249
960.0000	-8.0127	-6.5546	-8.8994	-3.8362	-5.2401	-12.2252	7.6341	11.3476	-14.9030	-7.0287	2.6636	3.3051	-17.9930	-17.1081	-9.3437	0.9846
968.0000	-11.9021	2.8444	9.3044	-2.2551	3.0982	-0.9227	3.1592	22.8375	-11.7464	-5.9764	1.7345	0.2177	-25.1636	-9.7241	-8.5153	-0.5795
976.0000	-22.3289	4.4837	8.6977	-2.4703	5.0596	2.7266	7.6705	14.3372	-1.6953	-0.0526	2.0429	1.7759	-50.3034	-5.0231	1.0370	2.9385
984.0000	-27.2966	4.1140	3.2859	-3.0134	5.2058	4.2410	-4.1914	3.4553	1.4509	3.3480	3.0765	3.8011	-69.9289	7.4530	2.6022	9.3978
992.0000	-12.0223	3.2318	5.4311	-2.7220	3.1403	1.4668	-1.5418	-2.9493	-5.1603	-0.9654	2.6406	1.8406	-83.5919	-2.0585	-6.6558	-2.0931
1000.0000	-1.5312	-1.2599	1.3022	-2.3118	-0.3757	-5.2423	12.3785	21.5310	-13.2348	-6.4580	2.6713	1.4896	-81.7721	-13.1712	-0.8627	-4.9678
1008.0000	-6.9080	2.5505	7.3640	1.1077	4.7645	0.1162	-2.5152	35.6846	-13.5207	-5.1912	3.6399	1.9354	-81.1668	-4.5152	5.5541	3.8387
1016.0000	-9.4216	4.5396	12.2642	2.0711	7.2816	1.5945	0.9185	14.1772	-8.4568	-1.6538	4.2237	3.1558	-91.1373	-14.5017	3.9677	3.3427
1024.0000	-4.4719	0.8129	6.2515	2.2437	6.3918	-0.8078	19.5713	-0.5728	-9.6638	-0.7525	5.3519	4.1299	-82.1333	-12.0711	14.8290	6.1302
1032.0000	1.5651	1.6895	5.1257	8.7624	6.3399	2.5880	13.9222	-1.1835	-8.9641	-1.6372	3.9935	1.6650	-83.1906	5.9739	11.8982	6.8753
1040.0000	-3.9833	-0.6768	-0.5823	7.1941	0.8298	-3.1611	0.4030	-7.2030	-8.5461	-2.8152	3.2455	2.5101	-89.6006	-5.7116	-5.7290	0.7514
1048.0000	-9.2189	-4.1274	-6.6583	1.8657	-3.6347	-9.4468	-6.4908	-2.2845	-11.6165	-3.9192	3.9870	4.2032	-91.4610	-19.3211	-7.8746	-4.2823
1056.0000	-10.5763	-0.1106	0.6138	1.2150	-0.3559	-3.6465	18.7768	31.6247	-4.5356	-4.1755	1.3657	1.6157	-102.4853	-11.2508	1.4262	-2.3864
1064.0000	-19.6147	1.2509	-0.4745	-1.4513	3.2187	1.0196	28.0615	32.0304	1.0982	0.0786	2.1479	3.2689	-107.6232	5.5494	13.6389	9.4400
1072.0000	-18.1594	-1.1355	-9.7189	1.4056	-0.8538	-0.4535	-0.7163	3.9588	0.3829	1.6580	2.8589	3.7591	-122.5927	14.4703	5.0353	4.9790
1080.0000	-21.4158	1.9098	-4.6805	4.4528	-3.7536	0.6210	-0.2391	19.7422	0.9833	-3.7013	-1.0245	-1.3447	-134.6053	15.0152	-16.9453	-8.9812
1088.0000	-28.7058	5.3783	3.5171	4.5456	1.9151	4.4470	2.6613	18.2315	0.6544	-1.7509	0.7404	-0.1744	-139.1523	12.5015	-9.8363	-4.0264
1096.0000	-22.0590	7.0741	9.1738	6.6762	5.6842	6.2645	-15.3521	-0.1780	2.5563	3.1535	3.0062	2.0518	-143.2022	-2.2879	0.5500	-4.5532
1104.0000	-26.9251	7.3282	8.1020	4.1559	1.2277	4.6406	-27.0687	13.9423	3.2869	0.6576	0.7387	-0.2819	-141.9712	-6.4353	-11.2945	-16.1818
1112.0000	-21.3587	4.1998	-1.5535	4.3622	-2.7971	3.6675	-16.9477	4.6817	13.6021	4.3378	-1.0927	-0.2811	-147.5686	0.0966	-5.4427	-16.9412
1120.0000	-14.1705	8.1026	6.1777	9.1991	2.3331	10.6407	-2.4836	23.4071	27.7243	9.5108	-3.2572	-1.1526	-137.9146	0.9719	13.8992	-9.8857
1128.0000	-31.7839	10.2751	8.7434	10.1314	4.3364	11.5520	-24.6729	67.1194	14.1824	2.8057	-1.8659	-1.3915	-138.1484	14.7758	7.4680	-1.1944
1136.0000	-33.4430	2.6731	-5.7016	8.3641	-0.5449	2.4398	-32.1797	42.2141	-0.4696	-0.4670	1.9972	1.9622	-138.1192	17.3882	2.1139	2.2441
1144.0000	-28.0188	2.1133	-4.4647	9.1559	0.1766	2.2336	-21.0572	36.5037	3.8191	2.0554	1.9375	2.3201	-126.5909	7.8567	12.5810	1.2306
1152.0000	-23.2319	1.9629	-7.1267	10.5272	-3.3503	0.9257	-32.5627	55.0708	3.8642	-1.5575	-0.4297	0.7809	-144.5680	12.8474	-3.1580	-0.7961
1160.0000	-22.3974	2.5124	-5.9151	5.4496	-6.9158	-0.7775	-33.4202	34.5373	3.9247	-4.1853	-2.8444	-1.5112	-126.1047	9.3561	-31.3444	-11.1172
1168.0000	-38.1072	7.5191	5.0906	2.7267	-2.3635	3.7883	-36.1172	44.6853	2.7757	-3.9166	-2.3545	-2.5907	-106.0478	5.3595	-28.5984	-13.6675
1176.0000	-31.3419	2.1329	-4.4225	3.4659	-3.0636	-0.6874	-34.3260	51.1300	-1.8985	-3.0072	0.5939	1.1433	-111.7291	5.4916	-7.9672	-3.1719
1184.0000	-21.8440	3.1599	-0.0785	5.6114	-0.7382	1.8551	-30.0517	30.5163	1.8426	0.2367	0.6070	0.4783	-88.4544	0.5975	-0.0688	-5.7763
1192.0000	-27.8139	6.7368	2.6946	6.9465	-1.1633	6.3962	-45.3791	43.9427	4.6640	-0.6741	-1.5879	-2.6111	-97.5111	12.8288	-8.6078	-11.6032
1200.0000	-21.4883	-0.4160	-12.5544	-1.8344	-8.7104	-2.3103	-36.9437	48.7131	1.7175	-3.9383	-2.3954	-0.7109	-92.2296	16.4559	-19.4086	-7.1992
1208.0000	-18.0011	4.6062	6.8197	2.2852	-0.7701	0.2080	-21.3788	46.2043	-4.3746	-6.1434	-1.1367	-1.5672	-65.7341	-6.1629	-19.0702	-7.6231
1216.0000	-25.5658	7.0105	16.2190	7.9824	4.9882	1.5224	-14.2779	60.2537	-9.7960	-7.0563	1.2135	-0.6611	-63.0667	-17.3081	-6.5168	-2.4577
1224.0000	-30.4518	0.2970	0.5407	-2.5371	0.2552	-4.7606	-1.4816	56.4559	-8.9786	-5.7058	1.9484	3.0821	-39.9172	-9.4922	-3.2070	8.7597
1232.0000	-20.4290	2.2822	5.9896	1.0994	2.2962	-1.9793	8.1699	51.1445	-11.1535	-8.2037	0.9268	0.6497	-39.7789	-2.5844	-10.2547	8.0099
1240.0000	-18.2571	-1.6542	-1.0445	-3.5019	-1.9860	-6.7894	15.1889	46.6210	-10.9377	-8.2412	0.7109	1.2580	-28.8499	-9.2857	-8.6003	3.7373
1248.0000	-27.3659	-2.6026	-4.9120	-14.5886	-5.1857	-8.7890	11.1389	49.5836	-4.7105	-5.5443	-0.2525	2.4620	-12.3221	-16.4122	-10.3840	0.2077
1256.0000	-20.0071	4.3005	11.4095	-6.6347	2.9661	-0.5746	20.1767	73.1509	-9.9066	-9.8396	-0.7987	-0.9190	-27.6259	-5.5918	-10.6473	4.9133
1264.0000	-18.1997	-0.2185	2.1941	-10.2876	-0.1597	-5.6946	20.9963	73.4638	-15.2873	-12.0601	-0.0294	1.0151	-13.3254	-0.1587	-15.2800	12.6120
1272.0000	-10.9501	-0.9916	-1.2152	-10.0156	-6.4099	-8.6079	8.5185	63.2771	-7.5803	-12.1003	-3.5144	-0.6976	-22.6569	-9.8394	-36.7807	0.1019
1280.0000	5.6791	2.2865	9.5037	-3.5889	-0.4471	-2.9838	29.1249	66.1670	-6.3357	-11.7619	-3.8946	-2.8993	-21.9232	-9.3063	-22.3216	1.1916
1288.0000	15.4331	-7.5528	-6.7610	-16.3656	-3.5806	-13.0490	26.4977	52.2108	-16.3890	-9.7343	1.3586	4.2475	6.4816	-17.2608	-1.2783	13.0517
1296.0000	26.9483	-11.2197	-11.8795	-20.6763	-13.4826	-22.0881	14.7727	43.5996	-20.2523	-15.4719	-1.3095	1.9684	-3.5506	-38.7455	-31.1095	-9.4314
1304.0000	12.3294	-3.6872	-0.7137	-9.5001	-9.6428	-12.8931	21.3845	74.0937	-15.6604	-18.8045	-5.1878	-3.8592	-4.4347	-17.7920	-41.5733	-8.9717
1312.0000	8.5331	-4.1314	-9.3320	0.2242	-6.0503	-8.8309	3.8387	101.9648	-11.0040	-15.4984	-4.0574	0.0321	-23.1123	14.9571	-28.2926	22.8635
1320.0000	19.7986	-4.0350	-6.4911	-2.8105	-7.8480	-11.2466	9.3738	90.3620	-6.6347	-15.3495	-5.6387	-0.0532	-35.0235	-2.9431	-40.7178	15.1883
1328.0000	4.6070	-0.8704	3.0827	-12.1962	-4.6903	-9.2710	21.5371	80.4375	-8.2397	-13.7549	-4.0836	-0.3763	-23.2886	-17.9105	-33.4462	4.1313
1336.0000	8.2508	-4.3460	-5.2963	-13.5671	-5.6807	-10.5697	13.3757	87.9096	-14.3616	-13.3232	-1.4038	1.2650	-44.9013	-8.0823	-13.3912	6.2666
1344.0000	3.9007	-2.7786	-2.2897	-10.1073	-8.9236	-11.4053	15.0249	92.5255	-14.1405	-17.2732	-3.9835	-2.3752	-62.9166	-14.1012	-30.9332	-8.2246
1352.0000	-7.4751	-0.3563	1.6505	-0.9387	-5.8502	-10.4966	8.3648	94.1275	-13.2545	-17.0117	-2.9828	-0.5605	-95.2634	-17.2046	-38.4934	0.2466
1360.0000	0.3399	-1.0854	-3.1710	-2.3883	-1.3902	-5.9224	6.8228	56.9671	-3.9188	-6.2447	0.2778	4.1998	-121.3704	-6.2544	-12.6616	12.4087
1368.0000	-13.9501	2.1487	-0.9206	-10.1268	0.6720	0.9810	12.9219	11.2086	7.6168	3.2272	1.1455	3.8495	-135.0463	-2.1207	0.7184	-0.7112
1376.0000	-7.6359	-0.9303	-3.4336	-6.2719	1.9924	-2.0925	19.7093	5.1575	-4.3119	0.7809	4.8277	5.5991	-156.8713	-3.0258	12.6914	2.6094
1384.0000	-28.2636	3.4911	0.9201	-10.9391	9.2000	6.6930	-19.0865	-58.7427	3.0480	14.8052	9.7077	9.5790	-119.7251	0.8240	30.2387	5.1136
1392.0000	-25.8743	6.0584	3.5083	-13.6227	13.8006	12.2401	-15.5466	-91.1043	19.1891	25.0736	9.9267	12.7006	-121.9910	1.3275	38.6540	14.4113
1400.0000	-31.6313	7.9508	5.8609	-12.7639	14.6903	15.4634	-30.0435	-93.1731	13.1856	23.2415	10.2510	10.2843	-100.5574	13.9349	36.1516	10.2406
1408.0000	-31.7551	7.9258	9.5527	-5.3147	18.0930	13.5127	-20.6919	-68.1638	0.4195	16.7539	12.4198	11.3497	-128.9486	14.3262	35.2727	21.4257
1416.0000	-29.2420	4.9868	3.1093	-9.7551	13.3482	9.1165	-22.8748	-88.0272	5.1710	18.8039	11.7444	12.5130	-131.9780	3.7082	27.6324	14.9332
1424.0000	-25.5297	3.6604	-0.4293	-9.2163	8.7820	7.8466	-30.4399	-68.0647	8.7055	18.3699	9.5106	9.9871	-124.0980	-0.7346	34.2764	3.1286
1432.0000	-15.3411	5.8326	5.1782	-11.0927	17.4966	13.9516	-0.2961	-57.4659	13.4761	22.1235	10.6968	12.6994	-126.7867	12.4440	55.9472	26.4312
1440.0000	-23.0122	11.2970	17.5682	-14.9306	23.1412	20.1919	-7.1275	-83.5236	9.5829	23.7867	12.5413	11.3562	-114.8322	11.5575	55.5629	18.2641
1448.0000	-24.6303	12.2326	20.8803	-6.6158	21.7984	19.5851	-8.0384	-64.2245	6.5974	19.7959	11.3932	8.3398	-129.7545	4.9337	54.1369	8.2864
1456.0000	-24.0226	10.6630	11.2809	-12.3936	21.3032	20.3691	-12.3566	-53.8519	21.7248	26.4858	10.1000	12.8456	-129.3310	17.9692	57.7201	29.7783
1464.0000	-34.0938	11.7995	11.5405	-16.2641	17.7604	18.4617	-53.8971	-65.2226	16.1325	25.1008	10.8141	12.4196	-143.1485	8.7666	38.5783	14.3024
1472.0000	-28.0893	11.7159	18.3349	-12.5103	18.7121	16.5202	-38.4691	-61.8876	-1.5777	16.8147	12.5104	9.1273	-153.6914	2.1078	39.1003	1.6310
1480.0000	-25.2185	14.0344	21.0142	-11.1836	25.6139	24.0880	-23.9545	-62.4961	1.5293	20.3356	13.4630	9.8299	-142.3705	26.9818	56.4773	19.1808
1488.0000	-24.3912	12.6616	18.9153	-0.8103	22.8011	20.4554	-23.0721	-60.9541	6.1889	19.7363	11.9592	9.7646	-155.4638	14.4669	48.4693	17.8509
1496.0000	-26.4845	6.2914	9.3614	-1.5035	13.3638	8.5971	-13.8666	-48.3393	8.4686	16.4655	9.4370	10.1140	-127.5045	-13.2363	36.2499	10.0055
1504.0000	-32.0462	3.9770	0.3243	-0.5793	8.3282	6.3045	-34.7601	-40.8870	7.4443	14.8015	8.3316	9.4166	-116.4720	-2.2148	26.8040	9.2315
1512.0000	-21.5517	0.7604	-4.7981	-0.9772	4.6238	3.6919	-18.4610	-58.7040	2.9301	11.6246	7.4897	7.0008	-106.7130	4.1502	21.5251	1.4080
1520.0000	-19.1371	1.4369	-1.5419	-9.4550	3.9092	4.5547	-6.0510	-39.4163	4.3713	10.2682	5.2119	4.4390	-58.1371	2.2772	25.2192	-3.8152
1528.0000	-21.8302	5.7197	4.5344	3.4577	7.8914	8.9567	-30.5562	18.8553	2.7088	6.2967	3.9400	3.5283	-68.3844	15.0993	22.7738	11.8830
1536.0000	-24.1662	2.8055	-5.9921	0.2453	3.9099	6.1139	-45.3217	8.5355	8.6047	9.0055	3.2826	6.0843	-63.3326	21.4015	12.3743	19.1961
1544.0000	-20.3774	1.4830	-9.7803	-8.0777	-0.5591	4.7230	-51.2436	-14.7790	14.9801	12.1034	1.7290	5.2657	-44.2937	14.4613	7.1851	6.1155
1552.0000	-16.3906	6.0772	7.4197	3.8674	8.9108	8.9804	-42.1096	-12.0124	2.0108	8.3168	4.8171	3.9919	-38.6728	6.9144	17.5868	9.3897
1560.0000	-33.7953	8.1815	9.0363	-5.5948	10.3511	10.9319	-73.2946	-28.8702	-2.3571	10.9592	7.5675	5.7567	-26.5590	8.2766	14.7152	6.2436
1568.0000	-21.0920	6.6293	1.4047	-9.9542	3.4479	9.1317	-87.3863	-24.3085	5.0279	10.8131	4.0354	4.2439	-57.6221	11.6162	0.0765	-3.6969
1576.0000	-3.2098	5.8237	6.5324	-1.8175	6.0550	7.4687	-52.8584	-26.1053	3.8731	8.3711	3.7005	3.9366	-61.5886	0.8260	2.8891	1.3346
1584.0000	-4.5205	3.3566	3.4930	-3.9403	1.7876	2.0564	-65.5043	-27.8435	-2.9615	5.4087	4.3127	3.7676	-59.7869	-12.4634	-4.1525	-9.5161
1592.0000	14.6549	1.6900	2.3652	-3.4177	-1.0708	-0.0666	-54.0203	-7.8366	-4.5534	0.5882	1.5338	1.1653	-51.7257	-11.1941	-10.0856	-11.7942
1600.0000	2.7725	9.5422	19.7532	-3.3856	9.2200	10.8545	-21.0724	-18.5369	4.3582	5.1381	0.7931	-0.6585	-6.3547	-5.0413	-0.6459	-4.3630
1608.0000	-13.1263	11.8333	23.4818	0.5199	10.0786	13.0147	-14.7455	-14.4180	3.8723	4.1400	0.6183	-2.6878	-14.3594	-3.2817	-0.0944	-10.4525
1616.0000	-2.3717	3.8117	8.4684	0.1586	4.6251	3.9162	-0.2039	-20.2407	4.3168	3.9994	1.0713	1.0377	-16.2693	-7.9788	1.0670	-0.6851
1624.0000	-4.2297	3.6928	6.4424	1.8784	4.2139	3.7484	1.9087	-47.7272	16.2008	9.7475	0.3990	3.1354	-21.7906	-14.9680	-4.0180	2.2709
1632.0000	3.1248	4.8331	11.7178	8.7554	5.8674	4.9725	22.6868	-22.1099	6.6400	2.3256	-0.2101	-0.5004	-44.5061	-6.6554	-3.2760	0.1134
1640.0000	0.0078	-0.5179	-0.3612	-4.2351	4.4125	0.9232	23.5037	-17.4689	-2.0665	2.0308	3.0029	3.5736	-30.7427	7.3716	8.0467	12.7777
1648.0000	-2.3665	-2.6079	-10.0239	-7.5275	-1.4955	-1.7786	0.9732	-26.7796	4.7546	4.4895	1.6974	4.6496	-52.1320	8.3822	-4.2134	8.1155
1656.0000	4.7572	1.6555	2.4726	-0.3255	0.6382	1.1883	20.1781	-2.7851	1.7343	-1.8021	-0.9672	-0.5329	-66.3366	4.3686	-11.6507	-1.2263
1664.0000	-12.9210	4.2520	7.7660	-3.3014	4.0431	3.3080	13.4969	-6.4053	1.5186	1.1539	1.2673	1.0484	-65.3176	-3.2381	-3.5625	-2.0532
1672.0000	-13.5584	-0.1612	-2.0630	-1.5339	1.8470	-1.0354	6.3137	-9.4311	-0.0013	2.2436	2.9113	4.1606	-61.5779	-1.7023	1.7064	6.9665
1680.0000	-8.0051	-0.6057	-2.8457	-1.5209	4.5869	0.9658	11.8986	-10.3801	-0.6995	3.0665	3.3864	4.9170	-27.5225	11.3501	8.2327	19.8885
1688.0000	-14.7347	3.9160	3.7317	3.6638	5.5059	6.2576	-7.8927	-23.3957	5.0727	5.7799	2.1563	2.0529	-28.3782	10.2737	4.1586	7.4883
1696.0000	-12.3252	1.7100	1.7590	5.3232	2.0705	3.3109	-3.2128	-16.7079	-2.5275	1.4097	1.9588	-0.8440	-20.9826	6.7609	7.7008	-5.5789
1704.0000	-9.9211	-1.8173	-6.0803	0.2936	-2.0725	-0.1271	-9.2625	-13.4986	-2.3533	2.0795	1.9139	-0.2564	-9.0422	4.8948	13.7413	-9.3020
1712.0000	-4.6948	1.2055	-0.0574	8.1671	-3.7778	0.3404	-31.5421	-6.5299	2.2679	0.3290	-1.3300	-2.9294	-7.4544	-6.5830	-7.3471	-17.4538
1720.0000	-7.5957	5.1802	9.8404	5.2179	-0.0144	2.9524	-38.6335	-1.6040	-4.2076	-2.9663	-1.1955	-3.8459	13.8664	-5.9052	-21.3840	-15.0375
1728.0000	1.9566	4.9729	5.9036	1.9384	0.2802	6.3783	-36.3537	-13.2812	3.0945	1.4723	-1.6555	-3.4736	-0.9712	7.9039	-12.4520	-12.6844
1736.0000	20.9291	3.6842	4.4924	11.5021	-0.4804	7.4464	-10.5427	-7.0935	8.9591	0.8973	-4.3350	-6.3221	-4.1491	13.9396	-3.4923	-12.8467
1744.0000	12.7107	1.5291	2.7877	12.6299	-0.8056	3.3282	3.2288	0.9023	5.5332	-0.6246	-3.0884	-4.6566	-2.1458	4.3082	0.6191	-8.9703
1752.0000	8.0296	0.3671	-0.7654	11.3002	-2.0753	1.6704	2.0017	-11.1142	9.6867	2.2391	-2.5423	-2.7539	-16.2052	-1.2334	0.9443	-9.1228
1760.0000	2.5715	4.5111	3.7806	6.8653	-0.5132	8.1688	1.0047	-12.1594	12.8278	2.6905	-4.3049	-5.7711	-9.7173	16.1377	-4.7974	-13.3122
1768.0000	-8.4804	7.0438	5.2918	10.3675	-1.0178	10.6981	-1.7955	12.2819	14.0659	-0.1889	-6.4583	-8.2605	-19.5634	28.0158	-14.3173	-13.3733
1776.0000	-6.5977	6.2028	8.0717	21.0222	1.9798	7.9453	-1.4148	0.7674	9.5554	-0.8893	-4.3394	-5.7718	-8.1519	16.0161	-16.5864	-2.4179
1784.0000	0.7568	3.2463	7.3905	15.0384	2.0603	3.2300	-14.6511	-44.5273	1.9514	1.8959	-0.0079	-2.2276	5.2958	-6.1440	-12.1824	-8.8563
1792.0000	13.0992	2.3642	6.5918	8.4276	-3.0615	1.4425	-12.7548	-21.1587	4.2695	-0.6386	-3.3326	-5.6781	10.5091	-14.0531	-12.6691	-24.9520
1800.0000	7.1138	9.8032	20.3029	8.9558	3.9897	10.7499	0.1115	29.7159	8.7898	-2.6586	-6.3039	-8.6642	30.2537	2.2830	-10.8590	-12.9299
1808.0000	2.3730	8.7719	15.8267	9.6353	6.3980	12.3215	11.0457	27.2073	13.0648	1.5793	-4.5690	-5.7380	10.9258	12.3003	5.7690	-0.6414
1816.0000	11.2017	1.7650	0.8851	11.0718	0.6863	6.1414	25.7091	-2.2753	17.6590	4.3573	-4.3729	-3.6517	2.0915	12.0429	9.9188	0.0684
1824.0000	-0.3742	4.6671	5.0897	8.6001	0.7046	6.7621	7.5003	-17.0726	14.7609	2.9315	-4.2471	-3.8994	-7.8345	10.4936	-13.6879	-4.7836
1832.0000	-10.7333	3.8650	4.6686	2.8613	-1.4853	2.7613	5.6502	18.3719	5.8818	-2.5896	-3.7177	-3.8589	-24.1620	3.4797	-16.3080	-8.7918
1840.0000	-16.4425	1.4970	1.2072	-4.0281	0.3701	1.0155	26.8483	36.7494	0.8190	-3.3828	-1.5342	-1.0948	-19.0954	9.1278	-0.8706	3.9699
1848.0000	-23.5941	4.3718	3.6420	-4.5240	1.8186	5.0564	16.0933	12.9621	1.4295	-1.6471	-0.9664	-1.7411	-40.3180	18.7380	-9.1232	-0.3950
1856.0000	-16.7215	2.1133	0.4371	-1.6840	-2.1180	1.5049	17.4273	20.8825	1.2435	-4.2138	-2.7107	-3.2843	-28.5347	12.6733	-13.8696	-5.7975
1864.0000	-1.8072	-3.6231	-6.5943	-2.9762	-2.4004	-4.8786	31.9268	16.9422	3.0736	-1.4263	-0.9925	1.8356	-8.5013	-1.9069	0.2950	9.2552
1872.0000	1.7567	-5.5332	-12.8383	-5.3070	-6.1897	-5.1362	24.2396	9.0368	7.0515	0.8645	-1.9084	0.6665	-0.6898	1.5695	6.4876	0.3427
1880.0000	-15.9075	-0.9222	-8.0873	-6.4720	-6.6599	0.0409	11.9186	26.9755	8.7240	-1.2426	-4.7171	-3.7632	22.3735	15.5389	-5.6314	-7.3949
1888.0000	-17.2004	-1.2115	-2.2341	-0.5378	-3.9309	-4.7912	13.1566	14.8666	2.6656	-2.6172	-2.0205	-0.3614	14.8659	-11.0125	-13.2758	-1.9308
1896.0000	-8.2302	-10.0438	-14.8472	-2.9344	-10.4893	-16.3285	8.1284	8.9950	-10.1206	-6.0290	0.6949	1.9582	39.6676	-27.6547	-6.2678	-6.4824
1904.0000	-8.2439	-9.1380	-18.5028	-14.5531	-12.9245	-13.4127	-5.3344	4.7634	-7.2298	-5.4161	-1.3295	0.4378	58.0062	-7.8826	-18.6273	-8.9481
1912.0000	-2.9734	2.1398	7.4940	-7.9569	-4.3750	-2.0054	7.9063	-7.5694	0.0701	-5.0844	-4.4185	-5.1878	54.5069	-15.4592	-32.1333	-20.3772
1920.0000	-15.0909	6.9990	18.6444	1.9360	3.1889	5.1801	19.3035	18.6898	-5.1713	-7.3799	-3.6237	-7.8295	77.9607	-2.1665	-16.6073	-12.7384
1928.0000	-12.1218	1.0008	1.5810	2.7169	1.7928	1.9327	20.7971	18.6964	-1.5606	-3.8575	-1.9127	-2.0920	61.7062	18.3139	-7.2083	13.3317
1936.0000	7.1367	-0.6480	4.0845	7.2928	1.1178	-1.9033	23.1332	-2.7256	0.0542	-2.7193	-1.7552	-1.2567	60.8293	-7.2685	-7.9730	7.3452
1944.0000	3.0411	3.4381	10.3816	5.4023	4.3106	3.4385	8.8832	1.9558	0.6538	-1.3170	-1.4724	-2.1020	52.1935	-1.5839	-5.4575	5.1232
1952.0000	10.8283	-1.1647	-3.1677	-4.7622	-0.7643	0.1081	17.3984	0.3907	9.0687	1.7092	-2.7336	0.4446	31.6233	7.0335	-5.0213	10.5345
1960.0000	17.9839	-4.4340	-1.7904	-3.0495	-2.2813	-6.5889	30.1672	21.2413	-6.0391	-6.3714	-1.7586	-0.6156	57.4250	-8.2544	-3.9691	6.8735
1968.0000	14.6257	-3.0091	0.2750	8.6631	1.1634	-4.6316	21.7741	39.6254	-15.6996	-11.0654	-0.3031	-0.8884	36.0575	7.8948	-6.7729	18.5550
1976.0000	12.0627	-4.9669	-7.9152	10.9123	-4.2090	-6.2628	18.6897	21.0461	-1.6234	-5.9926	-2.6644	-0.9119	26.0487	3.6232	-10.2448	11.2768
1984.0000	4.5644	-4.2303	-3.1788	6.1072	-5.2109	-8.0880	17.9046	33.8712	-8.1445	-9.1285	-2.2620	-2.5056	33.2505	-11.1365	-9.1390	-2.1882
1992.0000	5.0292	-3.6975	-2.4072	-1.7851	-1.6656	-6.2616	27.0216	57.0472	-16.1592	-12.1026	-0.7180	-1.1483	24.2353	6.2108	-4.6897	11.2677
2000.0000	-8.9807	-5.3047	-8.4560	-9.9163	-4.1709	-7.7978	15.1578	45.0719	-10.3361	-6.9025	-0.0115	1.0819	46.1401	1.0584	0.9958	8.8904
2008.0000	-14.4402	-6.1026	-8.6570	-6.4332	-6.6423	-11.6496	-6.0614	28.3916	-12.4597	-5.8609	1.7619	2.1101	17.6740	-21.6695	-0.9982	-4.9855
2016.0000	-4.3316	-5.8102	-7.6832	-3.1410	-7.9752	-12.2754	-3.4810	25.4013	-7.1526	-5.8760	-0.2003	1.3983	1.9799	-27.9890	-10.2693	-7.6268
2024.0000	-11.6694	-4.7276	-7.9252	-3.5113	-8.2966	-10.7858	-0.1933	53.1411	-4.2823	-7.4714	-2.3076	0.1557	18.8096	-17.9036	-13.3330	-1.9721
2032.0000	-7.9662	-6.8938	-9.4529	-3.1859	-5.4841	-12.0220	22.1837	71.7550	-19.5302	-13.8069	0.2707	0.7774	10.8032	-1.4952	-5.2529	10.9679
2040.0000	-6.7658	-6.9488	-7.7813	-7.3521	-4.3619	-12.1950	23.4516	36.5688	-22.2759	-12.1858	2.0190	1.6930	18.6514	-5.8769	-8.8795	7.4264
2048.0000	-1.8619	-5.7460	-7.6463	-2.7805	-8.4590	-12.7535	7.2538	38.3614	-10.7832	-10.3728	-1.3783	0.1869	-7.9734	-19.1442	-21.5229	-4.1669
2056.0000	10.6402	-6.2274	-9.1995	3.5036	-11.0109	-13.1671	18.8597	93.5813	-6.3983	-14.9293	-5.6229	-2.7116	-19.5713	-13.4933	-20.0504	-0.9175
2064.0000	-3.3299	-2.3431	-5.5049	1.4574	-6.8891	-6.9211	9.9680	81.3534	-5.3563	-12.3587	-4.6921	-2.5962	-15.0029	3.9331	-22.3002	4.5994
2072.0000	-1.2664	-1.9455	-5.6159	0.7841	-4.3723	-4.6285	9.3495	40.6591	-6.3421	-9.1045	-2.3939	-1.1200	-31.1098	11.4122	-22.5649	6.2269
2080.0000	9.1946	-6.4901	-13.0008	-1.7476	-9.1898	-10.5839	7.5390	66.6889	-6.6075	-11.0253	-3.6205	-0.5212	-8.6163	2.5025	-17.9518	7.0680
2088.0000	5.0390	-4.0241	-11.2027	1.4255	-9.8817	-8.8990	-2.1654	80.5204	2.1396	-10.1139	-6.2362	-1.1504	-19.7997	1.9117	-29.2114	8.2701
2096.0000	4.4523	3.1972	5.7060	8.7031	-1.0548	1.1289	30.7432	57.1591	5.9389	-8.4317	-6.6129	-4.6833	-26.5667	8.3803	-24.6503	5.8081
2104.0000	3.7215	-0.7770	1.4404	4.4089	-2.5908	-3.5768	32.6453	76.6427	-4.8371	-11.4267	-4.4139	-3.8991	2.0779	2.5520	-7.9079	5.0410
2112.0000	8.9355	-7.5240	-12.9207	-0.9045	-9.1551	-12.0743	19.4770	98.4791	-12.5285	-15.4988	-3.8856	-1.4842	5.8376	4.9228	-11.8583	11.0134
2120.0000	-3.0475	1.8429	4.9045	0.9940	-1.0837	-0.7712	24.6679	71.6664	-5.5749	-11.7623	-4.7322	-4.4883	15.0081	10.5402	-19.1685	6.5597
2128.0000	-6.4514	2.4853	5.5019	1.3340	-2.4055	-2.0032	15.6451	67.5575	2.1445	-8.8297	-5.5618	-3.2789	2.1706	-4.3151	-24.6799	3.2245
2136.0000	13.6330	-5.2208	-6.2881	4.3960	-8.4290	-12.5821	29.4560	102.0247	-1.9662	-14.9404	-7.0077	-1.4283	8.2050	-11.9718	-28.7089	15.0459
2144.0000	4.6670	1.7118	8.8883	12.5347	1.2216	-3.8176	26.8298	103.4189	-6.5887	-15.1517	-5.3076	-2.7189	21.9363	-2.0930	-24.1153	23.2172
2152.0000	-0.0562	-0.2617	1.7499	6.9024	-0.7335	-5.0904	12.3734	91.9048	-5.9900	-11.9411	-3.5418	-0.3135	1.2390	0.3619	-18.6809	21.9707
2160.0000	6.1693	-4.5847	-5.5281	-0.9792	-6.3645	-10.2289	29.1906	109.1242	-8.2152	-15.1658	-4.9472	-1.5369	8.8315	-2.7028	-14.8280	14.0872
2168.0000	2.8261	-1.3628	2.5636	4.1336	-2.8212	-7.2436	31.0106	105.3246	-9.6742	-15.2214	-4.1140	-2.4744	-10.0344	-7.6710	-12.4355	10.0735
2176.0000	6.8400	-6.5096	-9.0280	2.6395	-7.5006	-13.0139	25.0528	82.3542	-11.4101	-14.3785	-2.6958	0.1421	-32.0086	-8.9073	-16.3094	9.6854
2184.0000	-1.8284	-4.7008	-7.8022	-1.1036	-7.5584	-9.9487	19.3349	58.7120	-14.3118	-14.2946	-2.2878	-1.8900	-30.1899	2.0457	-23.0499	0.1223
2192.0000	-9.5694	-4.0754	-8.3164	-6.6501	-6.0081	-8.1685	10.4278	16.3056	-9.0028	-6.5399	0.4615	1.0321	-48.8558	-4.3777	-14.4859	-4.7669
2200.0000	-2.9587	-8.0847	-16.2716	-10.3754	-8.2912	-11.7653	3.3368	6.6656	-1.2817	0.0662	1.7007	4.9131	-47.5232	-18.8535	3.9888	-3.6154
2208.0000	8.3604	-2.8186	-9.0785	-4.3075	-4.6240	-2.1090	-9.8354	5.5209	3.9336	2.0385	-0.1618	0.9605	-54.6716	0.3582	7.8325	-7.4263
2216.0000	19.9299	-3.7029	-13.2791	-9.9370	-6.6022	-0.1369	-13.0274	-27.1660	5.9761	4.4214	-0.6680	-0.4029	-51.5895	12.8603	5.6824	-15.2474
2224.0000	15.5341	0.8486	0.3882	-3.5307	-0.0507	3.8995	-15.3642	-22.5370	3.0567	4.8885	0.8996	-1.0408	-35.4184	0.0729	16.1359	-15.9866
2232.0000	12.6570	9.0799	17.8528	5.9587	13.9143	15.3931	-17.5572	-41.2094	7.7924	11.6404	3.8521	1.2886	-39.4294	5.2039	29.3455	2.6496
2240.0000	22.8931	1.2497	0.5643	-7.9103	8.9842	8.9412	-17.1243	-108.9562	9.9924	18.0053	6.3279	6.7185	-16.9527	8.2696	25.6096	7.8857
2248.0000	32.6732	-2.6116	-3.4544	-3.5916	3.4001	3.1854	-22.2931	-117.1074	-0.7257	12.3560	6.2437	3.7085	-3.9681	-0.3950	20.1125	-8.7751
2256.0000	28.9914	-3.6650	-7.4367	-5.1757	-0.2254	1.7077	-32.7144	-102.1201	1.4799	12.2214	5.0193	2.8220	0.4002	-2.3495	21.5351	-15.0488
2264.0000	24.1254	-5.4591	-13.2233	-14.9578	-5.5099	-2.3668	-43.7407	-91.4712	8.4534	13.6845	3.0668	4.0964	11.6701	-13.0020	12.4920	-18.5757
2272.0000	29.5821	3.9429	10.6436	1.8480	7.1694	9.3755	-23.1574	-63.6298	2.9426	9.0433	2.5138	-0.8016	22.4255	-1.0762	19.8361	-9.2978
2280.0000	19.4153	7.5360	14.5860	4.0708	15.5237	18.0802	-17.4340	-65.7937	3.2434	12.4533	4.5834	0.3540	40.6995	28.0217	34.5785	11.0797
2288.0000	17.0895	2.1266	1.0070	0.1579	6.9147	9.7760	-46.3572	-88.9315	3.7719	13.4833	4.7959	2.7621	34.8264	16.9865	18.0542	3.2014
2296.0000	28.2448	1.1556	5.0318	4.1668	5.7769	7.3911	-30.3660	-109.4084	-1.9290	10.0269	4.3574	-0.2176	55.5147	4.4563	13.2296	-9.7533
2304.0000	24.5494	2.5905	10.6810	2.3275	10.7607	10.5583	-5.0164	-104.7048	-2.1774	11.3540	5.4870	-0.0742	77.2229	6.0596	31.2455	-3.9481
2312.0000	21.3637	3.2290	11.4565	4.5320	9.6499	9.1786	-18.5343	-94.6047	2.7705	12.4475	4.5861	0.8323	71.2243	-6.1545	26.0065	-4.2997
2320.0000	15.2309	2.8662	6.3826	-0.7952	4.8167	8.5214	-25.9920	-124.6501	11.2904	15.2095	2.3084	-0.0095	79.9217	-4.3864	6.7231	-13.3921
2328.0000	17.8435	1.9749	5.8610	0.1491	3.9287	7.4400	-9.1160	-112.5557	6.7981	11.5567	2.1047	-1.5069	56.6721	-1.7649	9.2561	-17.2186
2336.0000	19.0748	0.4602	7.9500	2.3514	3.3142	2.7944	-3.0844	-61.6567	-7.1447	2.9952	2.8769	-2.3942	46.9674	-11.2547	15.1442	-17.9811
2344.0000	8.7793	-0.2740	3.1133	-6.2247	1.0810	0.7252	-8.4340	-55.8671	-4.3695	3.5145	2.4481	-0.1886	39.5110	-8.9291	3.6018	-12.8045
2352.0000	12.6486	2.6841	10.1228	-2.8068	8.3047	5.0662	7.1846	-67.8700	-0.6873	7.0339	4.2317	2.5552	5.9827	-7.2904	10.2609	1.0361
2360.0000	-3.3804	6.7021	16.5727	-5.3548	12.2468	10.2298	-2.5848	-88.3467	0.0805	11.1714	6.3633	2.7632	-3.1968	-7.1655	16.8553	-5.0900
2368.0000	-11.2561	6.4458	10.1666	-7.0327	6.5829	9.8703	-16.6630	-86.3039	8.1013	12.8033	4.0753	1.3472	-35.0163	-4.6291	9.5702	-17.3856
2376.0000	7.3612	1.5585	4.6727	-1.5353	7.1756	5.4151	10.7161	-53.9176	5.8612	10.3895	4.4609	3.6540	-33.7994	-5.3658	28.0512	0.7452
2384.0000	2.1816	0.3349	2.6392	-6.1156	7.5262	3.8600	11.1023	-50.1732	2.3845	9.9554	5.6051	5.3150	-13.5104	-3.7950	29.3622	7.3696
2392.0000	-0.4250	4.7005	9.0480	1.2378	8.4276	8.3243	-0.6872	-40.4106	6.6371	9.2965	3.4080	2.2916	-31.9756	-0.5882	20.4920	1.3826
2400.0000	2.3635	3.3784	3.8810	5.2120	9.8284	9.2866	-14.8151	-25.6499	8.1033	11.6774	4.5071	4.6968	-28.3617	10.4346	34.0136	16.0464
2408.0000	5.9110	-1.3835	-11.1793	-4.5456	0.0094	3.0616	-42.0124	-30.0600	8.1952	10.1072	2.7562	5.1265	-40.8680	16.3540	12.0682	8.3632
2416.0000	2.6128	1.7356	-2.2137	-2.8236	-1.8018	3.2661	-30.2509	-6.6898	3.2002	2.1030	-0.6342	-0.8412	-34.8996	10.7365	-6.2422	-7.9221
2424.0000	-15.9339	5.7776	9.2393	2.5982	8.8050	8.3217	-13.0398	10.3536	0.5372	4.3258	3.0639	1.9544	-20.2260	9.0854	18.3244	10.8561
2432.0000	-10.8715	4.1670	7.8287	-0.5487	10.7377	6.2020	-17.7136	-12.3542	2.8698	9.6783	6.0911	6.9913	-36.9307	-5.5174	27.7344	17.2048
2440.0000	-18.9218	2.7150	4.1992	-6.2964	4.2983	2.0316	-34.7041	-13.6822	-1.8190	6.2335	4.9518	4.6945	-22.2533	-12.7005	12.3986	-0.4550
2448.0000	-28.7199	3.4731	0.4832	-1.9347	1.9403	3.8998	-31.1792	10.6503	-1.9548	1.6567	2.1157	1.3740	-27.2773	12.0324	-0.2960	2.1284
2456.0000	-16.8300	5.5525	8.0647	-1.2221	6.9879	7.8169	-4.7531	-10.9788	2.3331	4.5439	2.2782	1.2101	-24.2502	9.9331	7.6363	4.8348
2464.0000	-33.7367	5.7810	11.4476	-7.0873	4.3963	3.2045	-28.2890	-40.3654	1.1428	7.4710	4.4668	2.7488	-20.2814	-26.8798	2.4435	-16.2642
2472.0000	-41.7034	4.3015	4.9800	-1.9507	-2.3555	-1.5662	-33.6762	-0.5663	5.5107	2.7719	0.5582	1.3437	-43.5770	-28.9261	-16.6816	-17.7306
2480.0000	-28.7983	3.2249	1.3019	0.7810	2.7378	4.0278	3.2493	22.3990	9.0897	3.9272	0.0034	1.4637	-19.5976	6.0582	9.1901	8.1231
2488.0000	-9.5263	0.2415	-3.8558	4.7145	4.5725	5.1191	-1.4661	-0.1859	2.7253	5.8426	3.1641	2.5792	-25.0178	19.1315	29.7031	12.4548
2496.0000	1.7274	1.2835	0.9323	6.5709	1.0707	2.5010	-9.2585	7.1388	0.6796	0.6142	0.3203	-0.6329	-32.9040	4.3520	7.1862	-1.6540
2504.0000	-18.0202	4.7494	7.0185	0.6535	4.8579	5.1252	-6.4960	6.1739	3.9470	3.0291	0.9666	1.1162	-18.4908	1.8477	3.1145	4.8926
2512.0000	-16.9322	2.7500	2.7868	0.7936	7.4961	4.7850	-6.1836	-28.2926	4.2188	8.2281	4.5811	5.5583	-31.4148	3.6606	13.4594	15.2185
2520.0000	-14.0449	-0.6819	-2.2262	-12.4904	1.0708	-1.0407	-10.7956	-49.1609	3.6374	8.6060	4.0655	5.3261	-4.9257	-14.1014	6.4281	-2.4725
2528.0000	-14.2830	-4.4385	-9.9607	-20.6653	-5.4272	-6.8553	-15.8954	-26.9374	-0.4716	4.7225	2.8727	4.6611	6.0831	-18.0115	1.6810	-9.9684
2536.0000	0.4795	-2.8423	-5.5123	-11.1422	-0.4765	-2.4515	5.6594	5.0758	-1.1570	1.3412	1.3083	2.9888	16.5213	1.4667	8.5493	8.1127
2544.0000	-13.0926	1.9585	4.1247	-13.3779	3.9430	2.9955	8.4294	-6.2936	6.0998	5.8515	1.0346	2.4635	46.7104	-3.7986	11.7719	6.3918
2552.0000	-9.7499	0.3726	4.0526	-10.1874	3.6296	-0.1331	1.6812	-12.2033	2.3219	5.8389	2.7278	3.7317	43.5155	-18.2175	16.6838	3.5418
2560.0000	-1.0073	0.4553	4.6508	-6.9239	5.5091	1.8070	2.2483	-15.0672	-1.9280	4.2453	2.9505	2.8487	60.6380	-5.1782	16.8805	9.7086
2568.0000	-10.9887	-0.7020	-4.4174	-13.0405	-2.0589	0.7396	-8.3228	-45.4316	6.0762	6.3232	0.2959	0.8614	52.2688	2.2127	-3.6302	-6.3187
2576.0000	-2.2692	-2.5963	-7.8014	-9.7502	-5.7063	-1.7197	6.9227	-21.2399	4.0943	0.7204	-2.3531	-1.9280	43.8002	7.9746	-10.1917	-8.6218
2584.0000	-11.7992	1.9597	1.5865	-6.2437	1.7272	4.6276	12.1595	12.7234	1.1274	-0.2667	-1.3566	-2.2047	51.2804	19.6160	3.7329	4.4551
2592.0000	-24.7538	2.4512	2.0841	-0.1062	1.6568	3.1566	4.5762	-5.8328	6.3402	3.5538	-0.0725	-0.0832	19.7694	2.6787	3.0119	0.5586
2600.0000	-32.2762	1.3168	2.2015	5.8293	1.9315	-0.6139	15.7140	0.8239	4.2019	1.2833	0.4057	1.4465	20.1390	-6.5791	-2.8932	8.2124
2608.0000	-36.2517	-0.3704	-4.4951	3.1553	2.0587	-0.9909	7.6767	7.4700	5.2768	3.6234	1.8560	4.5669	6.8020	2.9941	4.6661	19.4618
2616.0000	-16.6037	-2.3077	-6.9438	2.5810	-0.6397	-2.5728	-2.9362	-9.7328	7.6881	5.9521	1.7005	4.2841	-3.6147	-7.8639	10.3359	8.0920
2624.0000	-18.0824	1.3611	4.3103	4.0611	2.7489	0.0991	3.4426	6.4704	-1.1462	0.1332	1.0754	0.8151	27.6866	-6.9919	3.2918	5.4483
2632.0000	-17.5465	-0.5742	-1.0079	6.0799	2.6059	-0.4833	11.7009	14.1180	-4.9913	-2.2135	1.3254	1.1640	29.4765	9.8665	3.0202	16.1066
2640.0000	-12.7423	-2.7171	-5.8387	6.0164	-1.8697	-3.0557	4.8358	1.9965	-0.8212	-0.8231	0.0579	0.3517	36.7714	2.5243	0.6302	6.2323
2648.0000	-27.7390	-0.1404	-1.6025	8.5549	-4.7248	-3.6610	-4.6376	24.0723	-1.7532	-4.8889	-1.9598	-2.8604	18.1384	-6.5236	-13.0768	-8.5772
2656.0000	-27.2462	-0.1569	-4.5359	15.0329	-5.5565	-2.6065	-10.2321	38.4773	-2.1206	-6.6202	-2.7145	-3.9412	-4.5067	6.0956	-14.0740	-6.0211
2664.0000	-30.9781	2.1263	-2.7151	14.2513	-4.7507	0.6360	-30.5786	22.2280	2.0174	-3.4541	-3.0302	-4.1204	11.7260	10.0150	-20.2127	-7.2576
2672.0000	-29.4069	3.3817	2.1215	10.0544	-2.3117	1.7324	-16.6397	10.0767	2.8149	-2.0413	-2.3055	-3.5655	5.9527	3.2040	-17.3233	-8.9410
2680.0000	-21.1804	5.0996	5.2710	7.4826	1.0813	7.5486	-6.9854	-0.5416	3.8152	0.7672	-1.5976	-5.0324	2.1696	15.2268	0.7885	-12.2965
2688.0000	-29.0735	5.5434	2.1964	11.4261	-3.9118	6.4125	-27.5843	16.0275	4.5335	-2.4645	-4.1093	-7.7093	-11.9552	18.3888	-15.8194	-21.6642
2696.0000	-34.7490	1.9280	-1.8937	14.3989	-5.6528	-1.4634	-11.2069	38.7742	4.0342	-5.1797	-3.9854	-4.1473	-14.2314	1.4350	-21.4168	-8.5303
2704.0000	-47.6582	4.5164	1.7183	6.6516	-0.3776	3.1974	-15.5957	15.3043	9.2540	2.4739	-1.2735	-0.8407	-1.0429	2.0775	-8.1803	-2.1267
2712.0000	-46.0392	3.2583	-0.5352	4.2112	-4.1876	1.0267	-8.7985	16.1110	4.3287	-1.9844	-2.5366	-3.5649	-4.9865	4.9532	-18.2517	-12.7839
2720.0000	-39.0420	0.3297	0.5169	8.5294	-3.0083	-2.8863	30.3305	39.4109	-4.9572	-8.3510	-2.2566	-4.3261	21.8171	1.9749	-9.5343	-4.7746
2728.0000	-49.0397	4.4910	5.3328	12.1556	1.6708	3.4172	12.3185	16.4676	2.6368	-1.5738	-0.9935	-2.9332	14.3220	6.0302	-5.1772	-1.1006
2736.0000	-50.4931	3.0883	1.5183	10.8638	-0.7310	-0.3301	4.2160	3.2402	4.3520	-1.2135	-0.9792	-0.6297	-2.9067	-0.9029	-21.5882	1.2821
2744.0000	-62.1589	1.2463	-0.0180	2.2902	-1.8168	-4.6006	6.2193	20.4616	-3.6032	-4.0432	0.6119	0.9348	15.1370	-8.8061	-19.7419	2.0819
2752.0000	-64.4368	1.4727	-1.5580	-2.2051	-5.3668	-4.1544	-1.7734	35.3235	-5.8382	-6.5376	-0.8231	-2.2568	10.6744	-3.7191	-20.5813	-11.8246
2760.0000	-50.8876	-1.1627	-4.8066	-4.9570	-4.8954	-5.4405	29.5201	35.3592	-7.0409	-8.3356	-1.3426	-1.8350	23.3474	6.2188	-18.7634	-1.0425
2768.0000	-53.1439	-0.6773	-4.5211	-7.0719	-2.1536	-3.3521	32.2781	2.8750	-4.3296	-3.4826	0.7159	0.3427	15.8625	7.9801	-13.2934	1.9547
2776.0000	-54.8559	2.6248	3.0399	-3.6081	-1.7877	-1.5771	10.3078	-19.1038	-2.7249	-1.3164	1.0772	-1.0532	-3.5417	-9.7627	-17.8331	-15.7646
2784.0000	-48.4256	2.1585	6.0988	-1.2188	2.4849	-2.9622	9.7676	6.5286	-5.3902	-1.2242	3.0043	2.5777	5.9699	-19.7011	-4.7120	1.2140
2792.0000	-23.1249	-3.8988	-5.9896	-0.7220	-0.5803	-7.6200	15.4735	49.7158	-7.6095	-4.5668	2.0411	4.3369	4.6267	-7.1586	6.4615	18.7850
2800.0000	-3.1198	-2.4688	-2.0693	4.1472	-0.1071	-4.9596	24.7483	74.3913	-8.3698	-9.3604	-1.1698	0.4259	10.1165	4.5119	0.9864	20.1782
2808.0000	-0.0548	2.7973	6.1781	10.0364	6.3146	3.4590	25.9037	68.9855	-0.0202	-5.1350	-1.6403	0.1194	-8.6427	16.0086	5.7019	28.3040
2816.0000	10.0715	0.2994	-3.7593	-0.3279	2.3569	3.7399	16.9657	44.8109	7.4447	-0.2220	-2.4048	1.0221	-15.4663	27.4993	6.1991	24.8398
2824.0000	16.6868	-0.2221	-2.6941	-7.7966	1.4947	1.4097	-3.6013	16.8559	2.9911	0.5931	-0.8701	2.4849	-2.9248	15.0111	-4.0103	18.2882
2832.0000	39.5095	-1.8734	1.8856	6.0757	1.8534	-3.3904	-2.6669	24.9589	-5.8726	-4.9710	-0.3722	1.9708	-14.5945	-5.5611	-6.6924	17.1999
2840.0000	51.3849	-2.9718	0.6305	5.4061	-0.4220	-4.1759	12.5232	45.9021	-5.2567	-8.6250	-3.2975	-0.6813	3.8457	-0.0266	-9.8779	16.7246
2848.0000	45.6118	-2.4607	-3.6690	-2.8167	-1.3370	-1.9378	-7.5578	19.4840	4.2934	-1.2927	-2.9611	1.4959	0.6775	3.6882	-9.7816	15.3335
2856.0000	62.8639	-7.8477	-11.2886	2.0901	-7.1022	-8.2422	-15.4942	6.7801	-3.4660	-4.3829	-2.4727	0.1590	2.7244	-5.2143	-7.8301	2.4194
2864.0000	57.4064	-6.0120	-4.6323	0.8223	-7.4433	-7.9085	-4.5525	20.3747	-15.3224	-12.5981	-3.6231	-4.7134	30.0260	-0.9955	-20.3888	-8.0772
2872.0000	53.8133	-3.6908	0.2002	4.8581	-4.0995	-5.4338	-5.2710	26.9138	-13.5904	-11.5406	-3.1952	-4.1406	22.6550	-2.1656	-16.9040	-2.8612
2880.0000	64.6203	-5.4994	-2.6257	15.6783	-2.8798	-6.5583	-15.5594	46.9825	-14.9994	-12.3694	-2.8338	-2.6472	35.8878	1.5493	-9.7286	12.6277
2888.0000	53.6741	-5.9393	-10.5128	9.4945	-6.5133	-6.7608	-31.0895	16.7501	-6.1534	-8.1108	-3.8354	-0.9365	26.5614	10.8726	-29.7079	13.4143
2896.0000	63.0201	-12.2013	-21.3785	2.7524	-15.5245	-13.9643	-16.2097	-10.0811	-2.0079	-6.5648	-5.1435	-2.1742	31.0011	-6.2210	-25.2750	-8.9985
2904.0000	62.6299	-6.3527	-3.5763	13.1445	-7.4732	-8.0730	-2.8628	60.5123	-15.2420	-15.8848	-5.6223	-6.9906	58.5921	-0.6719	-11.6073	-2.8755
2912.0000	47.5285	1.9551	7.1331	13.4772	1.0770	1.6514	-14.3194	78.4411	-8.8187	-13.7102	-5.9517	-5.2597	28.2104	20.0519	-24.4653	18.4656
2920.0000	55.3800	-5.3861	-6.4649	4.0639	-8.3433	-7.7086	-15.4936	32.8348	-3.1346	-9.3986	-6.1206	-3.3855	44.0668	-3.2185	-27.4617	1.6063
2928.0000	49.4496	-4.2587	0.6886	10.4235	-9.3213	-9.2700	-9.9332	56.7773	-13.3491	-16.5588	-6.7421	-7.9524	57.0479	-15.5016	-27.5953	-14.1972
2936.0000	37.7546	-0.4526	6.1102	9.4511	-5.0339	-3.8733	0.5195	85.3071	-14.9265	-18.4490	-6.9049	-9.0591	44.2624	1.7313	-23.4733	-6.5930
2944.0000	37.0950	-3.9891	-0.1437	5.5689	-5.1273	-7.3681	0.3502	68.9282	-13.2709	-14.2745	-4.6695	-4.6746	64.9526	-4.9864	-14.3115	3.0885
2952.0000	41.3657	-5.7959	-1.9347	8.0769	-6.9024	-11.7873	4.6021	57.7952	-8.3121	-12.8396	-4.9470	-2.4198	48.7051	-23.0169	-21.5465	4.1496
2960.0000	44.9104	-8.7390	-8.5517	-5.9231	-13.8408	-15.0914	20.5299	71.5207	-9.5476	-16.3461	-7.4319	-5.4571	48.3437	-20.4376	-23.7185	-12.3606
2968.0000	39.9861	-9.1393	-10.3906	-4.3879	-15.3180	-15.8016	15.1439	87.5673	-18.8251	-21.7857	-7.3331	-7.3098	42.8055	-8.8168	-30.0058	-14.1535
2976.0000	32.9325	-6.5698	-4.4440	2.4495	-10.0880	-13.8838	18.9027	72.2985	-16.6117	-19.5362	-5.7814	-4.7319	29.5339	-12.7244	-34.6566	-2.1365
2984.0000	16.0624	-2.9545	3.3706	-8.6821	-5.8065	-9.1237	24.8071	73.8105	-16.4892	-16.3329	-4.1967	-4.8532	52.7373	-15.1119	-18.3545	-7.2025
2992.0000	7.4481	-0.4438	3.1761	-3.3273	-4.7610	-4.3674	16.3614	106.0830	-18.2442	-19.1381	-5.1702	-7.1583	28.9666	9.7210	-17.4232	-2.7719
3000.0000	11.4303	-0.8999	-0.7337	-3.3878	-5.7125	-4.0530	15.2385	100.5225	-13.0698	-17.4988	-5.9392	-6.1589	4.9939	16.7428	-23.0151	1.7673
3008.0000	14.3440	-1.5572	3.6585	-11.2876	-6.0013	-8.7382	10.4044	79.0588	-13.1847	-14.2163	-3.4595	-2.9930	-15.2540	-21.7263	-18.5621	-11.2918
3016.0000	21.5925	-6.2102	-3.7793	-11.2693	-9.5857	-15.3304	13.0909	75.4283	-12.6043	-13.6273	-2.7002	-0.2183	-30.7246	-36.3993	-15.9602	-10.5049
3024.0000	15.4085	-5.3181	-6.8136	-16.1881	-6.3205	-8.7812	24.1319	58.4176	-9.0718	-9.0583	-1.7675	-0.1136	-16.9511	-7.0462	-1.6220	-2.1788
3032.0000	11.8057	0.6015	4.5366	-8.6499	3.4393	1.7816	35.4555	10.0000	-4.4481	-1.5857	1.3122	0.0293	-50.4158	2.0804	15.4750	-1.4858
3040.0000	19.2274	-1.6516	0.2521	-6.4339	3.8676	1.1356	39.5207	-46.7331	2.9435	6.2689	3.4788	3.1459	-66.0915	-6.0036	24.1318	-2.3994
3048.0000	21.1437	-1.0837	0.4218	-9.3692	6.8312	3.9597	33.0177	-70.1840	5.3663	11.5218	5.6233	5.3554	-69.4463	-2.9635	35.0557	1.0963
3056.0000	23.3913	2.6976	8.6621	-3.2025	13.7088	10.0634	39.9897	-90.9680	8.7885	15.4977	7.0811	6.0624	-82.6247	0.7569	43.1533	7.8180
3064.0000	17.6446	2.6569	5.0197	-12.8378	12.8543	12.4548	36.2897	-121.3623	14.8619	20.8670	7.1313	6.4466	-57.5358	9.2368	44.7921	4.3261
3072.0000	20.9454	0.2457	-1.9575	-11.3602	8.5836	9.4357	17.4761	-101.9689	16.9526	20.5708	6.0419	6.7911	-60.7467	7.5107	45.0734	3.6135
3080.0000	30.2398	-5.0487	-13.2087	-1.9263	1.7030	1.8675	4.3259	-82.7777	17.7634	17.3268	4.0298	7.2785	-59.0794	2.4275	34.7733	7.5512
3088.0000	29.1898	-3.7650	-12.1720	-10.0268	1.5021	4.5019	5.4002	-111.7764	13.3947	16.1748	3.9193	5.1253	-44.7739	17.1601	21.2499	0.4136
3096.0000	28.1361	0.4881	-0.3130	-8.3789	7.7506	9.7691	17.9819	-114.3264	10.3132	16.1879	5.1108	3.6830	-42.0326	15.7923	30.8844	-1.3781
3104.0000	17.1408	-1.2493	-6.6718	-5.9650	4.3411	6.7111	-8.2978	-83.8389	15.9622	18.0496	4.2792	5.4374	-21.4943	8.1856	35.6797	3.0739
3112.0000	17.0048	-2.4537	-13.5749	-9.6268	-1.4693	4.0296	-35.4973	-75.3708	16.4057	15.5675	1.9577	4.7727	-18.7990	14.9211	12.3752	0.6939
3120.0000	21.0105	-0.8479	-8.2155	-3.9878	-1.6053	4.3458	-35.0847	-78.9229	13.9385	12.3477	0.6272	1.9927	-12.2715	10.4604	0.5115	-6.3979
3128.0000	11.9605	3.1080	-1.5049	1.0152	2.6067	10.1847	-41.6409	-87.0547	17.0838	15.7097	1.3705	1.0697	-11.5052	13.4771	9.6000	-8.3184
3136.0000	12.6200	4.6246	3.5532	0.0628	7.4326	13.3370	-30.1276	-107.2897	15.9772	18.2482	3.3968	2.0023	-4.7333	14.8113	19.2544	-4.5733
3144.0000	10.6303	2.4909	1.1475	2.1097	5.2747	9.4919	-38.4329	-92.4001	14.3628	17.2392	3.3929	2.4872	23.4490	3.4581	22.9902	-4.7655
3152.0000	18.8928	3.9765	1.6090	9.4182	6.9325	12.5400	-50.2650	-67.8492	18.5486	17.4186	2.0292	2.3809	12.1639	14.1790	24.6977	5.8775
3160.0000	26.7822	5.2422	6.8451	6.6250	10.4775	15.1040	-26.2271	-106.9048	17.3366	18.8168	3.2815	2.1920	0.9098	15.6264	24.0776	3.3507
3168.0000	11.8268	5.1489	7.7127	2.5793	4.9726	11.2329	-23.9117	-114.3004	14.2160	15.7193	2.4677	-0.7904	-18.1251	-2.4700	12.5852	-23.0806
3176.0000	6.2066	9.3396	15.5019	8.6159	8.9397	15.1857	-4.6535	-48.0670	18.5004	11.5654	-0.7007	-2.4045	-25.9187	6.3272	12.9947	-7.7280
3184.0000	1.0766	9.2058	15.3787	3.1993	15.5642	18.5836	24.3895	-34.6597	14.8420	12.1399	1.6088	0.3855	0.7987	29.3478	30.8018	17.8915
3192.0000	3.1930	1.0535	-2.0766	-6.1246	6.8251	9.8709	13.4246	-63.1927	2.1831	9.6514	4.3589	1.5078	-13.8490	33.0188	29.1135	4.6346
3200.0000	7.1142	1.4066	0.8656	-3.8028	3.6403	5.9412	11.1204	-63.1658	4.5883	6.9476	1.9848	0.5772	-22.3035	13.3998	6.4922	-3.2124
3208.0000	-12.2696	5.2611	10.2555	-4.3490	6.3908	6.7328	21.4901	-66.2553	10.8476	9.1569	1.8562	1.4938	-28.5033	-7.1684	0.6324	-5.8980
3216.0000	-18.5957	-3.9204	-6.8551	-14.0725	-0.6688	-3.8370	25.8607	-66.4778	0.6652	8.0552	5.4742	4.9698	-32.2904	-15.4173	18.2977	-10.8391
3224.0000	-17.2262	-5.1002	-7.6675	-13.0863	-2.6605	-7.0696	14.4880	-38.2827	-5.2201	3.5399	4.8337	4.4148	-11.2373	-19.6425	13.3784	-9.5905
3232.0000	-26.9411	5.3061	10.8183	1.4656	4.7056	3.8346	6.6238	-31.4211	0.6794	2.8098	2.3146	0.2479	-34.6467	-10.8480	-4.2182	-9.1867
3240.0000	-36.1453	3.3717	3.7715	3.0873	3.9698	4.0148	17.0755	-50.1352	4.1397	5.9604	3.2660	1.3605	-44.8926	-0.1457	3.1519	-5.9807
3248.0000	-35.4121	1.6925	-0.8600	2.0826	0.0728	1.7976	12.2954	-28.1763	3.9176	3.7149	1.7798	0.1346	-45.8404	0.9757	2.6946	-10.3106
3256.0000	-27.8460	5.2280	7.0006	3.9596	2.8927	5.0959	3.3187	-13.5697	0.8071	0.9515	1.0799	-1.4374	-56.5641	3.9375	-4.5482	-9.8021
3264.0000	-30.4207	2.1635	0.6242	-3.5098	0.4408	0.6323	-4.3272	-33.9946	0.1570	2.6491	2.3393	1.7545	-40.8908	-1.7516	-12.1601	-6.4443
3272.0000	-20.5351	3.7130	5.1225	0.0217	-1.3605	0.9456	-1.9117	-14.3612	-1.7715	-2.7769	-0.6866	-2.4427	-45.2310	-2.5277	-24.5087	-15.6344
3280.0000	-9.7139	2.4916	6.3567	0.8921	1.5453	0.8534	3.0226	-14.9987	-9.9182	-3.9553	1.6591	-1.6100	-34.8901	-0.7672	-11.4084	-10.2533
3288.0000	-14.3294	-6.2478	-11.1991	-7.7967	-6.2351	-11.2833	-11.0628	-31.2393	-10.8944	-1.4435	4.1121	4.6289	-28.5096	-19.9091	-12.3110	-7.7217
3296.0000	-18.1265	-0.7251	1.6458	-5.9562	-4.0696	-7.6109	6.7038	18.2063	-10.0300	-7.7159	0.0885	-0.0557	-25.9464	-21.0271	-22.9744	-10.6346
3304.0000	-37.4496	4.7259	14.6893	-10.3003	8.3035	1.4298	29.4750	26.4037	-13.9307	-4.2198	4.2659	1.7971	1.3828	-9.8575	7.6147	5.5857
3312.0000	-35.4349	-5.9774	-8.7535	-15.5166	-0.1083	-9.2326	18.8870	2.4168	-14.4644	-0.0090	7.3181	7.3760	-2.9472	-15.2672	21.9254	7.4015
3320.0000	-18.3774	-9.3317	-16.2363	-12.7855	-7.8389	-14.0784	4.6881	28.6507	-15.6996	-6.0410	3.1843	4.1465	16.0741	-12.6198	4.6982	1.7606
3328.0000	-28.6313	-3.8766	-4.9797	-10.5161	-1.5100	-8.5034	-4.9999	24.4210	-15.5732	-4.2344	4.3632	4.4440	22.5428	-13.6938	3.4617	5.9449
3336.0000	-28.5156	-3.2153	-4.9755	-5.9660	-0.2595	-5.2634	-2.9424	3.9878	-11.6883	-0.4798	5.0131	3.7345	11.3395	-9.1104	15.0995	1.4300
3344.0000	-30.5855	-2.8666	-9.2177	-8.3457	-4.0182	-2.3730	-19.5240	18.1805	-7.3623	-0.1162	2.1585	0.0322	43.6746	6.4717	16.8714	-7.0444
3352.0000	-33.6253	-1.7144	-5.6408	-4.7820	-6.6145	-4.5565	-17.4372	32.1734	-2.8680	-2.0739	-0.4258	-1.6948	32.9089	-10.8537	4.9585	-16.2969
3360.0000	-22.2217	0.2327	3.6685	9.5041	-3.5926	-3.8187	5.3219	39.9646	-1.1365	-4.7690	-2.1566	-3.8976	33.0367	-22.4096	3.0177	-14.6763
3368.0000	-29.4254	1.8054	-0.9024	8.7963	-4.7197	0.1875	-35.0307	41.2195	5.0121	-1.0468	-3.1734	-3.8075	51.3472	-4.1934	-2.3270	-10.5212
3376.0000	-35.2180	2.9129	-3.0870	5.7032	-9.3000	0.4477	-47.6101	41.1455	12.5090	-0.6828	-6.3856	-5.9240	47.1918	-2.9119	-19.6780	-20.7942
3384.0000	-33.4580	7.7270	12.6874	13.9161	-2.1162	5.9308	-8.5512	39.2531	15.4713	-0.8607	-7.3573	-8.8797	71.6996	-10.7277	-10.9735	-20.5655
3392.0000	-37.4068	9.4122	14.2080	17.5237	0.8093	10.0758	4.0948	34.5838	25.3592	4.2634	-7.5868	-8.3513	61.1234	-6.9011	2.5526	-15.9819
3400.0000	-40.4465	7.5754	6.0920	16.7380	-3.1549	9.2336	15.1099	39.4260	31.2648	4.0398	-9.8801	-9.1594	47.3075	6.4767	-3.6983	-14.7427
3408.0000	-37.8402	7.6655	6.5944	13.5239	-0.7935	10.7887	19.5525	39.6910	22.6471	1.4155	-8.3826	-9.1980	50.8107	21.6046	-2.7677	-8.6381
3416.0000	-30.8071	7.9791	8.5049	3.7921	0.6314	12.3080	25.1037	30.0135	16.0952	0.7938	-6.7059	-9.4547	36.7764	26.3964	3.2544	-14.3472
3424.0000	-37.2114	7.7389	8.5744	2.1646	0.3551	10.3006	25.3364	1.5671	20.9812	4.5307	-5.8513	-7.0527	30.6262	11.5174	-2.8651	-16.0984
3432.0000	-39.5271	4.5036	3.6180	7.0766	-1.7837	3.3547	23.2832	-23.4915	27.4332	8.6799	-4.3234	-1.8875	-3.9275	-15.7117	-8.2426	-12.7663
3440.0000	-47.0781	5.3826	6.6220	8.4344	-1.3974	4.5871	47.8844	1.5586	21.2407	3.8503	-4.6003	-5.2722	-23.4895	-9.7468	1.2102	-20.7070
3448.0000	-73.1425	9.1137	9.5100	13.4333	3.6001	10.8104	38.7320	18.2874	14.6835	2.8270	-2.2864	-5.7379	-35.5171	15.0859	9.3304	-12.2591
3456.0000	-78.0281	3.0527	-5.3444	8.3038	-0.7026	2.7490	16.6845	-12.3880	18.0232	8.4368	0.7035	1.8117	-52.8245	3.9879	4.2890	-2.0456
3464.0000	-72.8289	-0.6204	-10.3176	3.6721	-6.7144	-3.9972	5.2014	-20.2057	12.7167	5.5174	0.3187	1.3663	-31.8122	-10.6378	-7.3169	-13.8639
3472.0000	-64.0020	2.0936	-4.4611	14.0227	-4.3571	-1.1404	-16.7018	7.9940	2.9268	-0.5194	0.1168	-1.2648	-42.4082	0.0924	-13.0351	-11.4291
3480.0000	-55.8403	0.6510	-6.6631	11.0601	-1.4210	-0.5426	0.4979	22.0226	-0.3515	-1.3345	1.2532	0.6631	-40.5160	13.9106	-2.3735	5.0560
3488.0000	-62.0819	0.5536	-3.1584	9.0359	2.2465	-0.4439	15.0642	14.5472	-7.2917	-1.5174	4.0565	1.7811	-21.2682	10.9803	9.5186	8.3855
3496.0000	-61.0477	0.9605	1.4101	8.3092	5.5883	-1.6681	-3.0250	7.9329	-12.0205	0.6671	7.5596	5.1993	-22.5795	-7.5907	18.7449	10.5252
3504.0000	-59.3962	-2.5917	-6.1441	-4.7644	3.2253	-6.0410	-10.3290	12.1554	-8.0298	4.3399	8.2892	9.6424	-1.6601	-16.2658	24.1015	18.1604
3512.0000	-37.9758	-3.2745	-3.3407	3.9168	3.2215	-8.0762	-6.2456	22.3271	-14.8620	-1.5926	7.3456	8.0073	-11.6214	-18.6889	14.2794	19.8279
3520.0000	-7.2173	1.0065	13.0411	9.7431	10.1554	-3.2251	-10.1256	19.0340	-33.3798	-9.4323	8.6077	3.9624	-5.3791	-13.8510	8.1847	16.4250
3528.0000	4.8834	-0.9482	4.0854	-7.1003	6.5824	-2.9394	-40.5110	2.4051	-32.2501	-6.4567	8.4173	5.3777	12.7592	1.6826	0.8824	16.3209
3536.0000	41.1640	-7.7395	-10.4641	-13.9240	-2.3964	-9.8049	-39.0186	-1.4173	-19.5468	-4.1428	4.3018	6.5576	10.9665	-5.1062	-6.3455	15.2920
3544.0000	68.2581	-4.2905	7.1217	-11.3013	4.3707	-5.4870	-10.8061	5.8121	-28.0975	-8.5180	4.0087	2.0809	52.8239	-14.6875	7.3238	8.9777
3552.0000	72.7211	-2.9454	10.9041	-3.1820	7.4636	-3.6089	-27.5074	15.1467	-38.3880	-12.1267	5.6481	1.3603	50.7249	-6.2325	7.7732	13.7477
3560.0000	92.6431	-9.8746	-5.3235	-1.1046	-0.6369	-11.3511	-39.1533	22.3077	-31.8469	-12.1764	3.0264	3.4002	56.1067	-6.3748	-2.6135	21.8798
3568.0000	94.5500	-9.2986	-3.2326	-5.8627	-2.4452	-10.8380	-46.8071	18.4966	-27.8153	-10.3035	1.5503	1.4898	95.9310	-16.1589	0.1351	10.0025
3576.0000	89.0103	-8.6055	-1.5972	-3.5869	-3.6502	-12.3885	-67.8224	18.3623	-31.4199	-11.3948	2.3439	1.4436	79.3493	-26.9498	-5.9766	1.7795
3584.0000	85.0010	-8.4679	0.8369	-5.2499	-2.5783	-12.5599	-41.1013	26.0854	-33.5633	-14.0183	1.8193	0.4318	93.1800	-25.0270	-6.1641	4.1067
3592.0000	74.9742	-3.8545	10.7472	-2.6752	1.4805	-5.8972	-3.0976	37.0557	-28.9766	-14.2322	0.1441	-3.7681	85.7278	-18.8350	5.6671	-2.7114
3600.0000	84.3732	-6.0330	4.4155	2.5084	-1.7614	-8.2869	-9.9209	49.5698	-22.4579	-13.2228	-1.3279	-2.9067	57.1704	-21.3737	6.1561	-0.4684
3608.0000	81.1563	-8.0767	-5.7006	-3.3974	-4.7771	-8.5327	-31.6658	44.5055	-18.9473	-10.5521	-1.6372	-1.2119	73.2509	-4.8613	1.2668	6.6116
3616.0000	63.6431	-4.9304	-3.4118	-6.0598	-4.0548	-5.4623	-33.8748	30.5432	-14.8088	-8.6016	-1.7735	-1.3638	46.3544	0.1698	-9.1707	2.7510
3624.0000	64.5373	-3.0478	7.5234	-1.6611	-0.4147	-7.7145	-18.6599	37.3270	-15.2108	-9.8873	-1.3365	-0.0244	46.2905	-28.7348	-12.1581	5.1252
3632.0000	55.8836	1.5296	17.6179	5.6629	5.8853	-1.2038	-7.0446	55.0597	-14.4523	-9.5282	-1.1353	-1.8686	54.8751	-23.0483	2.6602	9.2210
3640.0000	38.6613	3.8034	12.0500	11.3844	6.1484	5.5957	-10.5104	46.6972	-3.8167	-5.2259	-2.4706	-2.9174	25.0960	9.1103	1.9281	14.6124
3648.0000	35.5773	0.3125	2.2198	8.4580	2.4196	1.2903	-16.8418	32.6878	4.5340	-1.7581	-3.4533	0.4198	53.5226	7.7863	-9.6200	25.4479
3656.0000	28.8722	-0.1809	-1.5196	-1.9088	-0.4296	0.4701	-18.8446	35.7400	11.4423	0.8365	-4.7608	1.1629	61.1946	5.7198	-11.9764	22.5441
3664.0000	23.5117	1.1485	-3.6843	-7.7282	-0.6699	4.4534	-11.0337	-3.9650	18.0439	5.0912	-5.0702	0.5963	38.4505	20.5230	-18.2535	16.8719
3672.0000	25.6825	2.5837	4.0524	-3.7989	3.7523	5.9925	22.3350	-36.3617	18.0565	6.4576	-3.6275	0.4992	24.7588	11.0349	-13.1741	14.2665
3680.0000	16.0726	5.5736	8.7947	-7.6458	3.7912	7.2123	20.3669	11.9576	20.2004	5.0853	-4.4460	-0.1104	-33.8543	2.0897	-5.4318	6.6083
3688.0000	10.1534	5.9309	2.4703	-14.0550	1.7225	6.6392	-19.9592	26.4447	21.2343	5.7818	-4.1528	3.2153	-75.6097	12.1671	-21.7138	15.1142
3696.0000	13.0039	5.6051	5.0040	-13.0333	6.4519	5.6156	10.8395	2.6816	20.9647	7.0577	-1.7784	7.2377	-109.2176	7.7950	-23.6099	29.8082
3704.0000	10.7911	5.6627	3.9298	-14.7495	7.8484	8.5205	58.3906	21.0714	26.5563	7.3564	-2.8940	6.0144	-147.0244	21.3758	-5.7278	32.4521
3712.0000	3.7164	4.6580	-3.1320	-10.7495	6.8086	10.5415	53.4331	17.2851	25.0271	7.0515	-2.7889	5.0141	-145.1900	46.7501	-4.8806	36.9422
3720.0000	-7.9168	5.1311	-0.2825	-3.6306	8.5514	8.1194	50.1545	2.6977	20.4109	6.1621	-0.4808	7.1582	-166.9786	34.8681	-13.9930	39.8592
3728.0000	-5.0090	1.4031	-8.2678	-9.0484	2.5272	2.6131	40.6832	13.5164	21.0182	5.1257	-1.6503	7.5552	-157.3210	27.0932	-17.9944	34.5407
3736.0000	-4.2147	-3.6696	-18.2335	-17.5306	-4.5025	-2.8510	30.9823	10.3614	17.7498	4.3203	-2.1298	6.5631	-106.0521	23.2235	-14.9269	22.8884
3744.0000	-17.3771	-0.4861	-11.2733	-10.5424	-2.2376	-0.9292	33.1898	17.8920	19.6662	3.9267	-2.6115	5.4873	-106.0826	16.6416	-17.7032	21.7457
3752.0000	-22.9119	2.0414	-11.1552	-3.8391	-0.7613	4.0718	19.6329	13.1395	25.9242	5.5988	-4.5788	4.2251	-71.3459	37.1707	-28.4717	32.0141
3760.0000	-29.0799	-1.3695	-18.4975	-13.3054	-6.3468	-0.0717	-0.9084	-21.5482	23.5448	8.0022	-3.4226	4.4304	-32.5712	28.1725	-30.4761	16.0490
3768.0000	-18.4178	-1.3372	-15.2524	-7.2565	-7.7027	-1.5679	-11.0516	-9.8364	22.9140	6.3747	-4.4776	2.6413	-26.4171	12.9999	-28.7256	7.1710
3776.0000	22.7400	-7.1687	-13.0646	-2.4404	-4.1817	-6.3589	-17.7053	-34.4880	-22.3708	-5.0856	4.9714	1.4488	-46.4971	12.5725	-0.3102	-6.3054
3784.0000	7.7718	-3.9494	-9.0551	-6.2910	-2.8959	-4.7017	-35.6992	-5.7358	-25.7584	-7.7161	4.8528	1.5811	-52.2209	17.1039	-10.7561	-2.5032
3792.0000	16.8982	-5.4042	-0.9566	4.4733	2.7273	-10.2187	-32.9428	-19.7796	-57.4560	-18.0117	11.9282	3.5805	-88.6978	4.1689	-14.8480	1.5796
3800.0000	18.4445	-5.2902	2.7002	-5.7442	-0.2536	-13.5539	-44.1318	-28.8821	-63.2772	-20.1018	12.2218	2.5329	-87.6167	-16.8954	-24.2180	-18.1541
3808.0000	-7.1032	-4.6152	3.0659	-3.6111	0.6267	-14.7400	-45.0441	-18.3241	-61.1880	-18.5579	13.4037	4.6631	-87.8088	-25.5787	-20.9703	-13.6744
3816.0000	8.9443	-6.3628	1.9989	-8.7240	1.7080	-15.1383	-37.3106	-45.5297	-56.0643	-12.9891	14.6762	7.1109	-86.2580	-35.5446	-7.2943	-13.5568
3824.0000	-10.7312	-2.0233	5.0508	-17.0064	-0.7525	-11.3697	-49.9076	-17.9390	-44.4175	-11.0275	10.9250	4.5108	-84.0963	-36.0709	-13.9062	-25.1077
3832.0000	-15.1895	-0.9316	6.7245	1.5883	4.8280	-9.8411	-53.0014	16.3803	-50.9464	-15.0250	12.4933	6.3309	-104.2406	-20.2764	-12.1395	1.5431
3840.0000	0.0520	-2.6166	3.1956	-6.3619	6.6901	-8.4314	-42.0770	-27.7969	-47.1236	-8.9097	14.5447	9.2687	-118.2459	-14.9303	-2.6679	5.3851
3848.0000	-22.1239	2.1593	9.9631	-13.1216	7.3317	-2.1885	-21.8934	-49.4309	-30.1676	-1.0548	12.5763	6.6167	-121.3351	-23.7541	7.6829	-14.7857
3856.0000	-12.7333	1.8542	8.1520	-8.2856	10.0055	0.0154	-18.6347	-55.0218	-20.8009	4.5779	12.8943	9.1646	-132.4957	-20.9624	21.4490	-2.5473
3864.0000	-7.5406	-1.8187	-1.0080	-17.1416	6.4419	-3.9885	-24.3696	-57.1529	-20.0312	5.4607	13.0896	11.8470	-135.3338	-19.0142	17.6242	2.1582
3872.0000	-15.4403	3.1730	12.4949	-4.5614	11.1663	-0.2986	-20.7661	-28.5684	-28.2667	-0.5933	12.9117	8.0405	-137.5978	-21.1556	16.7838	-0.8611
3880.0000	-13.0786	5.5844	10.6578	-2.4751	13.0965	5.6290	-33.3502	-42.1093	-13.5998	6.6582	11.6823	9.4734	-158.3226	-5.9592	16.9180	8.6528
3888.0000	-28.1444	3.6375	0.1706	-6.8017	8.0321	4.0481	-36.7046	-62.0274	1.6301	12.6755	9.4561	11.0986	-142.2345	-2.5221	6.7733	10.4454
3896.0000	-18.9589	5.3240	10.7340	7.5466	12.2049	4.4759	-33.4063	-41.5922	-6.7894	7.9384	9.9302	8.9088	-117.2077	-14.5356	14.3172	11.5456
3904.0000	-4.3010	1.4391	1.9777	2.0629	8.6029	1.7202	-36.2746	-36.9734	-1.5324	10.5062	9.1112	10.3878	-110.5518	-15.0248	23.2695	13.4334
3912.0000	-9.5161	-0.9103	-3.1993	-2.2085	4.4570	-1.9104	-35.4417	-32.1540	-3.4542	8.2270	8.1644	9.7604	-89.8015	-15.4016	15.9251	9.7695
3920.0000	-8.6355	3.9537	7.1200	-0.3815	7.4920	3.0089	-48.7773	-18.8313	-7.1422	5.9038	7.6382	6.7701	-95.0373	-13.8933	12.9719	2.4934
3928.0000	-16.9709	4.4816	2.9784	-7.8807	3.8838	4.9113	-55.5770	-24.6630	5.8022	10.8906	4.8983	5.6868	-74.4197	-10.5250	11.5717	-5.1712
3936.0000	-21.9845	5.6533	9.1638	-4.8766	5.5761	4.4493	-42.1705	-18.5093	-2.0064	5.5679	4.5798	3.6471	-38.7005	-11.5454	1.9460	-3.9041
3944.0000	-20.4109	6.7714	13.8040	-0.1515	8.7252	6.5083	-10.0165	10.5876	-3.0700	2.0808	3.3586	1.7851	-30.5629	-3.9935	9.9947	4.3071
3952.0000	-25.1239	7.5567	13.0695	5.7401	10.9091	11.2498	5.6847	26.0464	10.0726	7.3437	1.4761	0.9795	7.9591	5.7176	32.8755	13.3656
3960.0000	-26.2111	11.1038	18.6430	5.0358	13.8314	15.8067	-23.6429	9.1738	6.1588	8.5995	3.0042	0.5263	5.8797	11.3330	28.5523	9.3357
3968.0000	-36.3699	7.9204	8.3925	-6.2071	6.0525	11.6277	-31.5015	-20.8766	8.8284	10.3804	2.3992	0.2389	0.3328	8.7949	16.8452	-8.2098
3976.0000	-41.3364	5.9409	7.6619	-0.3072	5.0504	8.4991	-12.9140	-26.1933	11.9626	11.2347	2.1229	0.2144	27.1918	-5.5866	23.7555	-9.7505
3984.0000	-32.6959	8.3638	16.9409	9.5648	11.3160	10.5986	-2.0034	-7.7903	6.4796	8.1638	3.2046	0.5418	13.6624	-7.1448	28.2623	2.2713
3992.0000	-35.0812	8.9693	13.4161	8.2201	9.2305	12.8678	-10.6182	-10.4627	14.6896	10.6889	1.0123	-0.5403	22.9002	3.4480	23.3385	1.1932
4000.0000	-33.3159	9.3397	9.8632	0.5754	4.0317	13.2504	-32.7734	-27.4259	21.2801	12.9087	-1.3372	-2.3363	21.1813	3.7660	9.3503	-14.3609
4008.0000	-28.4250	7.2233	10.6178	-5.9559	3.0886	9.7515	-11.7249	-21.2443	6.3290	5.9596	0.0443	-3.8957	18.8129	2.4885	9.9980	-22.0006
4016.0000	-30.1190	9.3780	23.0677	3.4595	12.7299	12.3057	12.0812	-5.6443	-6.1391	2.9194	3.8184	-3.3028	45.0985	-1.5472	32.5171	-8.4714
4024.0000	-24.3183	8.7638	20.0197	6.2357	12.1852	11.0076	0.9350	8.1040	4.7379	6.9176	2.8170	-0.1131	25.4234	-10.2914	33.9577	1.6386
4032.0000	-23.8900	1.8045	1.9098	-0.4945	1.9594	2.8721	0.3911	10.4930	6.7895	4.9620	0.6343	0.4771	25.9575	-4.1896	20.0491	-0.5588
4040.0000	-23.0390	4.9062	12.1520	4.8893	8.5179	6.5366	7.2819	1.5021	-4.9108	1.9073	3.4255	-0.3865	20.5748	0.0493	23.2428	1.8141
4048.0000	-22.5123	8.9775	19.5230	6.2115	13.1208	11.7253	11.1130	17.8269	1.0347	4.2170	3.0792	-0.1554	-9.2257	1.0401	31.4426	6.3238
4056.0000	-30.7333	7.6185	10.7334	3.4156	11.6970	12.7857	2.6201	20.0266	5.9324	7.2802	3.0657	1.4521	-11.4188	19.0141	35.0124	14.9201
4064.0000	-18.7250	3.5852	3.5775	-0.4494	9.3245	8.3074	-3.5026	-10.6388	6.5998	10.6501	4.9604	4.9092	-27.7688	9.0075	36.7867	14.3192
4072.0000	-6.3864	0.5155	-0.9637	-0.4225	-0.3444	0.5366	-5.8062	5.0425	13.5289	7.1856	-0.1775	2.2460	-24.7650	-15.5841	16.0046	-2.8796
4080.0000	-3.4688	5.4537	8.4452	9.6604	3.3707	5.3136	-12.9228	32.7085	6.9324	-0.0081	-2.1279	-1.2855	-28.2580	1.7762	-3.9556	4.7825
4088.0000	7.2365	4.6090	9.9995	2.1803	9.8464	7.0500	4.0110	18.9466	1.0761	2.8239	2.2952	2.8993	-37.5029	6.9857	17.9260	18.9937
4096.0000	1.3736	5.8342	14.3279	0.1458	8.5131	7.0166	1.1901	22.1054	2.7829	3.6108	1.7082	0.8549	-26.6099	-9.6805	24.6051	2.3825
4104.0000	-0.6043	10.8440	22.8492	11.5214	11.2385	11.7352	-14.4034	37.4067	2.2742	0.7535	0.2264	-1.9084	-46.8468	-3.3461	11.9962	2.2588
4112.0000	15.9953	1.9547	3.8239	2.2483	6.4279	4.5046	-7.2977	30.2770	6.7740	5.3141	1.5466	3.8757	-42.7828	-0.8308	27.9699	16.6834
4120.0000	17.9681	3.4700	6.9309	3.3606	6.3941	6.7189	-11.3219	16.4232	3.1915	3.8405	1.2964	1.0657	-41.2284	3.9109	23.1160	6.4788
4128.0000	5.5305	9.3068	18.7702	7.0561	12.2514	13.3932	-0.1428	5.5322	-2.5973	1.1714	1.9357	-1.8010	-51.7060	16.5137	14.3856	4.6297
4136.0000	7.3404	-0.1763	0.5689	0.1672	6.0611	2.9622	10.0922	5.8244	0.9720	4.8246	3.5051	3.9616	-33.1922	3.4826	31.6490	13.9657
4144.0000	20.3708	0.6591	5.4988	8.4974	4.8135	1.8507	7.4443	0.8722	-0.1438	1.8027	1.8543	1.2589	-40.9885	-8.7958	19.9693	3.6342
4152.0000	8.2950	3.7331	8.8435	2.6271	3.8585	4.8470	11.0074	-6.9862	-0.7300	-0.4001	0.1414	-2.0133	-42.5442	1.7762	2.5232	-6.6274
4160.0000	-5.2026	0.3615	-2.6249	-1.5997	-0.5143	0.4637	-10.8670	11.4509	-1.7238	-0.5195	0.7887	0.8720	-45.8400	7.3473	-0.5832	0.4438
4168.0000	-14.7594	7.1337	12.6821	6.9455	7.4516	5.1349	-23.3486	21.9149	-2.2495	-0.8718	1.6845	2.0848	-54.9121	-0.6817	-11.2040	11.9637
4176.0000	-31.8843	7.8812	11.9915	-5.8029	9.0486	5.9991	-20.4679	7.8017	2.3279	4.0225	3.1573	5.4269	-44.3878	-1.2203	-9.6899	17.4291
4184.0000	-8.3317	-1.6797	-5.1517	-7.6950	1.4093	-2.4310	-7.2308	5.9139	-4.0966	1.4226	3.6241	5.6702	-42.4987	1.6867	4.6680	13.3886
4192.0000	4.8419	-1.4520	0.7574	3.7559	2.4358	-2.3965	17.2741	27.4016	-4.5996	-2.2850	1.6524	2.1796	-28.1724	-6.4074	13.7179	10.2903
4200.0000	-8.1497	3.4517	6.3512	3.7534	6.0330	3.0517	0.8568	35.7109	3.2657	1.2898	1.0624	3.1008	-36.6212	-1.4672	9.1121	17.2460
4208.0000	2.3747	1.0370	2.6705	-2.6204	4.1582	0.7604	-7.1904	1.1763	-5.8652	0.0123	2.9997	3.3652	-37.4012	1.4886	1.6009	10.2015
4216.0000	-4.8408	-0.4715	1.8553	-8.0464	1.0488	-1.9795	5.3563	-5.6648	-7.3770	-0.7855	2.6915	1.6801	-14.2760	-9.3733	4.4512	-3.8672
4224.0000	-2.8354	3.4595	3.6404	3.4288	4.5855	5.6717	-5.3036	22.0003	5.5745	2.4530	-0.1439	0.9120	-20.6925	12.0940	8.2968	12.4461
4232.0000	4.8804	3.9544	2.0838	9.7487	5.4444	8.4427	-8.6288	6.2651	9.4749	3.8215	-1.0960	0.4169	-17.9897	26.7299	1.9245	19.3364
4240.0000	-8.3314	2.6128	0.9711	4.0145	1.0032	2.9673	-5.0628	0.7149	7.7634	2.1623	-1.1209	0.3937	-29.5313	6.3468	-8.2436	4.6023
4248.0000	3.7614	4.2014	8.4087	6.0977	5.8185	4.9374	-3.0189	2.1590	3.3673	1.3937	-0.0231	0.7410	-10.8798	3.5148	-3.1788	11.4728
4256.0000	-0.3445	4.6392	10.7459	6.9902	6.4105	5.3767	-7.8752	-31.2496	0.8968	2.6989	1.1310	0.1050	17.3203	-0.7421	-6.4596	4.7032
4264.0000	-7.2236	4.5521	8.9185	12.5103	1.4069	3.2179	-2.5538	-9.6016	3.3023	-1.4309	-2.0395	-3.2844	-7.9732	-3.5632	-18.1037	-6.7777
4272.0000	6.6691	2.9719	4.8691	14.8678	2.4415	4.7951	10.4265	23.4506	3.5593	-3.3432	-3.4049	-3.7718	8.7422	17.2196	-6.5451	9.0769
4280.0000	0.9645	-1.2357	-5.4388	9.2778	-3.4422	-0.6915	-3.4464	-10.1392	3.5509	-0.8284	-2.0685	-1.8650	0.3025	9.1393	-12.0645	-1.2585
4288.0000	6.2684	0.4412	1.1903	5.5092	-5.1917	-2.0255	-0.2622	-20.3256	8.3274	-0.3370	-3.8075	-3.3631	-9.2829	-15.8356	-21.2752	-18.4178
4296.0000	7.0569	2.5240	6.3784	-1.4348	-1.4115	0.0891	-0.6310	25.4462	8.3333	-1.0085	-4.0375	-2.0221	9.2487	-15.2405	-11.2137	-5.7180
4304.0000	4.3931	-1.1907	-2.5284	2.4533	-3.5239	-5.1868	-14.0316	43.8227	-6.7319	-8.1127	-1.8058	0.0603	-21.7891	-0.8211	-23.0126	6.6487
4312.0000	12.8269	2.7364	6.8642	1.5130	3.0533	2.5409	8.3996	5.4275	-4.5515	-4.9073	-1.3219	-1.5569	-7.3105	10.9474	-18.5750	7.4806
4320.0000	1.9301	5.0376	6.6534	-10.3189	1.9009	6.9011	7.7951	1.6783	13.4225	4.4334	-2.8683	-1.4871	-20.1948	4.5834	-1.6095	-5.4104
4328.0000	2.4027	-3.5510	-9.7546	-7.0319	-6.9915	-5.7984	-3.9240	33.8025	1.1272	-3.2122	-2.0575	0.5068	-34.0350	-1.8739	-7.8714	-2.9184
4336.0000	7.1209	-5.3779	-8.5625	-8.5080	-3.4389	-7.1915	13.1839	18.3674	-8.5012	-4.7654	0.7436	2.2537	1.4282	0.0995	-2.2877	7.7202
4344.0000	-24.6095	3.0041	-6.0317	6.8344	3.6799	9.1782	-15.3894	-44.7650	17.0000	12.8217	1.9129	3.0108	-49.2836	27.6483	12.0672	9.5114
4352.0000	-24.0832	4.8639	1.0779	17.2983	6.8989	9.0634	-19.4370	-57.5539	5.5521	8.5678	4.4143	2.7059	-90.7829	22.3321	3.0064	7.0844
4360.0000	-32.3488	3.6070	1.6197	13.1344	6.8555	7.3270	-7.0106	-87.9298	-3.6790	7.3409	6.9557	2.1836	-77.0412	18.4394	4.9945	-2.8709
4368.0000	-38.2841	1.3076	-3.0352	2.2324	6.4749	3.5714	-13.2452	-98.8678	-6.9990	9.5709	10.2225	6.9647	-101.4149	10.3839	7.8781	0.5726
4376.0000	-13.7158	0.5171	-0.1679	13.8415	7.0299	1.9940	-19.0125	-87.6498	-11.1870	6.0902	9.6783	5.9740	-104.7810	2.8512	7.4347	2.6082
4384.0000	-19.3882	-4.0241	-13.5666	-4.5214	-0.7248	-3.5188	-37.6816	-86.3220	-13.8237	5.3493	9.3819	7.3489	-89.5732	8.7927	-3.1784	-2.6404
4392.0000	-9.0676	-3.2870	-9.1643	-4.2652	-2.6736	-5.2425	-28.8018	-68.5064	-18.6888	-0.7172	7.5860	4.3580	-120.8783	0.8841	-14.1740	-14.1987
4400.0000	3.8906	-0.0010	5.1934	13.2545	-0.7250	-2.3470	1.8469	-42.4405	-21.2993	-7.2170	4.2806	-3.6663	-103.2305	-11.2432	-4.9729	-31.1848
4408.0000	6.1620	-8.5917	-13.1927	4.6377	-8.1928	-12.2774	-19.6409	-30.1385	-23.8372	-6.2532	5.7800	1.0896	-77.2767	-17.6472	3.0312	-24.5868
4416.0000	32.8844	-10.7533	-13.2891	10.5300	-9.4391	-15.9068	-40.7253	3.9796	-33.3302	-12.9250	4.6789	0.2256	-41.3468	-20.0088	-3.1772	-17.0561
4424.0000	35.0775	-8.3649	-4.9075	12.0234	-8.8087	-13.7654	-39.8849	30.4353	-43.7069	-20.1469	3.0626	-5.4396	7.6208	-16.1871	-5.1424	-26.9883
4432.0000	33.6920	-12.2743	-11.0150	9.7799	-8.7282	-19.1878	-41.5277	10.5265	-45.1272	-17.3070	6.1654	0.1734	11.6172	-27.1462	-3.0257	-14.7872
4440.0000	15.1755	-5.4810	-0.3780	9.2603	-3.9448	-12.8274	-44.8490	-12.8237	-32.1294	-11.1123	5.3780	0.9935	0.5532	-32.7907	-15.7184	-13.9038
4448.0000	-5.1911	-1.1342	0.6150	-1.3440	-6.4624	-7.8052	-56.2383	27.0719	-27.1086	-12.3634	2.2102	-2.5581	-25.4137	-16.8066	-21.6843	-25.2833
4456.0000	17.3219	-2.3919	1.8161	8.4012	-0.6672	-7.0032	-47.9815	71.2206	-31.1251	-14.3398	3.3113	-0.1414	-16.5639	-8.5529	0.1395	2.2601
4464.0000	15.4718	-1.4697	5.1243	7.9875	0.4485	-7.2197	-41.2040	52.0294	-20.9210	-9.5000	2.6026	1.5593	2.5740	-24.9960	-2.6119	4.0924
4472.0000	25.4012	-7.7444	-6.6321	-0.6418	-12.3285	-17.3651	-40.1504	54.2571	-21.3175	-14.3662	-1.1112	-1.2868	9.5160	-40.7849	-21.0792	-19.4888
4480.0000	47.0444	-6.2063	1.0003	6.7901	-5.7084	-11.9603	-27.7253	31.8288	-26.9165	-14.5437	0.0864	-3.0425	48.9355	-28.5324	-10.2908	-12.2372
4488.0000	47.9724	-7.9754	-3.6412	-1.8712	-10.3769	-14.0274	-31.9430	-8.5176	-20.3422	-10.0545	-0.5079	-3.0941	55.8864	-38.9987	-15.5949	-28.2179
4496.0000	60.0459	-13.8371	-10.1547	-3.0862	-20.3968	-25.7450	-21.9404	74.2361	-30.0249	-23.3307	-4.8378	-6.6042	72.1607	-56.5206	-23.8971	-37.0865
4504.0000	41.6980	-3.3871	7.7241	8.8316	-4.2257	-9.6240	-8.8549	119.4431	-27.3915	-21.9192	-4.0598	-6.9884	84.8831	-20.4558	-4.6413	-3.2481
4512.0000	27.6650	-4.5970	-5.2744	2.4682	-9.8246	-7.6728	-18.5756	84.1279	-6.9764	-11.6899	-6.0194	-5.9249	64.6105	-8.6525	-5.2863	-10.0014
4520.0000	29.2829	-9.2804	-10.0460	-3.2269	-19.6289	-17.4124	-9.5000	115.9827	-16.9542	-21.2854	-8.5775	-10.1317	80.6669	-28.3438	-15.0634	-33.7874
4528.0000	25.9711	-6.1206	2.2008	-2.8850	-11.4064	-15.0866	0.8875	125.1370	-32.6030	-25.8286	-4.7438	-9.2290	82.0685	-28.7416	-9.8133	-24.5536
4536.0000	29.4573	-9.2951	-4.5935	-13.9360	-16.1041	-19.4337	-8.4293	130.1637	-31.1243	-24.8400	-5.1334	-7.8542	92.5096	-37.2695	-9.1192	-29.5658
4544.0000	6.6991	0.5885	10.6763	-18.2854	-11.8310	-8.9950	-12.4498	177.4606	-25.2921	-25.9205	-8.1689	-12.5843	68.5907	-27.9507	-11.0960	-38.9346
4552.0000	10.2585	5.2104	18.1734	-7.6680	-3.5662	-2.0954	-2.1857	168.8308	-17.3653	-21.6869	-7.2343	-10.0958	10.5763	-18.2070	-8.5323	-20.3603
4560.0000	12.4554	-2.6464	4.0608	-13.0156	-8.9386	-12.3899	-1.8283	140.5940	-15.1724	-17.8769	-5.1508	-4.1525	23.5880	-37.5117	-7.6117	-14.6462
4568.0000	-1.9416	-1.9030	0.3396	-21.7911	-12.8021	-10.8789	-10.8315	137.3050	-12.1988	-16.6540	-6.2007	-6.1440	11.2222	-29.7634	-10.4605	-29.4213
4576.0000	18.2591	-2.0254	-0.9641	-16.8964	-11.2918	-7.2916	-4.6073	142.9183	-9.0045	-16.6289	-8.0091	-7.5865	27.6511	-10.1478	-6.3227	-19.0521
4584.0000	5.0883	2.7059	12.1986	-20.4659	-1.3365	-2.5926	-0.1324	119.7704	-12.3197	-13.0232	-4.0848	-4.1588	58.2125	-16.1288	-1.8823	-5.6816
4592.0000	15.0839	0.9032	11.6416	-26.5821	-3.7395	-6.0597	10.8961	83.3244	-11.3398	-11.4502	-3.5558	-3.5198	35.9112	-33.6417	-7.0322	-18.8976
4600.0000	31.5965	-6.1718	-1.4489	-29.5273	-12.5257	-14.8987	18.3216	122.8310	-10.9965	-16.5592	-7.1578	-4.2304	69.8075	-36.6935	-10.6594	-16.7794
4608.0000	-4.8188	3.5477	14.1850	-23.9357	-1.0368	-4.0117	2.9786	135.9597	-15.0104	-15.6661	-4.1170	-3.3822	52.8670	-19.1763	-11.1865	-1.9604
4616.0000	0.1283	6.0510	19.0431	-17.2141	4.8879	2.4086	6.3011	76.7166	-11.5792	-8.5806	-1.1671	-2.6217	28.8799	-13.7034	0.7990	-3.4419
4624.0000	1.3851	2.6283	10.5299	-20.9800	1.4519	0.1371	20.5260	97.0748	-4.5676	-6.9882	-2.7967	-2.0919	41.0119	-10.8203	13.3091	0.1588
4632.0000	2.8669	5.3834	16.1233	-9.7458	4.0210	1.9841	35.4342	134.6805	-7.2459	-13.5322	-4.7107	-4.0089	2.7284	-0.3889	1.6738	10.3703
4640.0000	12.0811	1.4193	12.2902	-10.6299	3.1000	-3.2745	37.1629	92.1577	-14.9888	-13.7470	-1.9423	-1.5732	16.4588	-9.4534	-4.3536	10.9318
4648.0000	-2.3410	-4.8609	-0.1768	-26.3533	-1.6501	-12.9307	19.6994	75.6565	-21.6683	-11.1515	2.8518	5.1952	3.4989	-28.2217	0.2694	9.5622
4656.0000	15.8460	-4.4340	4.8776	-18.0729	-0.6998	-14.0970	27.3083	110.2940	-28.2770	-18.1696	1.4730	3.2645	-13.8871	-30.8232	-4.6605	13.0381
4664.0000	2.8274	2.5913	15.8656	-18.1341	5.0278	-3.6746	27.4622	118.0625	-25.7988	-17.1202	0.4351	-0.4939	3.7026	-11.4022	-0.4123	11.3588
4672.0000	4.1511	-1.2678	4.1761	-21.5992	-0.4308	-6.3721	21.9836	107.1073	-22.2720	-14.6602	0.4654	0.1829	-26.2160	-6.9204	4.8337	4.0167
4680.0000	35.1492	-6.7448	-1.1439	-9.8754	-5.1024	-14.5075	24.3667	104.2392	-23.0806	-18.5109	-1.6471	0.1434	-1.5998	-23.1050	-7.7100	7.6460
4688.0000	10.4692	1.0866	10.1274	-8.6789	0.8049	-6.2043	3.2696	100.6944	-18.4407	-15.0847	-1.1826	-0.0447	-12.5775	-17.1469	-15.2824	9.0748
4696.0000	3.4396	1.9613	7.4959	-17.2358	-2.1354	-4.8158	-0.2328	113.7562	-15.7509	-15.2417	-2.5868	-1.5640	-41.5593	-9.1493	-17.3690	-0.5378
4704.0000	-14.0551	3.7347	9.3070	-19.6745	-2.1515	-4.7591	-0.7504	123.0577	-9.2157	-13.5986	-3.6302	-0.6429	-32.8806	-15.7897	-24.1506	1.9142
4712.0000	-20.0842	4.3214	9.5499	-9.1316	-0.8006	-4.3487	-5.6818	124.1923	-7.1689	-11.8867	-2.3408	0.5636	-76.8825	-20.2984	-16.8751	3.3541
4720.0000	-1.7334	0.2332	4.6470	-7.3969	-6.0896	-9.1326	3.0450	153.0463	-16.3974	-19.6951	-4.2043	-3.1162	-66.2169	-18.9743	-15.7114	-5.3747
4728.0000	-16.7578	7.8176	16.8462	-5.6027	-0.2225	-0.8562	-5.5118	156.5191	-12.0108	-18.1218	-4.8060	-4.4190	-80.4122	-11.4217	-23.7353	-3.6938
4736.0000	19.1893	4.6447	14.4685	2.4790	-1.0283	-2.2497	-7.6504	141.9127	-12.4239	-17.5364	-4.9598	-5.0611	-76.5339	-15.9380	-13.1878	-5.5379
4744.0000	23.4293	-2.5421	0.4568	-8.9439	-12.3449	-11.8448	-8.8860	159.0128	-15.8400	-22.8684	-8.2445	-7.1095	-7.7657	-19.4052	-25.7385	-15.4507
4752.0000	-2.3247	1.7833	4.1244	-3.6500	-11.8769	-8.7266	-0.7395	165.2395	-6.1327	-22.3131	-10.6422	-8.2285	-39.9822	-15.1376	-42.9312	-14.8044
4760.0000	8.1119	2.8099	9.7336	3.5464	-7.3109	-5.8406	9.3808	174.6100	-8.6540	-22.5688	-9.7962	-8.9617	-27.7363	-13.8382	-25.7131	-9.4115
4768.0000	-11.0871	2.5297	6.8283	-4.3534	11.0147	6.0495	-33.2327	-91.8267	-16.7783	8.9933	11.8246	6.0574	-29.0598	1.1764	25.4923	-1.5972
4776.0000	-4.5425	-0.0325	5.0401	3.9142	10.4668	2.1244	-27.9928	-79.7212	-24.5941	5.0777	13.1541	6.4450	-51.1929	-4.8909	30.6409	-0.0993
4784.0000	-2.0679	0.7228	8.5232	6.9005	13.4723	3.8381	3.9487	-35.4378	-26.0090	1.3110	12.1858	5.2113	-61.4751	2.8773	44.4342	9.2965
4792.0000	-14.4258	2.4801	5.3793	3.5517	10.0828	6.1024	-8.3596	-8.4743	-14.1990	3.3798	8.6970	3.7732	-67.3113	9.8562	40.4204	5.8185
4800.0000	-10.4340	-1.2888	-3.8440	2.6154	6.2197	1.6661	-12.3842	-4.3509	-11.7366	3.8459	8.3836	5.9216	-78.9896	9.1008	38.0845	10.6888
4808.0000	-7.6545	-1.1887	0.0645	-2.6476	5.4457	0.1791	-7.9738	-18.9198	-12.0408	3.8901	7.8970	4.9899	-44.0724	-5.7897	33.8125	1.4563
4816.0000	-10.3495	2.4686	6.3924	2.7451	5.0106	3.9084	-16.0678	-40.7618	-9.1973	3.9667	6.0806	0.8432	-45.4710	-6.7714	21.4427	-14.8379
4824.0000	-16.6842	7.9512	14.3301	13.7804	7.0726	11.0364	-10.2314	-20.6775	-6.1269	0.3791	2.3967	-4.8614	-45.3188	12.4570	10.3439	-16.7782
4832.0000	-22.3880	7.6590	8.3214	13.5733	1.5531	9.8814	-28.5688	2.8801	7.1593	2.3831	-1.7140	-5.4731	-35.9584	10.8757	0.5644	-18.2896
4840.0000	-3.6438	-1.8232	-8.0013	7.6055	-7.4166	-2.2042	-25.3765	17.7519	5.4595	0.1706	-2.3178	-2.7185	-24.2063	-4.1282	3.0243	-17.2038
4848.0000	-0.5381	2.2179	5.0646	15.0370	-1.4897	2.4798	12.8876	54.4677	0.4006	-6.4922	-4.2148	-7.0827	-0.8875	3.9615	6.9128	-10.8602
4856.0000	-12.3537	7.6592	9.9225	17.8474	4.4148	12.1181	4.7229	6.0883	16.9099	5.2416	-3.2920	-5.3605	-23.1860	13.0237	13.2822	-7.6737
4864.0000	-15.5815	3.0387	0.0726	3.3451	-1.5797	5.8975	-13.9940	-35.8359	15.2909	9.1954	-0.8528	-2.4174	-23.4686	-2.0207	11.5298	-22.4673
4872.0000	-18.8342	3.2053	4.7023	8.7908	-3.7306	1.7621	5.4074	42.1422	2.7195	-4.9755	-4.1616	-6.9723	-10.5032	-2.8886	-1.9036	-21.2824
4880.0000	-13.7292	1.3170	0.9087	5.6552	2.1110	2.4415	7.5368	27.6921	1.9829	0.0693	-0.0539	-0.3169	-3.9160	7.2972	12.6838	6.6189
4888.0000	-14.2177	1.8191	5.7992	-8.1531	4.3044	1.6941	-6.6988	-34.0946	-1.1761	5.8505	3.9330	2.8974	21.6203	-14.0746	11.5492	-3.4118
4896.0000	-0.2342	0.5529	8.2856	-0.7587	0.3410	-2.4542	19.9299	1.2581	-1.7172	-2.0937	-0.7338	-1.7919	39.8077	-25.0386	0.7045	-10.1316
4904.0000	24.6934	-5.2090	-2.5026	-10.8549	2.2316	-3.2129	28.6815	1.4645	-4.1927	1.3867	1.8157	2.6447	79.5727	-6.1293	28.5815	12.6722
4912.0000	20.5319	1.7345	9.9975	-14.0984	7.5031	5.0786	-2.7612	-20.2776	-7.3792	3.6112	3.3625	0.9062	72.3180	-2.1001	24.6071	1.9155
4920.0000	7.9785	3.9295	13.1486	-13.6143	5.7460	4.5860	-10.4104	-32.2311	-7.1010	2.5356	2.8574	-0.2334	39.0413	-10.8418	6.9093	-10.6902
4928.0000	3.5398	-0.2315	6.6262	-24.8487	3.4466	-1.4491	-5.7701	-46.3114	-6.6910	5.7770	5.1159	4.2101	45.6988	-27.7642	13.7543	-9.8634
4936.0000	8.5155	1.9953	11.2611	-8.0842	3.3600	0.5150	11.8488	-13.1462	1.7438	2.7819	0.6022	0.2273	34.3001	-27.5870	9.6026	-8.7749
4944.0000	1.7888	0.6428	2.8289	-9.4175	2.6756	2.8397	18.1928	-1.5623	2.8972	3.1365	0.3574	0.1131	29.4049	1.0567	17.1794	0.5831
4952.0000	-4.6679	0.4895	0.2324	-11.1280	1.8237	2.5926	3.4316	7.6265	1.9225	3.8850	1.4124	1.1422	4.2181	1.6388	21.9389	-1.3109
4960.0000	4.7687	-1.4993	-4.8224	-6.6918	0.0111	0.5199	9.2390	18.6917	8.2014	4.1075	-0.3623	2.2020	-7.0114	3.0355	18.4721	7.8016
4968.0000	-10.4826	-4.2116	-13.3594	-30.4829	-1.1281	-1.5801	-3.5303	-18.9769	1.1629	7.6781	3.9653	6.8667	7.4150	11.8174	16.8753	9.1803
4976.0000	-11.3766	2.2744	4.8332	-13.7765	1.5250	0.2786	-16.8496	-13.6354	-0.4515	3.7078	2.5011	2.8111	-17.1072	-16.6450	0.2216	-7.8487
4984.0000	-4.6486	4.1770	6.7570	-7.9265	4.5594	4.5474	-20.3638	-10.2585	12.8303	9.1329	0.6343	3.7138	9.5900	-12.5191	5.7990	5.6959
4992.0000	-8.6891	-0.8866	-10.2849	-29.5289	0.9134	3.0742	-25.5630	-26.1908	17.2409	15.2148	2.0014	8.2426	29.6055	9.5650	14.3095	16.2661
5000.0000	22.4580	-2.1764	-3.6843	-17.7817	2.7223	0.0746	0.1796	-1.2718	8.8108	7.0423	0.4355	5.9334	48.5345	0.6885	11.5646	23.0331
5008.0000	21.6097	4.1415	12.2533	-19.0454	14.8900	9.5079	-3.4700	-11.6985	1.5629	8.8730	3.7544	6.6223	101.4268	12.2618	22.8303	38.2215
5016.0000	5.1160	9.5531	18.9461	-6.1875	17.0596	15.7816	-3.2030	-13.0344	12.0965	11.1451	1.5503	3.8024	75.3110	17.2003	17.2156	34.1213
5024.0000	17.6979	3.0306	6.9657	0.4281	12.3687	8.4504	23.8461	-5.0205	21.6064	11.7845	-0.7776	6.1537	85.9128	10.8349	18.0791	47.9836
5032.0000	16.1182	0.0684	0.2609	-14.6512	13.0007	6.4888	21.9439	-26.3611	18.1278	15.1382	2.5280	10.9511	98.7935	16.3190	23.5905	58.0135
5040.0000	23.2362	8.5161	21.5683	6.3265	16.6441	12.8738	37.7021	-9.1381	19.2283	8.2457	-1.9726	2.5089	64.1467	6.0226	6.0627	39.9000
5048.0000	8.0216	9.2576	21.1227	0.1306	16.3501	13.4338	26.9879	-31.0354	20.1319	11.4218	-0.6191	3.4820	71.1465	3.4577	4.5544	34.0665
5056.0000	-6.4026	2.3703	-0.3859	-4.3247	6.8089	6.0434	6.6808	-60.0819	21.8381	14.5691	1.1116	6.9413	15.4648	8.3618	-1.1135	26.7986
5064.0000	9.0735	3.9989	0.5213	15.5157	4.7456	8.8177	18.3487	-41.5002	26.6909	9.1952	-3.9193	1.0891	-26.5716	24.5616	-16.2919	23.7151
5072.0000	-11.3169	6.3493	-4.1190	3.8266	7.4693	15.8216	-1.6770	-92.8529	34.0705	19.4954	-0.8029	4.5252	-50.6699	47.8117	-11.7436	26.5489
5080.0000	-12.8620	3.2713	-11.5343	9.1454	1.9576	11.5248	14.6589	-117.6841	43.6352	22.5714	-1.6821	4.7297	-111.9179	33.3571	-11.6917	12.5746
5088.0000	-3.3463	7.4272	5.0020	10.9103	6.1264	13.6924	49.0474	-45.6025	34.3742	12.2880	-4.1856	-0.6608	-104.6188	25.0535	-3.5369	8.4345
5096.0000	-11.1818	8.0617	9.7892	10.8680	11.5926	13.9329	53.6079	0.7976	18.4714	7.2934	-0.0526	1.0369	-127.7467	27.4374	18.7248	18.4459
5104.0000	-1.4569	2.0974	-0.8118	29.9935	6.2812	5.4044	36.4665	7.9858	10.7242	1.9425	0.3324	1.8106	-140.7094	22.4397	9.5851	23.5689
5112.0000	-16.1315	4.3606	-1.0290	12.6397	2.7082	5.0863	-17.8382	15.4970	1.6466	-1.0338	0.6910	1.5270	-132.3401	26.6763	-16.1031	12.3984
5120.0000	-8.7946	4.4683	5.7040	-1.5096	0.8711	1.3197	0.7644	42.9006	-2.9186	-4.4765	0.5685	0.4138	-168.1273	-3.3361	-7.2009	-8.6517
5128.0000	3.7303	5.7286	18.4524	4.3873	5.0219	0.6363	11.8004	81.7494	-15.3790	-11.4636	0.7849	-2.3568	-112.0903	-20.0645	5.1823	-9.0527
5136.0000	-24.6280	11.2364	25.1233	11.1938	10.1965	4.9580	-42.1330	100.8652	-27.0418	-14.5044	3.5810	-1.1499	-104.0091	-5.4036	-10.9055	3.9991
5144.0000	-13.1996	6.2890	17.0916	16.7000	7.2328	-1.6375	-25.5118	76.7708	-18.4228	-10.4066	4.1055	2.8931	-146.9151	-25.4633	-7.7028	7.1009
5152.0000	-9.2266	1.5657	5.7593	5.5919	3.6044	-3.7101	-39.7518	28.8471	-15.9160	-3.3523	6.1778	5.2174	-107.6674	-24.0245	4.1554	1.2038
5160.0000	-20.1675	-0.0377	-4.7294	7.5843	-0.7892	-3.9989	-64.5192	12.9736	-19.4627	-4.5690	6.3396	4.4895	-123.7759	-0.2313	-11.0950	-0.6831
5168.0000	-0.0606	-3.0314	-6.9562	5.3860	-1.6471	-6.8409	-15.6269	0.5142	-16.1963	-6.4875	4.2170	4.2548	-119.3329	1.1323	-18.0413	6.0243
5176.0000	-0.8191	-1.8698	-3.0028	5.7883	1.3210	-4.1771	2.2198	1.9705	-14.7960	-5.6784	4.0890	3.4345	-94.6261	4.1118	-8.3466	9.2939
5184.0000	-3.7337	-2.2095	-3.9673	20.3116	0.4111	-5.1457	4.6763	37.0213	-16.3103	-9.5396	3.2128	1.7935	-126.8787	5.1954	-2.9107	10.2758
5192.0000	-20.2763	-0.3997	-4.3963	3.5839	0.9754	-2.5546	-17.6434	25.2858	-19.3228	-7.0902	5.0669	3.1621	-112.6518	14.7770	-6.3073	7.6189
5200.0000	-44.2133	4.6273	1.5334	6.3717	3.3153	2.4974	-43.3221	17.0751	-14.1171	-2.9265	5.6271	2.9043	-120.5428	13.1180	-8.3457	1.7723
5208.0000	-21.9912	4.8651	8.7213	24.2108	4.5597	1.3955	-21.8643	43.8109	-10.4922	-6.1616	2.7962	0.2585	-116.4761	-4.3951	-2.4698	2.8464
5216.0000	-2.3089	1.5121	4.8538	18.0922	1.0877	-1.3401	-30.1422	39.8392	-18.3240	-9.5130	2.0379	-1.8400	-54.2727	-1.0354	-4.6052	-2.6313
5224.0000	17.4740	-5.0926	-5.6888	24.9126	-8.1546	-10.3755	-34.9491	53.9827	-19.3122	-13.8247	-0.6666	-3.8116	-39.8836	-15.7150	-8.5033	-13.4322
5232.0000	37.1790	-5.2845	-1.1951	23.4159	-8.3468	-11.3540	-20.3928	82.1890	-18.1209	-16.8275	-3.4496	-5.8278	-3.9936	-24.9592	-6.3069	-13.2172
5240.0000	26.5143	0.9114	9.7187	21.7232	-1.3284	-1.6496	-15.9609	71.0677	-16.8645	-14.9199	-3.6593	-8.2283	43.4798	-5.4537	-5.5751	-8.2792
5248.0000	29.6785	-2.2690	6.7967	25.7767	-3.7543	-6.0741	11.2296	50.2778	-13.2866	-14.5647	-4.4845	-8.2929	60.3329	-18.2300	-7.0330	-10.9168
5256.0000	33.8942	-7.8441	-1.9411	14.5536	-9.9620	-13.3535	21.0846	47.2340	-18.2046	-17.4289	-5.0488	-8.2943	105.0094	-24.4139	-11.5774	-16.5623
5264.0000	37.2727	-10.7934	-11.4273	13.0160	-12.8561	-14.7985	3.5643	47.6555	-19.3897	-17.1476	-4.9125	-7.2897	116.9124	-10.3414	-12.6246	-10.6492
5272.0000	52.1188	-14.1836	-16.8523	5.9795	-15.9131	-20.5397	-4.1197	31.5314	-17.7323	-15.8725	-4.6321	-3.6786	106.8836	-24.0977	-24.2519	-7.6593
5280.0000	45.5602	-10.0165	-5.8425	4.1222	-12.1755	-17.3546	15.1647	30.0557	-20.3459	-18.5748	-5.2533	-5.8763	115.4300	-25.4581	-33.6993	-10.5012
5288.0000	46.9767	-8.5440	-2.5148	7.1977	-6.8795	-12.3159	39.1788	35.2412	-20.2473	-17.5028	-4.3277	-6.2381	112.8517	-10.4646	-15.1607	-1.1760
5296.0000	35.8902	-12.3877	-12.8253	-4.8543	-11.1118	-17.7728	22.5783	29.9531	-21.3863	-15.4532	-2.4684	-2.1610	110.5194	-15.2237	-17.1610	0.0494
5304.0000	0.3503	-6.6766	-6.2701	5.6771	-10.6205	-14.4565	9.1779	43.5873	-17.1332	-16.5332	-3.8708	-4.3755	77.6503	-16.0810	-34.1010	-6.4952
5312.0000	-1.5005	-2.7042	0.9040	6.5946	-4.6187	-7.8459	23.2353	31.0501	-11.0635	-11.8875	-2.9057	-3.8719	48.3171	-10.9500	-22.0148	-3.2156
5320.0000	-7.4934	-1.7004	2.6658	-5.2587	-2.5547	-6.1160	35.1519	15.8119	-7.4393	-7.6272	-1.5569	-1.9022	39.4554	-13.9002	-14.2797	-4.2653
5328.0000	-20.7987	2.5639	5.0390	-0.9040	-4.7454	-1.7194	36.1803	30.1311	5.9554	-6.7222	-5.9862	-5.5937	2.2258	-7.8367	-26.8508	-14.1640
5336.0000	-22.3949	-1.0346	-8.0228	-9.2570	-13.2057	-5.6981	24.9358	17.4335	13.0713	-5.3667	-8.4926	-5.6311	-3.3888	-2.3462	-43.3701	-21.9238
5344.0000	-33.8193	1.0533	-3.8293	10.7280	-7.7088	-2.8387	35.0667	29.1707	14.1572	-5.3930	-7.4553	-4.9409	-19.8985	3.2688	-35.5386	-6.0303
5352.0000	-26.3871	7.4888	6.7767	26.3734	3.6509	10.2127	45.9795	34.9599	26.0984	1.6334	-7.1509	-4.9807	-42.9881	23.8288	-7.4905	12.8454
5360.0000	-32.0560	2.0215	-8.0497	-1.8586	-5.0950	4.2363	34.1847	0.5203	33.4543	8.3100	-7.1175	-1.7898	-12.6968	15.2600	-10.2720	-0.2412
5368.0000	-38.5115	0.6315	-8.4548	12.6560	-7.4916	-0.9833	41.8437	30.5128	32.8858	3.7099	-8.4002	-2.3200	-31.0416	-0.3598	-15.5370	0.6470
5376.0000	-18.3723	2.2265	-7.3744	26.6784	-3.8344	5.9631	47.0625	43.5294	33.0615	1.7275	-10.2325	-5.6950	-26.0335	32.4246	-9.5431	13.3890
5384.0000	-30.0488	2.2217	-10.1505	14.2668	-7.6113	6.6534	49.8300	15.0039	31.1789	1.2643	-11.0764	-8.5670	-1.2472	42.6528	-21.7978	-2.5806
5392.0000	-30.8190	3.6588	-0.1884	31.2785	-3.5839	4.8662	61.9062	39.5281	26.6520	-1.8933	-9.7111	-8.4946	-27.7921	17.4901	-10.7258	-1.7239
5400.0000	-28.0622	-2.0413	-12.5766	22.4733	-6.2556	-0.6684	42.8942	40.4497	23.9434	0.5057	-7.3579	-3.4110	4.8004	18.3010	-2.5378	11.3869
5408.0000	-34.0319	-1.1639	-13.8397	12.6462	-10.5383	-1.8382	33.3295	38.0184	26.8824	-0.7625	-9.7972	-4.5938	2.9422	17.6565	-26.2602	2.3747
5416.0000	-13.3444	3.5747	0.1241	28.3220	-6.0347	3.0002	30.4920	53.1241	26.8803	-3.3300	-11.5453	-8.5078	-8.3210	9.7893	-24.6817	-2.3028
5424.0000	-35.3437	-1.0561	-13.4068	13.4452	-10.6003	-1.5833	0.2103	10.1145	19.3817	0.5140	-6.9604	-4.5313	9.9156	13.7497	-24.4865	-8.1458
5432.0000	-35.3520	-1.3833	-13.8591	10.6128	-11.7176	-3.7912	-0.8698	-8.2083	13.1307	-1.7755	-5.5465	-3.8299	-39.2492	11.0966	-38.1493	-14.3492
5440.0000	-12.1870	-0.1486	-8.8594	14.6932	-10.1872	-2.2171	-12.9612	13.1676	13.3051	-3.6307	-7.4508	-5.2070	-12.7468	9.9524	-39.4313	-9.3603
5448.0000	-37.9821	0.4349	-13.4722	2.9258	-11.4775	-1.7648	-32.8279	23.8700	9.7421	-3.7346	-6.2760	-3.7779	-8.5247	23.8003	-45.7130	-6.8699
5456.0000	-26.5703	5.5328	2.3290	11.0300	-0.0019	5.9043	-2.1981	28.4050	-0.6662	-6.5730	-3.1429	-4.6871	-52.5531	33.5556	-28.1039	1.9315
5464.0000	-35.1271	6.1271	4.1671	5.5651	2.2292	6.4698	-20.0364	-10.4768	6.4639	2.9211	-0.1901	-0.6523	-32.4290	13.1355	-15.2882	-1.0322
5472.0000	-42.8495	2.1410	-8.6132	-7.1775	-5.8787	-0.8347	-43.2365	-18.6086	13.6550	6.7277	-0.1080	3.6284	-83.7346	-2.7190	-26.4942	-9.2274
5480.0000	-4.5189	-0.6072	-7.5143	-13.2369	-0.7464	0.1611	-22.9016	10.3912	-4.4004	0.6798	2.5780	3.8189	-72.4218	16.3485	-0.8242	5.5214
5488.0000	-19.8417	-0.2408	-7.7158	-25.0696	-0.6517	0.5094	-52.8441	-15.3652	-12.5190	3.4340	6.5573	5.2702	-59.9227	12.4680	5.4017	-6.2820
5496.0000	-5.7327	1.1298	-0.5416	-14.3013	-1.7608	-1.6899	-47.2381	-11.5514	-13.7374	-0.7535	5.1549	2.8787	-120.9380	-9.2725	-5.7630	-20.6395
5504.0000	0.6300	2.8253	9.9136	-9.6547	9.3656	2.2369	-21.4596	11.9304	-18.6025	0.1945	8.3831	5.7261	-76.5411	-9.4007	25.8122	5.2319
5512.0000	-23.4333	2.6232	5.0639	-11.8872	9.6823	2.0304	-41.5393	-9.7823	-13.8713	7.3053	11.7031	10.2174	-104.4760	-14.4819	34.3323	6.4907
5520.0000	14.3199	-0.6134	4.1907	-4.5658	7.1087	-0.6553	-27.6709	-12.8713	-25.0461	-0.3712	10.4467	5.9543	-110.6459	-10.3626	30.4863	-2.3159
5528.0000	7.8543	1.7576	9.2429	-11.3770	13.0970	3.6043	-39.8953	-27.3919	-30.5126	2.0030	13.4116	8.0035	-64.6127	-0.6748	35.4539	8.8387
5536.0000	9.8026	0.1320	1.0584	-7.2868	7.5979	0.9235	-57.3782	-50.8289	-14.4655	8.2127	11.4656	9.9014	-109.8250	-12.2358	24.5482	3.0222
5544.0000	23.3952	-5.9427	-8.6846	-8.2513	0.9433	-5.6047	-45.7975	-34.3515	-14.5321	5.4222	9.1225	8.4281	-62.1259	-17.0298	29.6156	-0.3166
5552.0000	-18.4101	0.9534	-0.6924	-12.1837	6.0455	0.2636	-65.4532	-14.8672	-10.1952	8.7502	10.4790	10.5633	-82.7094	-14.2105	26.3127	6.1291
5560.0000	-8.6556	7.5914	11.1793	-0.7497	11.7958	9.5578	-48.5816	-2.9831	1.7458	10.2042	7.0921	7.2615	-116.2014	-3.9827	25.9624	9.9951
5568.0000	-19.4960	7.1743	10.2067	-11.8913	15.1056	12.2672	-46.7273	-17.6894	-2.7396	13.6591	10.1465	8.8116	-58.9079	7.6081	44.6969	15.5953
5576.0000	-38.1311	7.8590	8.4158	-8.6024	12.9600	10.1096	-68.3184	-35.1655	-3.8183	14.1875	11.7259	10.3140	-116.3897	-0.7312	30.0729	7.4211
5584.0000	-27.5829	7.5662	10.4551	0.9942	9.5767	9.7108	-42.2498	-23.4784	-1.5476	8.7819	6.8199	3.8979	-79.5391	0.5989	21.3241	-2.6036
5592.0000	-52.4808	6.0410	5.8593	-10.1561	8.4936	7.6931	-47.0949	-20.3914	-3.3703	10.8201	8.6832	6.1576	-37.8168	-0.5974	29.0902	-0.7773
5600.0000	-15.1608	0.6980	2.2164	-0.8748	5.7511	-0.0616	-32.2832	-3.5598	-5.9654	5.9709	7.2338	6.9670	-43.5625	-16.8411	26.5765	6.7258
5608.0000	22.8646	-3.7144	2.5842	-5.2431	6.3401	-1.6587	10.4041	-3.3058	-10.2806	2.5832	5.1055	4.0479	72.1417	-12.8886	40.3838	13.5374
5616.0000	28.0306	-6.4530	-3.3213	-13.6401	3.3663	-3.2258	6.5124	-32.0945	-10.7690	4.8739	5.7125	4.2260	95.2143	-11.4978	42.2752	6.0449
5624.0000	148.2684	-2.0531	9.9908	-20.9636	16.1857	8.6243	-3.0576	-51.5637	-7.3562	8.7008	5.8227	7.9255	-29.5601	10.0498	45.0485	31.9449
5632.0000	162.9971	0.8787	18.9391	-7.7843	17.4031	10.2278	-17.5775	-57.2288	-6.4835	6.6355	3.6676	4.9594	-10.9381	0.3631	29.9919	27.6400
5640.0000	165.2893	1.5853	19.5479	-9.0538	13.7987	9.1739	-11.6271	-26.0127	-2.1286	2.9928	-0.3153	2.1773	-16.6599	-2.0749	17.7719	21.8776
5648.0000	171.6693	-4.5571	7.9261	-10.5652	8.3457	4.0145	4.5485	-37.2501	-0.2830	4.1081	-0.6466	2.2160	4.9556	-3.7344	29.5498	17.3049
5656.0000	180.7635	-5.3335	7.5377	-2.4979	5.8541	2.2174	-10.7852	-53.2099	-0.9848	3.2471	-1.3934	0.6754	10.5229	-11.6215	20.6011	8.8564
5664.0000	182.9020	-3.3966	8.7437	-9.7393	4.7520	5.2748	-2.4330	-21.0998	-3.0018	-2.3132	-4.8293	-3.2413	24.2859	10.7229	8.0093	9.3199
5672.0000	168.8376	-1.4634	14.6344	-5.2497	7.1587	5.5225	5.4437	-3.4045	-3.6157	-3.9249	-5.0385	-3.5300	48.6397	3.7390	7.4405	14.0269
5680.0000	155.4032	1.4763	24.1665	9.1036	11.1353	6.0263	9.2251	-2.1595	-3.4497	-3.7738	-3.8442	-3.4103	37.0035	-15.8399	10.9625	13.1957
5688.0000	137.4824	0.7298	17.3999	7.1277	8.9148	8.2449	17.4222	3.3887	-2.1884	-3.6450	-4.6897	-5.6385	55.0890	6.9920	17.6346	11.2843
5696.0000	128.5373	-0.3804	11.1820	5.8539	4.2157	6.2596	2.1136	0.8176	3.8093	-1.9441	-6.1098	-5.5833	52.6309	5.1143	9.1443	5.6272
5704.0000	136.8623	-2.2702	9.2786	3.4749	1.5366	2.8249	6.2207	13.3825	4.1361	-3.7792	-7.4220	-5.7351	60.6468	-3.2934	6.1367	3.9718
5712.0000	124.1459	-3.7987	4.3462	4.6224	-1.0734	0.7136	6.9524	52.9991	1.5688	-7.8770	-8.8066	-6.7064	86.7392	5.6618	5.7203	9.9370
5720.0000	113.7331	-1.4958	8.8803	17.6499	0.0338	1.2654	11.5053	55.1922	6.7802	-7.8467	-9.7619	-7.2728	61.1955	-3.2285	-1.1475	9.9548
5728.0000	103.9610	-1.5192	8.1918	15.6241	0.9205	4.0167	31.6292	12.4138	9.0634	-3.7772	-8.5729	-8.3744	75.5275	3.2760	8.5551	1.6957
5736.0000	81.7549	-0.5919	8.2248	14.1928	0.4725	3.6185	20.8199	10.4067	7.6876	-2.9674	-7.2401	-7.7103	70.6515	-1.0324	7.4991	-3.0738
5744.0000	74.4134	3.2783	17.8439	18.2342	4.1266	5.3520	16.6714	14.6129	9.4296	-2.3325	-6.8549	-7.1421	56.2423	-15.5068	3.7213	-3.0773
5752.0000	54.4825	-0.7166	-1.6783	3.9956	-3.5203	5.3147	-9.7635	-15.1413	15.5369	3.9178	-6.7114	-6.2905	74.1271	11.9305	4.4349	-9.4788
5760.0000	51.4519	-7.3715	-21.3350	6.2184	-14.6718	-3.6626	-20.2343	8.1933	20.6717	1.0438	-9.8330	-5.2444	43.4976	17.1904	-14.2304	-6.9863
5768.0000	68.6590	-3.3732	-0.9950	18.5197	-4.9478	-1.9349	32.4483	42.3194	14.9326	-5.6636	-10.4018	-6.7275	54.7474	-0.1796	-8.6230	6.8127
5776.0000	41.7153	1.6070	6.3046	8.4197	1.4297	5.5904	18.2921	11.0331	11.2395	0.1779	-5.7651	-5.4515	53.3214	7.4141	5.5790	1.1656
5784.0000	16.8091	-0.6301	-3.3790	3.5952	-3.2063	1.6666	-3.7758	-6.1710	12.8792	3.6257	-3.7438	-2.3819	21.3287	2.2384	1.6052	-5.3801
5792.0000	17.2893	-0.0475	2.7049	5.6039	2.3844	2.9493	28.5869	12.5731	8.9308	2.1850	-2.3380	-1.7342	34.9553	1.3909	19.6157	5.9993
5800.0000	6.7123	2.1130	2.4695	5.9158	4.4165	7.2324	14.5827	5.4853	8.2052	3.9971	-0.9521	-1.4481	10.9585	17.3599	21.2110	7.8194
5808.0000	-6.5469	0.2308	-5.0322	8.2681	-0.8300	2.8695	-4.1903	-19.3670	7.7837	3.0777	-1.2526	-0.7790	2.1453	17.4211	-5.0857	4.1208
5816.0000	-6.2905	-4.2603	-13.1219	0.8440	-3.7806	-2.5468	5.2582	-22.6107	3.6626	2.2600	0.1246	1.6124	1.3582	15.0515	-2.8812	6.5857
5824.0000	-11.1413	-6.0098	-16.8154	-3.3543	-7.8297	-6.0116	-8.7413	-16.9456	2.5952	2.3515	0.4283	1.7198	-5.3253	2.8988	0.1232	-5.1882
5832.0000	-32.1900	0.7020	-0.2233	3.9160	-4.9365	-3.2873	-17.3001	-7.9907	0.0186	-1.0116	-0.5877	-1.9799	10.9734	-16.5543	-14.7302	-18.8565
5840.0000	-28.3957	2.5075	5.7900	8.4365	2.7826	0.9171	20.6613	13.2354	-2.5624	-2.6617	0.5397	-1.0545	-3.1885	-1.6634	-0.1751	1.8769
5848.0000	-25.8482	-3.0247	-7.2624	6.2671	1.9335	-0.9685	29.0985	0.8445	-3.7400	0.4867	2.9448	2.0289	13.0738	15.2388	19.6156	14.8255
5856.0000	-49.7760	0.7302	-1.1350	2.6687	-2.0182	-1.5663	-11.4580	-15.9025	-5.5322	0.4437	2.8760	-0.5833	3.8379	-7.8461	1.0285	-16.0620
5864.0000	-61.1356	9.0863	18.1014	4.8244	4.8291	4.2970	-6.4963	8.4846	-3.6801	-1.1273	1.9194	-2.1714	-16.2753	-20.6704	-6.7246	-17.5871
5872.0000	-68.6845	9.3236	17.1390	8.0225	12.8117	8.7213	4.7596	9.8015	-0.1761	4.7716	5.0748	2.7758	8.0313	-3.2768	17.6763	13.2489
5880.0000	-62.9483	3.2324	1.2158	9.4981	6.0004	3.6379	-3.0074	8.9593	1.2232	5.4335	4.9747	3.8344	-15.1350	3.8217	23.0456	11.7544
5888.0000	-72.7091	4.9804	3.3130	11.6803	2.9535	3.8316	-4.4343	9.8961	-0.3684	0.9989	2.3577	-0.3270	-5.8316	7.4052	1.8985	0.1831
5896.0000	-100.3756	8.0754	7.1103	5.7819	4.9512	5.9892	-26.6388	-28.1676	-2.8686	4.8585	5.5994	1.3187	-8.5208	3.0011	-5.0501	-7.7700
5904.0000	-84.1043	-0.5522	-7.0704	-0.2137	-3.2449	-5.0144	-16.0933	-6.1280	-4.4535	3.0267	5.5432	3.5609	-26.1184	-15.6279	7.8738	-12.7528
5912.0000	-85.5401	3.2647	2.2239	8.6039	0.4057	-0.7641	2.7932	43.7967	-5.0076	-2.7785	2.2475	-0.5753	9.9575	-4.9262	6.7222	-3.5027
5920.0000	-101.7278	14.2977	21.5300	13.4685	10.6991	13.1269	-5.9445	22.0082	-0.6308	1.8073	3.2941	-2.9081	-21.3050	5.2645	7.5466	-8.1936
5928.0000	-92.8034	8.1080	9.6896	2.1492	4.7865	6.3483	-2.1490	8.3019	3.3441	5.7305	4.1505	0.1802	-31.8141	-9.6050	19.6163	-15.3376
5936.0000	-96.2716	4.7981	-0.1529	-3.4137	0.2200	1.8544	-12.2306	18.7466	1.8488	3.6871	3.5155	1.8703	-27.7783	-1.9954	6.2777	-8.5342
5944.0000	-86.8819	8.4968	7.8689	0.3331	3.9880	6.4437	-10.2643	19.1719	1.6418	2.4536	2.7100	0.1836	-41.5994	4.3291	0.3208	-6.7902
5952.0000	-79.8097	7.2168	9.9772	3.2198	5.3283	4.1723	-0.8419	28.8497	1.0331	1.8796	2.7400	1.0712	-2.9633	-7.2162	6.6900	0.3840
5960.0000	-69.2436	3.8380	4.2275	7.3893	3.2337	-1.1416	-5.4428	33.9848	-1.7468	-0.5212	2.9789	3.4988	-17.9071	-10.9532	-2.9145	10.1755
5968.0000	-34.9743	-1.9234	-2.8765	4.1537	0.0014	-5.9572	9.9643	31.2336	-4.2474	-1.9785	2.4635	3.7016	-5.0759	-13.9469	6.1917	10.5242
5976.0000	-13.8154	-5.7175	-8.4291	-7.0914	-3.6286	-7.9646	18.0970	27.2308	-13.6376	-5.8556	2.2234	1.2810	19.4098	-3.2204	10.1492	1.3562
5984.0000	14.5252	-5.4500	-4.3650	-10.9995	-5.3008	-8.7000	17.5847	30.0618	-22.5544	-12.4218	0.7208	-2.0743	-1.1163	-3.2618	-4.6228	-10.2800
5992.0000	30.8220	-4.8257	1.2957	-6.8764	-2.9037	-10.5106	-0.2389	33.6196	-16.3170	-9.1625	0.5701	1.1661	20.5796	-29.4181	-5.4217	-1.1235
6000.0000	46.6288	-8.5732	-11.7609	-6.1143	-8.0003	-12.4174	-12.7899	27.6803	-9.7847	-7.5516	-1.1702	2.2487	-6.9772	-14.0839	-13.1928	4.3273
6008.0000	83.0414	-11.6097	-18.6324	-5.4946	-13.7663	-11.4935	7.0141	48.8416	-12.3818	-14.7565	-6.3059	-4.9685	1.3021	14.6619	-15.4615	-4.7141
6016.0000	81.5196	-4.6410	0.9731	0.4998	-3.1054	-4.9812	6.5210	67.6987	-11.6083	-12.8283	-4.9369	-4.2095	25.4419	-0.9245	-2.0223	5.2081
6024.0000	70.0000	-1.7086	8.3647	-2.9215	1.6326	-3.2161	14.3422	38.6438	-8.2222	-7.5793	-1.9823	-0.9510	-15.2035	-17.5025	2.4767	3.4017
6032.0000	65.5917	-6.2663	-3.4192	-1.3064	-6.6663	-7.6475	5.7728	24.6534	-3.4662	-6.1732	-3.7929	-2.8868	12.5064	-20.2269	2.6139	-11.2127
6040.0000	65.7559	-4.5451	-4.9234	10.6696	-7.6118	-4.8965	-12.5708	51.6098	2.8638	-7.3552	-7.0212	-4.8368	12.9268	-5.2019	-7.2569	-3.3402
6048.0000	71.2768	0.1470	3.1292	2.7490	-4.6963	2.5565	24.0677	64.7797	5.4813	-10.8392	-10.7979	-9.6964	14.3603	19.6484	-16.9059	-3.4199
6056.0000	54.8716	1.1195	6.5213	3.6027	-1.3453	2.9656	21.5762	49.6506	7.1202	-6.4995	-8.3386	-7.0826	39.8590	7.7008	-7.4553	0.6013
6064.0000	50.1485	-0.0397	4.4026	13.0173	0.6484	0.4965	0.4269	38.7534	6.2595	-3.5537	-5.1113	-2.3631	20.3402	-2.3474	-4.4419	12.3383
6072.0000	33.6918	0.2191	0.8956	-2.3449	-6.8877	-0.4073	-6.5239	37.2459	7.1216	-5.8914	-8.4280	-6.8714	52.7928	1.7341	-23.2451	-10.8792
6080.0000	22.5185	-1.1390	-2.0730	-1.0257	-9.9800	-5.1922	-20.6815	35.2773	10.4537	-4.4154	-8.1632	-4.6230	44.0172	-17.6147	-30.2541	-13.8675
6088.0000	43.4800	-2.2249	0.9099	9.7331	-1.7057	-2.9309	19.8528	46.7519	4.7699	-6.3509	-6.0678	-2.6393	43.4802	-1.8932	-9.9906	14.6386
6096.0000	28.1717	-3.2854	-6.8019	-3.9784	-3.9874	0.2841	27.7738	47.2552	2.5868	-6.0494	-6.2905	-4.9895	79.0479	28.3942	-0.2942	10.2472
6104.0000	34.7167	-10.2866	-21.2886	-12.5887	-13.4398	-10.6445	-2.7747	16.0773	5.7663	-1.8755	-4.9396	-0.3200	52.8650	-0.7878	-7.3852	-2.8508
6112.0000	44.8058	-6.9823	-6.4363	-8.0248	-10.4797	-10.5396	-2.8493	1.8260	-0.5656	-5.0279	-4.9095	-2.8858	77.6198	-26.0264	-16.8752	-15.4915
6120.0000	17.8978	-1.3171	0.6895	-3.1491	-9.4900	-4.4177	-5.9226	20.7139	-3.8376	-9.1767	-6.3716	-8.2727	63.3766	-9.7719	-25.1923	-27.2133
6128.0000	42.2740	-7.5282	-11.7740	-0.7869	-11.3253	-8.0095	22.5955	37.0395	-1.2622	-9.9015	-7.2006	-6.1112	52.7109	5.5840	-13.2403	-7.7519
6136.0000	43.7811	-4.5635	-0.5819	4.9097	-4.3506	-5.0107	23.3983	31.6922	-5.7839	-9.6965	-5.3996	-5.6564	98.2079	-1.2424	-7.2679	1.0021
6144.0000	18.1672	-4.5710	-3.1082	6.7484	-6.6942	-9.0769	-6.8317	19.1752	-10.7118	-9.9477	-2.7500	-3.0174	57.0066	-13.6416	-22.4768	-4.9250
6152.0000	38.8162	-10.9457	-17.3629	0.4773	-12.0698	-13.9226	7.8815	22.0767	-7.1635	-10.5487	-4.8650	-1.7552	76.9250	-0.3174	-25.5832	6.0777
6160.0000	38.4469	-7.7826	-11.9244	1.9898	-9.5961	-9.0011	-0.9912	23.0546	-5.8756	-9.5949	-5.4770	-3.7702	96.3169	6.4611	-22.8727	4.0041
6168.0000	28.1735	-11.4049	-17.3215	-7.0995	-14.2494	-16.6559	-4.5082	6.0329	-12.0024	-10.0349	-2.8221	-1.1401	63.9069	-15.7140	-26.1787	-9.4688
6176.0000	21.1653	-10.7176	-12.3948	-14.4809	-14.2549	-18.4773	4.8665	-2.4016	-12.8481	-10.2107	-2.7139	-1.1468	89.0624	-32.7847	-30.7828	-16.7881
6184.0000	3.7599	-4.0170	0.3695	-4.9991	-7.4834	-12.7993	-20.4066	10.9184	-14.1498	-9.0877	-0.6933	-0.5251	56.4420	-38.9676	-28.8010	-14.4830
6192.0000	3.4390	-8.1038	-9.3906	-13.6338	-8.0281	-16.2090	-15.2943	27.1241	-19.0145	-9.8052	1.3522	3.6447	48.7669	-26.5448	-22.0347	2.5775
6200.0000	4.1999	-7.8014	-10.2992	-17.8360	-7.2773	-14.2513	-1.2795	26.0215	-18.0987	-10.2199	0.5615	3.1244	55.7836	-12.1808	-24.8908	7.9374
6208.0000	27.6391	-1.4145	1.2205	-2.7897	3.2344	-1.5398	-9.9362	47.3110	-14.8413	-4.9076	3.4724	2.7741	-70.9028	-0.7339	20.2113	8.4870
6216.0000	33.0361	-4.2763	-4.0317	-2.2664	0.8457	-4.1378	-6.3078	41.5183	-17.3138	-6.1436	3.4257	2.5748	-58.8599	2.2282	19.8136	8.3874
6224.0000	33.5865	-3.2505	3.3859	-2.8377	-0.2212	-7.1464	-5.5733	38.9269	-23.1780	-10.0531	3.1639	0.7380	-54.2114	-20.6879	8.5770	-6.3558
6232.0000	11.3193	2.2668	12.8714	0.2439	3.2240	-2.3475	-0.8621	49.4508	-15.3387	-8.2536	1.7188	-0.4862	-48.4403	-24.3718	4.7038	-6.4811
6240.0000	-13.4857	4.2206	11.3626	-5.4657	8.4836	2.5725	1.5207	38.1883	-12.2752	-2.7026	4.6242	3.4439	-51.7880	-4.2248	13.5298	11.1396
6248.0000	-7.8040	3.7478	9.3945	-7.6203	7.8475	3.3503	-5.7908	30.3242	-13.8595	-2.5091	4.7823	2.9713	-48.3264	2.9055	13.5230	9.2786
6256.0000	-1.6647	2.9612	6.5550	-9.4680	4.0490	2.7902	-10.6840	17.9824	-6.2119	0.1514	2.8267	1.6385	-46.3828	-3.3601	12.0521	-2.3637
6264.0000	-8.3693	-0.2675	-0.2015	-10.0610	0.9986	-1.6057	-5.1396	15.1151	-2.4359	1.8966	2.9424	3.6226	-41.2701	-11.7580	14.4504	-0.7654
6272.0000	-5.0335	-5.4469	-9.8710	-1.4000	-2.5817	-7.4701	6.4677	57.7417	-0.9393	-1.0106	1.3465	4.5424	-19.2678	-11.8048	23.2505	13.1446
6280.0000	-5.0663	-5.5632	-13.4771	-4.6376	-3.1141	-5.7706	-0.5550	51.9962	4.8924	2.2952	0.7654	5.2290	-11.2603	-3.2026	24.6468	16.5554
6288.0000	-12.2161	-0.2141	-4.0167	-3.0239	-1.2902	0.3156	-7.6586	20.7002	5.4372	2.4936	-0.3457	1.0044	-1.8780	2.1123	9.2384	1.9246
6296.0000	-11.9779	3.6077	3.3951	4.9722	0.6670	5.4850	2.5835	44.8647	5.2726	-1.4379	-3.0189	-3.9835	3.1272	14.1760	7.7161	-1.3334
6304.0000	-4.9901	0.3425	-3.9991	-7.3834	-1.4911	2.6819	5.8110	33.0568	7.8541	1.5417	-2.2934	-0.9292	0.9594	13.8077	10.7463	1.9413
6312.0000	3.0216	-2.3749	-3.4047	-11.1806	-0.5765	-1.9668	14.6461	8.8480	3.0597	2.1587	0.0673	1.9905	27.2676	-4.3151	12.2670	4.8289
6320.0000	-1.6790	0.7495	3.7542	-0.2106	4.9000	1.2969	11.3792	24.9318	2.3629	2.2331	1.2588	2.7631	11.8933	-4.8725	19.4437	14.8336
6328.0000	-10.6060	-3.8054	-10.8541	-2.0107	-4.3678	-5.0108	-9.0576	25.2811	6.2393	2.5796	0.0454	3.4361	-14.7827	-7.0544	9.2607	5.3680
6336.0000	-2.7662	-7.4021	-15.3183	-5.0737	-10.1068	-10.2935	-5.5576	35.9025	-2.9460	-3.6142	-0.9152	0.5288	-1.7884	-11.2791	5.2402	-8.5181
6344.0000	10.6252	-0.1943	3.8201	2.2703	1.1946	-0.8282	8.7761	39.4461	-6.4424	-4.2699	0.1968	-1.1135	-14.4056	-6.4986	14.7706	-1.1495
6352.0000	5.5031	2.1960	8.7028	2.6174	5.3278	1.9045	10.5639	27.0604	-0.4673	-0.1655	0.7251	0.8938	-0.2386	-9.7572	15.0542	7.9556
6360.0000	-4.2265	1.3711	3.7162	-2.5652	4.1972	1.8576	-6.0831	42.6086	-4.9181	-1.3110	1.3509	1.4496	19.0503	4.0445	15.1942	13.1001
6368.0000	3.5857	0.6701	1.9943	5.5782	2.4455	1.7083	-10.8876	31.5944	-7.4756	-3.4288	0.6748	-0.7700	11.4103	9.8249	8.7899	7.7986
6376.0000	6.8919	0.7000	5.9593	11.6672	1.4291	-0.2108	3.2477	13.0826	-4.6430	-3.7688	-0.5779	-2.4481	22.0180	-7.5536	2.1694	-1.5783
6384.0000	-1.5279	5.3804	11.9803	9.1205	4.5640	5.4817	-8.9504	22.4644	-1.8575	-2.3261	-0.8256	-2.9993	2.6197	0.6339	0.4382	-1.3975
6392.0000	-8.4797	4.1378	6.1432	11.8022	1.5220	4.3186	-18.6742	13.2755	2.5229	-0.7475	-1.6145	-2.8634	5.5569	3.8144	-5.6422	-2.3104
6400.0000	-0.5446	-0.9959	0.2435	8.7632	-2.0486	-2.4833	-2.3674	8.6651	-1.8475	-2.8236	-1.1984	-2.0128	30.1863	-7.8681	-2.9619	-3.9517
6408.0000	15.1329	-0.9149	2.4213	5.5175	-2.7127	-1.7144	11.0096	13.7017	-5.6196	-6.4309	-2.5926	-4.9499	27.1004	-2.9164	-4.7825	-10.9948
6416.0000	2.5287	1.8299	6.4248	14.4567	0.3159	1.0992	14.7094	14.2979	0.8286	-4.5246	-3.2096	-4.6160	29.2568	-1.4723	-8.0780	-2.4562
6424.0000	-3.6542	1.9227	6.1184	16.8340	6.7488	1.1612	6.9635	15.9001	3.8208	1.0707	0.8081	3.2250	5.3891	-5.0251	3.0064	25.8054
6432.0000	1.9382	2.3725	5.7426	7.3984	4.5370	2.5890	3.1632	2.7195	5.1142	1.8839	-0.2680	1.2778	9.0993	-1.8533	-0.2966	13.2313
6440.0000	-10.1606	6.8277	12.2814	9.5890	4.0704	9.0625	15.5746	4.2442	9.1486	0.7573	-3.4909	-5.6286	21.0953	9.0540	-1.0672	-6.0009
6448.0000	-1.1194	0.3500	1.5937	17.7469	2.8994	2.3966	23.0726	13.9554	4.8575	0.2933	-0.9193	-1.4338	6.5855	5.5906	15.2644	9.2571
6456.0000	-3.6191	-7.3826	-12.8778	7.7909	-5.9096	-9.4382	9.6438	12.9127	-5.8174	-4.0836	0.3906	1.1111	22.0640	-5.1629	2.7102	4.9660
6464.0000	-14.6426	-2.2528	-8.9232	-0.4967	-6.3592	-2.5720	7.0090	21.3048	-7.1093	-7.6278	-2.1762	-3.8253	-3.2325	22.1139	-15.5731	-5.9813
6472.0000	-1.0599	-3.1857	-13.4438	0.8989	-8.0925	-1.0879	6.8777	19.0437	-0.1366	-5.5638	-4.0189	-4.6693	-11.8593	31.8391	-12.8670	-5.6362
6480.0000	-14.0872	-0.6425	-6.9501	3.2504	-6.4534	-2.9699	-20.0035	18.2806	2.7964	-3.4609	-3.2067	-1.5667	-3.4516	6.3747	-25.8995	-2.3835
6488.0000	-20.3695	6.5773	9.9073	9.4438	4.5841	4.6070	-6.9567	1.9687	3.7321	-0.7856	-0.7332	0.1046	-40.5043	3.5807	-24.7696	8.0193
6496.0000	-13.8405	-1.5307	-2.9981	-0.1624	-2.2742	-3.1120	12.6365	-17.6878	-0.4320	0.3706	1.0734	0.5257	-26.1790	-8.5552	-1.1563	-8.4888
6504.0000	-13.1835	-5.3262	-10.0246	-6.7865	-9.0977	-10.6509	-6.8056	42.2859	-13.0180	-8.8206	0.0983	-0.3593	-23.0572	-11.9602	-8.1353	-12.7162
6512.0000	-0.3644	2.2254	6.1369	0.0569	1.7354	-0.2035	15.5444	71.1709	-8.7780	-10.4544	-2.2360	-1.8873	-11.7308	9.0312	-11.9549	12.0734
6520.0000	-19.9136	4.5666	9.4127	-5.1373	3.2459	3.9987	27.6891	30.5114	6.0007	-0.4050	-2.1170	-1.7999	18.1450	-1.7490	2.6791	0.9670
6528.0000	-27.9005	0.3561	-0.2612	-2.6939	-2.5690	-2.7857	5.2445	30.6138	-5.6939	-4.8222	-0.0129	-1.1068	-16.2701	-4.1331	-4.7734	-7.4437
6536.0000	-5.6359	-3.5273	-5.7172	-2.1754	-4.7947	-6.2507	7.7755	16.4859	-15.9650	-9.7331	0.2772	-1.7657	-5.0674	6.0877	-14.8240	-4.8251
6544.0000	-6.1189	0.4756	0.9812	-10.7135	-4.8793	-2.3019	4.0330	16.9410	-1.8834	-4.5307	-2.5807	-3.1521	0.1656	-6.6252	-14.7162	-16.8924
6552.0000	-13.7255	6.6096	12.9458	-8.8203	2.0328	2.8859	-5.8306	45.4442	0.1553	-4.1815	-2.2906	-1.6358	-20.4847	-8.3657	-17.6329	-4.3003
6560.0000	-22.8029	4.8449	9.1993	-12.2116	2.7288	1.1575	-16.4615	12.2252	-5.5087	-2.0900	1.1212	1.3746	-4.4329	-7.0133	-18.8108	-0.1414
6568.0000	-0.0242	-1.1267	-1.9750	-10.7579	-3.8234	-3.5531	-4.0452	18.1849	-8.1579	-5.4313	-0.4555	-0.9046	-13.4889	-1.2857	-11.8745	-8.3334
6576.0000	15.7420	0.9370	6.9967	-4.7508	0.4395	-1.1794	14.9372	49.3250	-16.0875	-12.0792	-1.4658	-3.6857	-3.4257	5.2285	-10.9375	-1.2724
6584.0000	-16.3823	6.2061	13.9912	-2.3797	2.2518	1.0457	-20.8563	22.8872	-10.1603	-6.9125	-0.0912	-1.7280	-17.8521	-11.0067	-27.6705	-7.5381
6592.0000	-17.4528	1.7623	0.4300	-1.9889	-4.0094	-3.3300	-35.0950	9.3956	-2.9157	-3.1942	-0.4313	0.3798	-40.8980	-11.6875	-28.7789	-9.7416
6600.0000	-7.3409	-0.8514	-2.0632	-15.2746	-4.9100	-4.8837	-16.4446	-2.9022	-3.6551	-1.6024	0.2012	0.9820	-17.2032	-15.1517	-16.9958	-13.9027
6608.0000	2.5422	-1.7645	-3.2806	-12.6583	-7.7853	-6.3847	-10.1503	7.6417	2.0299	-2.0534	-2.3337	-0.5429	-21.3630	-22.1276	-18.0856	-19.1690
6616.0000	16.1388	-5.7424	-13.1290	-4.5825	-9.9925	-7.9114	-2.1453	43.7621	-2.3688	-7.7385	-4.2188	-1.8495	-2.6577	5.5099	-16.7809	-2.0681
6624.0000	-1.3247	-0.8137	-3.2632	-8.8777	-5.0804	-3.5780	-6.8574	42.3314	-6.1754	-7.6875	-2.5849	-1.8059	-4.8745	5.6155	-19.9218	-2.8386
6632.0000	-4.0139	2.4868	5.4647	-1.0671	-0.2342	-1.1946	-4.1839	43.4034	-2.1072	-5.5798	-1.9851	-0.6351	-19.8702	-6.4057	-16.8073	2.4006
6640.0000	-6.2557	-0.0916	-1.4428	-3.4955	2.3437	-1.1369	-17.5114	19.6394	-6.3880	-1.7960	1.8855	3.8300	6.7748	7.9408	-7.4036	19.7911
6648.0000	-10.7438	-1.3348	-5.5911	-5.7024	-2.0062	-3.7743	-31.0035	-10.4860	-5.0236	-0.0950	2.1518	3.8050	-14.5008	-0.8957	-17.2081	5.0244
6656.0000	5.7809	-6.2030	-11.8752	-0.6322	-7.3887	-9.8279	-6.1657	11.2629	-6.6693	-5.6585	-0.5758	1.4323	-4.6658	-5.2091	-17.6141	2.1065
6664.0000	9.1727	-8.6583	-17.1457	-7.4213	-8.5778	-12.4321	-17.0798	15.4180	-12.9990	-7.3510	0.4921	3.2681	15.1809	1.6369	-21.5196	9.7769
6672.0000	13.0675	-7.3579	-14.8460	-4.8677	-10.0681	-12.8142	-21.5457	21.4080	-8.7185	-8.3765	-1.7177	2.1739	1.7218	-4.9567	-34.8049	6.0588
6680.0000	8.4448	-7.0633	-11.9857	-7.5067	-6.9727	-11.8487	2.4306	28.1954	-8.3545	-7.6863	-1.0505	2.8998	20.5197	-5.4927	-22.9214	12.7005
6688.0000	3.3230	-4.6005	-7.2458	-9.7696	-5.3890	-9.1748	2.8389	7.2026	-3.7607	-4.0968	-0.7128	2.7344	11.3301	-12.2103	-21.7875	4.9976
6696.0000	2.3945	1.5137	5.7201	-1.2803	-3.2268	-2.5352	18.4850	30.2656	-0.2788	-7.8974	-4.8177	-4.1534	13.3437	-8.2908	-26.9699	-6.9264
6704.0000	-18.3765	5.1229	14.1019	-5.8424	3.4751	0.9854	18.8365	47.1717	-10.0676	-9.1686	-1.2505	-2.6232	15.4786	-4.1354	-16.8730	0.9218
6712.0000	-12.8041	-0.6725	2.5921	-6.3828	-1.0614	-6.8616	2.0419	17.5361	-6.8592	-5.0201	0.4596	2.5344	13.3650	-20.7162	-20.7930	5.0443
6720.0000	-0.5433	-2.8282	-2.7973	-5.4991	-3.9008	-7.0644	3.5568	16.0581	-1.9751	-4.3443	-1.9162	0.9540	51.4188	-12.3999	-20.2458	6.0430
6728.0000	-9.9822	3.2549	7.3050	-3.9059	2.5228	0.8711	-3.7430	30.5530	-1.7804	-3.3161	-1.1973	0.1483	31.5802	-1.5267	-14.1684	9.7901
6736.0000	-23.5673	4.4981	5.4156	3.2954	0.7488	2.5520	-4.8327	21.2381	7.5251	-0.6120	-2.8072	-1.0759	11.1006	1.1226	-18.8110	4.5670
6744.0000	-30.0885	1.8399	-2.2862	1.1260	-1.8223	1.6846	1.3616	17.2376	3.8361	-1.5325	-2.2343	-1.8687	15.9613	15.7148	-13.2215	2.4534
6752.0000	-9.6244	-1.3438	-4.5152	3.1872	-0.4144	-2.4829	10.6374	27.3358	-1.6073	-4.3109	-1.1567	1.2912	13.2705	13.2916	-14.0695	19.9862
6760.0000	-8.6652	-1.4076	-4.2465	0.4710	-1.2056	-4.1813	19.1743	10.4947	5.9519	-2.4046	-2.7245	2.6231	27.5795	4.7116	-29.4805	23.9604
6768.0000	-8.0509	-1.2289	-2.6068	-1.2191	-3.4166	-5.2183	14.1426	1.9047	3.9831	-2.8120	-2.4931	0.9978	5.3877	-7.4092	-28.3886	6.1833
6776.0000	8.6567	-5.5418	-7.3902	4.0598	-6.7490	-11.1011	10.8409	29.2109	-4.3592	-8.2446	-2.5859	0.5997	10.1965	-14.3390	-23.8950	6.5181
6784.0000	-11.4599	-4.2308	-8.0419	-7.5007	-7.1041	-10.7556	-0.1496	34.2038	-9.1223	-9.6159	-1.7147	1.4159	14.3820	-5.7689	-35.1856	7.2191
6792.0000	-19.5023	0.0602	-2.2034	-8.2712	-6.1927	-6.9329	-17.5673	34.9418	-4.9175	-7.8818	-2.3157	0.3896	-17.8295	-8.8510	-40.9312	-1.9067
6800.0000	-17.2903	-0.3832	-7.9408	-1.5710	-9.0077	-4.9185	-31.9923	33.8554	4.1570	-4.9284	-4.5995	-1.2378	-9.3559	1.9796	-39.2189	-3.4744
6808.0000	-15.3313	-2.1980	-10.4735	-4.4276	-9.8098	-6.6522	-21.5020	21.0130	0.4299	-5.3342	-3.2700	-0.7861	-26.6018	1.2555	-35.4717	-7.4241
6816.0000	-2.9303	-0.0189	2.9013	2.0261	-3.0980	-6.1603	6.7240	35.5061	-2.5400	-6.9678	-2.1119	-0.2290	-32.6544	-20.3620	-22.1595	-2.2287
6824.0000	-21.4515	2.9092	3.5358	3.5900	0.3327	0.5363	-3.4995	23.5226	-0.0603	-2.8100	-0.8544	-0.5698	-20.9366	0.0438	-12.8689	1.3790
6832.0000	-22.1373	-2.3081	-10.6627	0.7682	-5.7642	-3.7437	-15.8237	-4.8142	-0.6992	-0.7092	0.3401	0.7483	-35.1417	6.1339	-12.5892	-5.0202
6840.0000	-10.9146	-1.8450	-7.3382	1.5298	-4.8918	-4.2516	-14.7072	-5.2576	7.6330	2.3354	-0.8933	2.0176	-22.8397	-9.8342	-11.9869	-1.9128
6848.0000	-9.9868	3.6605	2.7768	4.4910	1.4196	4.8347	-17.2080	-29.8100	10.3684	6.4839	0.0612	0.2152	-32.8345	-0.5759	-2.7272	-6.3261
6856.0000	7.9766	-0.1483	1.5462	8.5164	1.7265	1.5919	-1.1735	-53.8588	4.3713	6.8119	2.5065	0.6451	-27.8284	-12.9736	15.6073	-11.6682
6864.0000	2.9928	0.4497	4.0042	1.9243	4.4193	2.2282	-2.6323	-64.9006	7.3789	11.6093	4.4052	3.5038	-12.8678	-23.4835	26.4816	-8.7958
6872.0000	2.4375	0.6136	1.8665	-3.5392	5.5544	5.3518	-0.4751	-86.4107	5.3233	13.7260	6.1337	3.5540	-32.7133	-8.5424	34.0292	-11.6457
6880.0000	5.9400	-1.2168	-1.7860	-6.5831	3.4270	4.9347	22.7333	-74.5379	5.0262	11.5677	4.6529	1.3709	-24.4874	0.7294	40.3711	-14.5289
6888.0000	-5.5891	5.5428	5.2155	-1.7825	5.8564	14.6900	19.3830	-33.7962	15.2038	11.7115	0.5236	-3.3288	-33.9967	22.7556	41.0949	-14.8919
6896.0000	2.7117	3.5940	-2.6295	9.9891	3.5159	14.4595	4.4261	-27.3143	18.4917	11.3131	-1.0798	-3.6968	-34.1497	38.5408	36.0225	-5.4248
6904.0000	-9.6845	0.6350	-7.9363	1.1770	-1.1732	6.6749	-5.7968	-52.6829	20.8272	13.1427	-0.5427	0.1269	-16.3367	15.1920	15.7552	-7.6447
6912.0000	-19.2484	4.7695	3.8403	-2.5019	0.7674	8.2503	6.5360	-31.2603	20.8842	11.1094	-1.6152	-2.1534	-16.9245	-2.0519	15.9478	-18.9609
6920.0000	-4.2613	2.8182	1.1175	3.6431	3.0831	9.7532	16.7726	-16.2798	16.0551	9.1943	-1.1993	-2.6951	9.3323	16.5681	31.3666	-5.3578
6928.0000	-4.7738	6.0055	6.0477	0.1317	4.9891	12.8403	-10.0454	-62.4428	19.3136	14.3564	0.1219	-1.4450	1.1766	10.2851	19.2652	-12.1043
6936.0000	4.4278	8.6568	15.3937	4.2928	4.2367	12.2652	-19.9542	-34.8079	21.8431	12.1769	-2.3134	-4.0309	-3.1034	-15.0504	16.6002	-25.3414
6944.0000	11.1317	2.9441	1.9356	1.1439	0.7976	8.2072	-2.7852	4.7643	18.9283	7.8023	-3.7622	-3.0955	26.3829	8.6422	20.2329	-5.2346
6952.0000	8.0740	3.2017	2.8987	-1.6253	3.0071	9.7237	11.4502	-40.1173	15.5482	9.1381	-1.7650	-2.6457	25.4892	16.1104	15.4201	-5.8546
6960.0000	14.3477	1.0170	3.8433	9.9042	1.5346	4.5098	-3.5154	-37.5613	10.3281	7.3505	-0.6173	-2.3673	35.7860	-8.5568	19.6025	-11.6389
6968.0000	20.5250	-2.2348	-5.0644	7.5930	-2.3383	0.6462	-20.2886	-28.8109	6.4034	4.7103	-0.8822	-1.0659	33.2391	0.3776	7.9905	-5.2039
6976.0000	28.2098	3.9995	13.4438	2.5019	6.5723	8.7413	17.5854	-53.8360	2.6886	4.7424	0.2781	-3.8813	26.5687	-0.4732	15.8075	-13.0766
6984.0000	27.1799	2.6038	16.1038	-0.0383	10.0243	7.5908	35.4741	-34.4286	-5.7285	3.8477	3.4505	-2.5008	38.4603	-8.8803	44.1951	-10.0948
6992.0000	22.7942	-2.8446	2.7575	-7.4561	4.0649	-0.0193	10.8343	-32.1727	-13.1714	1.8796	5.1941	0.9203	32.3546	-8.1355	34.7000	-6.9868
7000.0000	17.2102	2.7855	13.8672	-4.1369	8.9152	5.2782	11.9618	-33.6135	-4.4363	4.9883	4.1414	0.7552	22.5276	-14.8982	30.1395	-4.9252
7008.0000	11.0451	3.6725	9.2661	-3.5838	10.4198	10.0810	19.8418	-13.9065	3.5588	7.6590	3.0808	1.1775	3.9454	10.8761	40.0173	8.3571
7016.0000	15.6928	-2.3639	-2.7427	-8.2667	3.6798	3.4196	14.5057	-26.1350	-11.5634	1.2887	4.2073	0.0656	12.9071	21.5742	29.8570	0.4200
7024.0000	11.5504	-2.8420	1.7445	-2.3675	2.5745	-1.6511	0.7508	-23.1827	-19.7018	-2.3063	5.3609	-0.0458	26.9713	-4.6398	23.4830	-8.1745
7032.0000	3.1328	-5.8567	-6.8104	-4.1770	-1.0396	-6.1422	-10.5998	-12.3118	-17.7240	-1.4244	5.7085	2.7162	17.1587	-8.4056	22.2936	-3.6521
7040.0000	1.7871	-9.6502	-13.2467	-11.9449	-5.3337	-11.6880	-11.2582	-14.6147	-26.9229	-5.2928	6.5509	2.9613	30.2727	-9.6745	15.3748	-8.5337
